,AF3,F7,F3,FC5,T7,P7,O1,O2,P8,T8,FC6,F4,F8,AF4
0,3.794321325963051,-1.6128507386600521,-4.021008381537617,-1.6614680002736766,-1.8790819418187934,-2.197008238565309,-4.905840099750342,-0.561382114248663,-4.907539551369891,-4.459365158231203,0.9635683311566968,-0.7832796155510394,1.0004806736157856,-25.366280211670862
1,3.748464505868628,-1.2650401948137735,-5.224896779613709,-1.985704647049236,-1.0549511505776734,-1.5563139513270252,-4.600121369856307,-0.6620673265369078,-6.715255471204046,-7.264555294710096,-0.43307689676661376,-2.8101169012524907,-0.4557187552392795,-31.963816525778025
2,3.708354156360947,-0.9170564815418993,-6.413504210023705,-2.305834001917708,-0.2354617712975884,-0.916812055874711,-4.30817497755595,-0.7643394822946818,-8.475237056087431,-10.024920567753878,-1.797916758665996,-4.807094714032342,-1.8745777854300223,-38.4959642272358
3,3.6820758649287937,-0.5644904720378211,-7.564397051595504,-2.613327771303714,0.5750951892571061,-0.28683157440773543,-4.037143990108011,-0.8666862335584161,-10.151644676244766,-12.68754949696061,-3.101043799932073,-6.741020688615017,-3.228065041843708,-44.838655290059506
4,3.6765663953247643,-0.20332322854321436,-8.656688090495482,-2.9002656585957665,1.3722302944620157,0.3254178189529144,-3.7940556711165603,-0.9676209962280675,-11.711203726710592,-15.202272450121535,-4.314796150580131,-8.58064415131449,-4.490289140320205,-50.86879474469083
5,3.697054572042775,0.16975447453951326,-9.671812463378437,-3.1596770306521145,2.1511207973847744,0.9119798147526067,-3.5857747003545124,-1.0657497295467773,-13.124253949572008,-17.523062498839128,-5.41472549449462,-10.297589089090819,-5.6383246768926245,-56.466210150836524
6,3.7466419800843,0.5570707955395306,-10.594165600387212,-3.3858230679617387,2.9065145423552514,1.465281985198059,-3.4188954822887374,-1.159821445872499,-14.365635121044651,-19.60923827003385,-6.380389524132039,-11.867140081133709,-6.652916042681393,-61.51554481189859
7,3.8260517194964536,0.9597652490103673,-11.411569044266772,-3.5744042904073807,3.632683912812681,1.9782617636424824,-3.2995676333894175,-1.2487603362343114,-15.415374935106449,-21.426422659323343,-7.195936474806024,-13.268847344522532,-7.519028838473072,-65.90807465809904
8,3.9335571879875695,1.3776559521100968,-12.115543985510984,-3.722683748676146,4.323437958647615,2.444487606741109,-3.233258806090319,-1.331679507830856,-16.259158898334377,-22.9472284129852,-7.850465983326051,-14.48692958460068,-8.226227638302813,-69.54343865919621
9,4.065085949860961,1.8091871124845336,-12.701389077241178,-3.8295225452295187,4.972196743766881,2.8582755359244363,-3.224469162850505,-1.4078777376009322,-16.88857615397613,-24.151661263359316,-8.33816684638483,-15.510468256628169,-8.768870257535422,-72.33128198519704
10,4.214478479633329,2.251456586611442,-13.168075423214024,-3.8953308951633616,5.572127316428542,3.214801130175743,-3.276420184870129,-1.4768215839351817,-17.301147994054247,-25.02725072310121,-8.658246836546851,-16.333402341593963,-9.146121316300784,-74.1928176759011
11,4.373870194696802,2.7003185704139834,-13.517984218869879,-3.921943556495739,6.116336134969013,3.510206378359673,-3.390745594820389,-1.5381160210989429,-17.500155807482635,-25.568934467261467,-8.81468060152757,-16.95434576623143,-9.361799139985727,-75.0623135808622
12,4.534159059547476,3.1505529596711632,-13.756519553208534,-3.9124321555584056,6.598108782826111,3.741699911713007,-3.567213147194501,-1.5914676277383923,-17.49429121911346,-25.778732280434006,-8.815807352723509,-17.376257598903333,-9.4240770287322,-74.88850558945808
13,4.685519845366218,3.596090695051495,-13.891630792225543,-3.870868564923098,7.011184559226923,3.9076482837746727,-3.8035030868969075,-1.6366451106396709,-17.297153258764478,-25.66524945182234,-8.673810947826714,-17.605997800708888,-9.34506179310612,-73.6359265795929
14,4.81792820850288,4.030282928763848,-13.9332776788621,-3.8020538378487716,7.350050951594524,4.007655326283577,-4.095063480776736,-1.673442111847354,-16.92661676175484,-25.24304843170247,-8.404113120299348,-17.653800611653267,-9.140271148274724,-71.28612529854477
15,4.921661687177365,4.446200493980635,-13.89286857137727,-3.711227146095093,7.610240936774141,4.042626175197342,-4.4350560513326736,-1.7016464955842403,-16.40409449294981,-24.531923438479616,-8.024707726648842,-17.53269599912098,-8.828029826460888,-67.83873305504977
16,4.987750444580539,4.836949374385744,-13.782698576542652,-3.6037689115416716,7.78861464392233,4.014812004686602,-4.814399752336923,-1.7210189554575865,-15.75371410667733,-23.556107122030113,-7.555460233711741,-17.2579075025645,-8.428803126590903,-63.31232041070385
17,5.008358479761167,5.195988623477975,-13.615409291676874,-3.4849116055271234,7.883606633301901,3.927830479104559,-5.22191358178255,-1.731282531314147,-15.001430867447231,-22.343432317017477,-7.0173921273570325,-16.846251010772587,-7.9644854881223734,-57.7449720591673
18,4.977085194732713,5.517439021062391,-13.403485643762236,-3.3594706560457204,7.895421275355474,3.7866554798584917,-5.644555164137178,-1.732123785389856,-14.174098480636076,-20.92446658687879,-6.431965578850075,-16.315552948219935,-7.457660543318122,-51.19449761783185
19,4.889185525843954,5.796371852782904,-13.158799416381862,-3.2316071862007014,7.826161291833601,3.597568427740852,-6.067747527138166,-1.7232056674810172,-13.298523444716162,-19.3316344651732,-5.820381574851097,-15.684099700006355,-6.930849375104742,-43.73819260139309
20,4.741712563288376,6.029066541488352,-12.892205205982338,-3.104634046206551,7.6798779898042655,3.3680637035166883,-6.4757831010430635,-1.7041911805902306,-12.40053236155147,-17.598343009102713,-5.202905791574707,-14.970125399987417,-6.4057664088151665,-35.47207098055769
21,4.533589260190205,6.213224206731827,-12.61319319566895,-2.980875980890531,7.462535694267492,3.106703385547305,-6.852290841967401,-1.6747759192948208,-11.504085112546413,-15.758129353247508,-4.5982397559225285,-14.191343654117368,-5.902606359989635,-26.50951005354656
22,4.2656160895523,6.348123071821806,-12.329603395886998,-2.8615928975559832,7.181887204235059,2.8229216343868306,-7.180749304746843,-1.6347266804797171,-10.630468017053271,-13.843852084337911,-4.022958441947029,-13.364529820265936,-5.439388653258358,-16.979279115905367
23,3.940420552443111,6.434702271467411,-12.047406666048381,-2.74697190513658,6.847261965332365,2.526784847052782,-7.4450259314674065,-1.5839227674545835,-9.797599031822106,-11.886949876207696,-3.4910378843101815,-12.505162632156035,-5.0313865307340535,-7.022963250853796
24,3.562353673099277,6.475563882825458,-11.770557860595117,-2.6361894201042486,6.469274380618566,2.2287181227141146,-7.6299214686815535,-1.5223962277662944,-9.019471725637068,-9.916790476774327,-3.0134960950983705,-11.62713540347885,-4.690666745953053,3.208161291389478
25,3.1373390123009193,6.474888905202436,-11.500924928511164,-2.5275395139943297,6.059465963442997,1.9392106743603938,-7.7216983040526275,-1.450367021042,-8.30575704572598,-7.960130587745301,-2.598165955820844,-10.742546072118662,-4.425762125201863,13.556698843094145
26,2.672681340771002,6.43827035925324,-11.238294513947192,-2.4186192107768507,5.62990076764677,1.6685129451369967,-7.70857202979422,-1.36826918842141,-7.66157338116244,-6.0407022317301795,-2.249609828447054,-9.861571386484876,-4.241492955333381,23.86301453216126
27,2.1768439354045603,6.372473841938807,-10.980450807768957,-2.3065564628105704,5.192737418605753,1.4263372200667,-7.581146483771777,-1.2767647923799936,-7.087427970575013,-4.178934594778993,-1.9691749743804443,-8.992424941434184,-4.138944802867607,33.9692604169447
28,1.6592038531654143,6.2851407876411605,-10.723322162342848,-2.1882633319173874,4.759802185039345,1.2215721244346869,-7.332774512848182,-1.1767438239514783,-6.579327452446257,-2.3918139422473987,-1.7551800273934512,-8.141393997885666,-4.115601837464117,43.72337651744953
29,1.129792581410535,6.1844511365105355,-10.461190225414304,-2.060696397925765,4.34218567208327,1.0620198741518616,-6.959830358095275,-1.069310151540944,-6.129052044295977,-0.6928796454478052,-1.6032175138986944,-7.312947629217312,-4.165627508115701,52.98290012067066
30,0.59902626685607,6.078760736497547,-10.18695780007369,-1.9211081223904813,3.9498817088956373,0.9541636869856427,-6.46188448908511,-0.9557553246178132,-5.72458504619418,0.9076486140657664,-1.5065548172253944,-6.509908144742067,-4.280278512688375,61.618430564910966
31,0.07742760808204197,5.976226951624526,-9.892472084220032,-1.7672752668863663,3.591482320129134,0.9029715692213054,-5.841776786866369,-0.8375231309831823,-5.350685865517623,2.4026204552591324,-1.4566141020041667,-5.733677201703959,-4.448432627328688,69.51661813537729
32,-0.4246584492423266,5.884435791397557,-9.568898341422582,-1.5976924853983934,3.2739383773738413,0.9117417896427457,-5.105588366365809,-0.7161681584259362,-4.989590526821868,3.7875935431584784,-1.4435099290180784,-4.984506675697113,-4.657205987626348,76.5825735172202
33,-0.8973519188947179,5.8100456587135385,-9.20713613548164,-1.4117209420888643,3.002391852950829,0.9819946054506048,-4.2625158205376685,-0.5933114898637233,-4.621819158473244,5.060379272770135,-1.4566223657341069,-4.261802804921387,-4.892631549907025,82.74162620695114
34,-1.3315239664402785,5.758464902578923,-8.798267303991762,-1.209683507096319,2.7800824546270744,1.1134142043872806,-3.3246541481883205,-0.4705962705806094,-4.227065079354507,6.2205192681311265,-1.4851835373566942,-3.56445114920646,-5.1403681933966725,87.94039351680215
35,-1.7190784937072157,5.733580716684975,-8.334022429636882,-0.9928999024084696,2.6083287844754004,1.3038445647151442,-2.306696037374196,-0.34964532006991045,-3.785134629184376,7.26872268086402,-1.5188556905526973,-2.891149519186444,-5.3864090314673865,92.14715394185582
36,-2.0532258523827385,5.737554647110863,-7.807250510930171,-0.763657720570464,2.4865818869711678,1.5493429007317951,-1.2255559962753901,-0.23202242039635104,-3.276901957533391,8.206299511669473,-1.54827812053017,-2.240735787520076,-5.617757600942745,95.35154817424576
37,-2.328744589732213,5.770695851609456,-7.21237451207727,-0.525119279374927,2.4125467772939495,1.8442936409465402,-0.09992892512282894,-0.11919860183532305,-2.685240649191891,9.034628317678605,-1.5655592443091597,-1.6124971935371955,-5.823041491344178,97.5636571848648
38,-2.542224768672262,5.831418759295267,-6.545813487462092,-0.2811696541445521,2.3823650418511084,2.181583186299496,1.0502053811932517,-0.012524558461439083,-1.9958952013018747,9.754696679525697,-1.5646897994240994,-1.0064475652721132,-5.993034605053435,98.81252907507725
39,-2.6922833050007187,5.916287374523179,-5.806350467917833,-0.03621691504382319,2.390848944361234,2.552830685701588,2.2041177114632466,0.08679006415673049,-1.1982590482415232,10.366749111385584,-1.5418545214195012,-0.42355904386477083,-6.121061971543454,99.1442439256464
40,-2.7797393775320196,6.0201433659951835,-4.995424859551869,0.20503944322422918,2.4317548751373925,2.948664207287194,3.3408879530546822,0.17769049635657158,-0.2860306157677258,10.870069552062347,-1.4956235149122112,0.13406444632082204,-6.203265823481893,98.6196173653851
41,-2.80773737234656,6.136309020321263,-4.117329084852713,0.4378525167525038,2.4980818244732914,3.359027322049934,4.439967368786443,0.25928463823817505,0.7422759735782115,11.262914620910816,-1.4270113048363924,0.6630834410252445,-6.238719148831889,97.3116484480353
42,-2.781806002658559,6.256850685220087,-3.179291635633538,0.6576642055343223,2.5823794272545504,3.7734996267114496,5.481724584863328,0.3308463456649304,1.8829836316578408,11.542600747437785,-1.3394003790517839,1.158898269904588,-6.2293823786607785,95.30281636045255
43,-2.7098443984433125,6.372885651223637,-2.1914326233136103,0.860315473663903,2.677050464144885,4.181615777015687,6.447956625059923,0.3918160442863347,3.127081361996076,11.705734979576361,-1.2383349302720361,1.6157099292792128,-6.179908337026933,92.68232469506928
44,-2.602028370138934,6.474916193405961,-1.1665832947400399,1.0422170704086988,2.774634442452377,4.573170114866859,7.322349532518557,0.4418004807452528,4.460237701574783,11.748567665788372,-1.1311978287909104,2.0266692228001353,-6.0973086710638915,89.54338227580556
45,-2.4706325146861903,6.553177564589954,-0.11996755776321813,1.2004729555335054,2.868061647954894,4.938497286148538,8.090877157145817,0.4805731180319967,5.863002150994115,11.667436821927692,-1.0267891403959828,2.3841125462667305,-5.990501532729255,85.98059674214976
46,-2.329766534867098,6.5979902853789785,0.9312491444854397,1.3329546893344482,2.9508705651429255,5.268723037327585,8.742130582080325,0.5080761136801786,7.311193888529614,11.459269549864485,-0.9348279325617099,2.6798779307082548,-5.869765460077202,82.08754335243201
47,-2.1950274277324,6.600109542276716,1.968530693288194,1.4383305468893075,3.017385387513848,5.555983118657606,9.267573855866141,0.524424088090365,8.776472656602957,11.122104883666124,-0.8654009660200144,2.9056900353981345,-5.746128037894965,77.95455918261109
48,-2.0830732975947175,6.55106499443789,2.9726405740398327,1.5160573402380524,3.062853679850027,5.793611187798146,9.661724073647097,0.5299092271659425,10.227082067318461,10.655603672743977,-0.8283825751403325,3.053597976970817,-5.630719937304043,73.66680290778208
49,-2.0111292958150173,6.443482952384534,3.9243846376970977,1.5663449406791012,3.083546319985186,5.976298097923568,9.922255447015836,0.5250067811461469,11.628750747365524,10.061513801502459,-0.832850056201111,3.11644553531512,-5.53412559913514,69.30261171934197
50,-1.996440982335945,6.271380715742263,4.805393970150656,1.5901028721651453,3.0768224063061163,6.100224313282329,10.05002765877121,0.5103796056026424,12.945731882318062,9.344063275671454,-0.8865183860752102,3.0883498179752333,-5.465761230083959,64.93217849063106
51,-2.0556946169781756,6.030420785117243,5.598911183366039,1.5888757645163791,3.041161234066916,6.163164355222714,10.049038302286672,0.4868799400377075,14.141956769344397,8.510259374251305,-0.9952173936758187,2.965162224112687,-5.433308833302057,60.616563488467506
52,-2.204427349905336,5.718110991866049,6.290539939924289,1.5647710353777604,2.976162344434531,6.164558425855073,9.926297797761963,0.4555462447153467,15.18227261546694,7.570077924208298,-1.1624345185456835,2.744884398914751,-5.442232203927502,56.407045270781765
53,-2.4564529873240946,5.3339354795847544,6.868915039560162,1.5203787105446533,2.8825136308184427,6.1055437018603245,9.691623788283174,0.4175928417496673,16.033728768242643,6.536531111916616,-1.3889474817986471,2.4280114282626104,-5.495398218808613,52.34480464785509
54,-2.8233302015921216,4.87940195190181,7.326250283824771,1.4586806261502927,2.7619270808829186,5.988937395452735,9.357352010436866,0.37439048841835554,16.666868990099832,5.425604771277531,-1.67257214989504,2.0177752101383546,-5.592824297067303,48.46092474028302
55,-3.3138982618839696,4.357994386005139,7.658725538868186,1.3829456436580492,2.6170424304784365,5.819165467600067,8.937963237338538,0.32743688164512036,17.056980962629087,4.256058546311023,-2.0080491389888206,1.5202643244879641,-5.731568707302326,44.77668148571857
56,-3.9338998953562565,3.775028254585218,7.86668388656665,1.296609715720333,2.45130094627955,5.602134377681788,8.449631482574874,0.2783173704880016,17.185249029986995,3.0490871272490687,-2.387086969875287,0.9444041478852787,-5.905772524082298,41.304093975201695
57,-4.685702866093874,3.1374158278735242,7.954623515332148,1.203143900353549,2.2687941947508987,5.345047894035147,7.909706298785388,0.22865758672299144,17.039753525357995,1.8278488000847406,-2.7985701843179336,0.30179210473026385,-6.106850868360076,38.04670233944639
58,-5.568123470600274,2.45335945715261,7.930984792230151,1.1059178302654198,2.0740950600003845,5.056175826892037,7.336149773976258,0.18007087694084514,16.616261141098963,0.6168774804044947,-3.2289289014387577,-0.39360400086532765,-6.323819251094174,35.00054121162138
59,-6.5763483277147765,1.731998096109225,7.807748343691972,1.0080689497943887,1.8720797819736616,4.744585365490643,6.7469547000953805,0.13410402493927012,15.91875674407943,-0.5585962692795191,-3.6626533940548933,-1.1258640415232843,-6.543731254260457,32.155278001905266
60,-7.70194654362676,0.9830354690093792,7.599872926913197,0.9123883184475093,1.6677503643420242,4.419847491339988,6.159573015144064,0.09218484287705936,14.9596779136589,-1.6733829143609709,-4.082925370113848,-1.8776196753049637,-6.7521978164256815,29.49548627229984
61,-8.932962505621864,0.2163778983200694,7.324611023982513,0.8212322855324088,1.4660666795447066,4.091730449863275,5.590382584571969,0.05557497828433462,13.759827977035389,-2.703094118992871,-4.472328634525969,-2.630608922091485,-6.933955922622498,27.002024029768656
62,-10.254079655628146,-0.5581928286083618,7.000744842168878,0.7364666257806696,1.271796978256694,3.7698903928434895,5.054216153544663,0.025330722874603563,12.347959417303539,-3.624887975352892,-4.813597014681417,-3.3662456785826183,-7.073455059745165,24.653483956540384
63,-11.646847155301042,-1.3312905955364074,6.647785904117212,0.6594464378476834,1.0893936890307867,3.4635676440448546,4.563970101836356,0.0022736849813690886,10.760035739734219,-4.418163255151779,-5.090357493570249,-4.066173553818944,-7.155433218272056,22.427677801435703
64,-13.089964021655186,-2.0941257388849217,6.28517841217264,0.5910317337877432,0.9228980321959499,3.181296728310538,4.130304131975558,-0.013027820617180896,9.038195405004505,-5.065171125116238,-5.287831117175434,-4.712781764066872,-7.165460180499384,20.303111042653935
65,-14.559618686306699,-2.838629899449118,5.931541050086312,0.5316354566147784,0.775872844230876,2.9306393356771396,3.761437434392348,-0.020266561355560743,7.229455402959781,-5.5515206160138675,-5.393462116213083,-5.289670788100131,-7.090433603385333,18.260396746244812
66,-16.029885637924437,-3.5575092952221468,5.603974600776298,0.48129756449684874,0.6513593177137873,2.717950734242007,3.4630421328083205,-0.0193937728195688,5.384203383579015,-5.8665650689604725,-5.397454994514445,-5.782065195912764,-6.91902216965365,16.283549664703838
67,-17.473184118136015,-4.244240081176955,5.317454558150606,0.439775840352745,0.5518506520563832,2.5481902914112307,3.2382301487569207,-0.010607102780265732,3.5545356896191302,-6.003669219823591,-5.293208415009339,-6.177178548586481,-6.642058560956335,14.361094924396166
68,-18.860805133464176,-4.893026163208747,5.084320469441664,0.4066420001434688,0.4792740577469936,2.4247846506521076,3.087625171542552,0.005669347546961421,1.7925050965458265,-5.960367214046272,-5.077641991183215,-6.464538500034375,-6.252890740900521,12.486923968465035
69,-20.163510602225422,-5.498742228135623,4.913869031165772,0.3813715600930109,0.43497264876065916,2.3495479353312776,3.0095084771321607,0.028810946885159294,0.1483476513513458,-5.738427106888483,-4.751416016927341,-6.636278234250501,-5.74770044795095,10.660837625729101
70,-21.352202063467256,-6.056882256164881,4.812056590297609,0.3634181319591307,0.4196808324232791,2.3226583955236073,3.000026822742391,0.05802237904482117,-1.3312374997789382,-5.343835877358556,-4.319044076705079,-6.687394121546598,-5.125792253096945,8.888733121094386
71,-22.398647515584088,-6.563527326275801,4.781317493818499,0.3522667492685966,0.43349041204466565,2.3426866755075557,3.0534519919450385,0.09236943956496164,-2.604679573680295,-4.786712034661773,-3.788895479368145,-6.615961142950549,-4.389846720392759,7.182415626859882
72,-23.276245662022887,-7.015338167801478,4.820505888785038,0.347465353655567,0.47580883628190773,2.4066684159680136,3.1624831596086667,0.130810938144469,-3.636925850252045,-4.081143545358995,-3.1730809454445312,-6.423289447553344,-3.5461201268427036,5.5590410476039995
73,-23.960799082115205,-7.409570103769643,4.92496844180556,0.3486373246762197,0.545314952959309,2.5102134644489267,3.3185834020466496,0.1722291197355491,-4.400564969365053,-3.244940717875187,-2.487213455518427,-6.113999881195848,-2.604564495422178,4.040220874984454
74,-24.431263322681723,-7.74410275777363,5.0867524946672384,0.35547984063600113,0.6399204014094594,2.647645041210998,3.5123396057582785,0.21545753164922618,-4.876633727889943,-2.2992903129837825,-1.7500384350806517,-5.695996242705661,-1.5788386106220937,2.6508388807347587
75,-24.67043831152073,-8.017474847084522,5.29494775476612,0.36775287458360834,0.7567459405262311,2.812164371249776,3.7338315400652027,0.25930591999619584,-5.055077115541918,-1.2683001915788836,-0.982933767745189,-5.180318563756107,-0.4861841709465939,1.417642004670054
76,-24.66557097833579,-8.228914839039968,5.53615094706972,0.38526278226161287,0.892121964192113,2.996039629149037,3.9729931004200973,0.3025823261936185,-4.934854055134419,-0.17843194861530115,-0.20928871390977022,-4.580872850642002,0.6528505536145381,0.3676756103688489
77,-24.408842010845078,-8.378359907096463,5.795034344963281,0.4078438078777282,1.0416218821481504,3.1908218759000144,4.219948747424448,0.34411306052949414,-4.5237035208878495,0.9421711193940505,0.5462210482624961,-3.914044505712595,1.814846899933734,-0.4733613014994656
78,-23.897714344870813,-8.466457580937087,6.054992636563476,0.43534058154279137,1.2001356964577443,3.3875925196786127,4.465311369704734,0.3827617143278985,-3.837604235479484,2.0644446090774613,1.2584389646522758,-3.1982117933762044,2.9741082764525206,-1.0827615804220911
79,-23.13512609767627,-8.494546501098032,6.298838756766123,0.4675941889166663,1.36198804050222,3.577244094355422,4.700432633243617,0.41744868946130015,-2.8999742872896217,3.159229468608919,1.9025862193440004,-2.453181036061647,4.103394329933855,-1.4423756074350151
80,-22.129516111523028,-8.464614779812198,6.509517866449833,0.5044332464784684,1.521100076795178,3.7507888365619952,4.917601037874832,0.44717261992856594,-1.740665004820768,4.198136741569056,2.4551427384406113,-1.6995673563088347,5.174771677127085,-1.5400190337704338
81,-20.89467578237559,-8.37923643704235,6.670809143050921,0.5456699318204673,1.6711892260116186,3.8996805854997154,5.110185025321482,0.47103443986958426,-0.39480757150151136,5.154419269963386,2.894717796139266,-0.9581449764215364,6.160547302197856,-1.370650469557943
82,-19.449426159542703,-8.241487853302651,6.767987188121783,0.591099651504875,1.8059961923670915,4.016128459802366,5.2727189688291825,0.48826382965551846,1.0984281518283643,6.003816593911204,3.202877225525005,-0.24918987996302483,7.034245263383456,-0.9372562422583999
83,-17.817124603912013,-8.054847113138505,6.788418470160242,0.6405021653248649,1.919525753218116,4.093377759545022,5.400930344367386,0.4982465957132652,2.697105624352802,6.725338580032963,3.3648962277188437,0.40816511136080663,7.771585811482722,-0.25139126474396883
84,-16.025011280184014,-7.823080003479702,6.722072717504554,0.6936413446189852,2.0062859966504165,4.125935254178671,5.491708445102037,0.5005505656656829,4.357773541519172,7.301954045948876,3.370410094232089,0.9965464689792042,8.351427373455792,0.6666601963767514
85,-14.103413150630615,-7.550117807126777,6.56193344607836,0.7502601420948269,2.0615097464842993,4.109722027114807,5.543019084765756,0.4949471834043173,6.036655531358611,7.721152393367219,3.213938551697086,1.500913674083342,8.756634245548979,1.7881215377256
86,-12.084831950241885,-7.239933769769201,6.304294943234977,0.8100670321647225,2.0813421722258423,4.04214595026477,5.553774643656129,0.4814263236972764,7.6907456212533285,7.975349440772596,2.8952621559036897,1.9090770967835464,8.974835080509783,3.076353442258438
87,-10.002951815056617,-6.896426489843394,5.948935133326706,0.8727109113901842,2.06298093949096,3.9220953767307147,5.523672485750333,0.46020265693738865,9.27878769999292,8.062113799910481,2.41963111876623,2.2121442698509437,8.999039101845817,4.4878451824618555
88,-7.891610026054186,-6.523318824366632,5.499155937868884,0.9377437761907338,2.004760007208828,3.749863272815732,5.453015893874884,0.4317127307769751,10.76212635432255,7.984197046841953,1.7977888340098236,2.4048754948819018,8.828078753466796,5.97351188863249
89,-5.783779057276746,-6.124080042471122,4.961686343483688,1.0045737943390223,1.9061743560396107,3.527015233296071,5.342530554094639,0.3966026360101706,12.105423808074013,7.749359459384466,1.0457957662436945,2.485927738110049,8.466850343117232,7.480223033763812
90,-3.710609040976708,-5.701877088585978,4.3464488481577,1.0724141880089886,1.7678489094071839,3.2562159294064226,5.193187606622043,0.35570686147403907,13.27724346544546,7.369993641321742,0.1846459926948465,2.457966808440892,7.926329959184527,8.95247756110271
91,-1.700577085575949,-5.259558379793937,3.6661963790168253,1.1402347138605682,1.5914594562032227,2.941028127161736,5.006042477814652,0.3100197187360627,14.250505516805296,6.862560657813071,-0.7603211093835116,2.3276319476686043,7.223351355699895,10.33414093755553
92,0.2212158772016168,-4.799671134059056,2.9360328065632935,1.206722626918351,1.3796161768942703,2.5856978531954233,4.782097405942351,0.2606611996646795,15.002824501817004,6.246865752077577,-1.7601992018998742,2.1053430287966126,6.380144469600836,11.570166792358203
93,2.0335684182909417,-4.324511130164851,2.172835195953141,1.2702593878937967,1.135721661743467,2.194938807393767,4.522194474128784,0.2088391189806526,15.516742178903657,5.545211342684451,-2.7834562488429193,1.8049476740485397,5.423645888050258,12.608237718748462
94,3.7195004254241737,-3.8362017967864235,1.394600239764645,1.3289182798364412,0.8638153419010187,1.7737283379102615,4.2269448072593105,0.15580907637745026,15.779870879403532,4.781472504108036,-3.7970011794740364,1.4432137884161995,4.384604852684906,13.400273916145865
95,5.266364400791126,-3.3367971566840082,0.6197416330182728,1.3804867061594472,0.5684152304928782,1.327126140505573,3.8966986143378057,0.10283345576703881,15.784962397023332,3.9801439313707894,-4.76733084112204,1.0391823679076118,3.2965198100634607,13.903773065938886
96,6.665751887514767,-2.8284003566714775,-0.13363002678497404,1.4225155388975599,0.2543661962754602,0.8601255970340628,3.5315603014949946,0.051140587339620465,15.529915258273613,3.165407300372526,-5.661707584907113,0.6134055774187135,2.1944502544004076,14.082958901384192
97,7.913216327469302,-2.3132867836757525,-0.8484084834723624,1.4523965680077364,-0.07329791210937045,0.3775461321168652,3.131452406306264,0.0018854079084926168,15.017728934684326,2.3602639704962662,-6.449316296120109,0.18710503595849384,1.1137554124282254,13.909727935222195
98,9.007847884943878,-1.794018792762659,-1.5091351303650227,1.4674675372266663,-0.40947303830192805,-0.11602766512225005,2.6962302850595763,-0.043886763297927484,14.256407680586603,1.5857705951368886,-7.1023514002206385,-0.21870660198087016,0.08881443559385438,13.364392354295767
99,9.951745703983805,-1.2735384851259628,-2.1025467119438086,1.465142069255691,-0.7490816898327648,-0.6162585208513116,2.225845684310423,-0.085271756511907,13.258810442795975,0.8604056361603771,-7.596989435494025,-0.584093235069001,-0.8482175424086126,12.436221693597641
100,10.749437042841944,-0.7552262362423977,-2.617996194428208,1.4430590073394272,-1.0871474390747453,-1.1190238911225283,1.7205523257128457,-0.12153224626094407,12.04243824951637,0.19958462596753604,-7.914210562948019,-0.8910051453588685,-1.668566112558,11.123787436755036
101,11.407290689426759,-0.242915800243604,-3.0477262427374536,1.3992426767752235,-1.4188495373369723,-1.6203465383096287,1.1811416051343122,-0.15211696971211544,10.629147900594006,-0.38466749528141647,-8.040441777739115,-1.123989955700797,-2.347860885450781,9.435114496077823
102,11.932964906590303,0.2591387295180934,-3.386987712595136,1.332262788292007,-1.7395622330263607,-2.116300586538488,0.609192181155998,-0.17667314920542423,9.044781295468033,-0.8838869167942581,-7.968004264371415,-1.2707734220865,-2.866986207722089,7.387642246735427
103,12.334919367145714,0.746343535552546,-3.6340087125884986,1.2413808324559223,-2.044884590017339,-2.6029078066325493,0.007314211635176454,-0.19505192960426457,7.318703249282826,-1.2931911217872958,-7.695355770018254,-1.3226901886083486,-3.212728143557981,5.007995417743787
104,12.62200800994876,1.2138867300412262,-3.789831365120198,1.1266694886323165,-2.330666687064152,-3.076039072629147,-0.6206322470108658,-0.20730662413376447,5.483246162255692,-1.6111607784388924,-7.227125167481948,-1.2749551307608356,-3.378194786846375,2.3315618362783828
105,12.803157429421391,1.6568885732230858,-3.858042169039423,0.9890929235807334,-2.5930375371437084,-3.531334477308494,-1.2693650306501252,-0.2136834091483123,3.5730657071220318,-1.8395996796752472,-6.573941369244525,-1.1267743659529883,-3.362995476017782,-0.5981295569463755
106,12.887125151729673,2.0705636678573036,-3.8444269283989705,0.8305385093385913,-2.8284393297087336,-3.9641536977567915,-1.9320735949460515,-0.21460393430841967,1.6244162768415555,-1.9831926565429667,-5.752064243974607,-0.8813016666254071,-3.1731738131777694,-3.730239790058084
107,12.88232556507607,2.4503779042501064,-3.7565820434472266,0.6537941254271796,-3.033671460946454,-4.369566137641861,-2.6003973161441545,-0.2106393902143975,-0.32564192307845385,-2.0490845042594885,-4.7828318815100825,-0.5454511448158247,-2.820899286451617,-7.0076698313565755
108,12.796709053161536,2.792185956776701,-3.603510916843826,0.46246973257325286,-3.2059458571545205,-4.742387423510864,-3.2645040994038514,-0.20247617248104913,-2.2400894905068283,-2.046405061473958,-3.691945470685937,-0.1295806187707537,-2.323931558881248,-10.368335340177191
109,12.637681354475715,3.0923406252262002,-3.3952286203520368,0.2608669916086586,-3.3429524540194997,-5.077264603132336,-3.9132790968833064,-0.19087442502459798,-4.082829939648998,-1.9857659574966955,-2.5086188918916843,0.35293765004184685,-1.7048792358808242,-13.74666234683274
110,12.41205402085382,3.34777151433429,-3.1423912174120576,0.05380556048250599,-3.4429310232374233,-5.368807407649332,-4.5346243075759505,-0.17662209578671798,-5.819584317693625,-1.8787528327582403,-1.2646241148909303,0.8862405630734501,-0.9902813772002157,-17.0752840239753
111,12.126022004957676,3.5560359653936713,-2.85595891919837,-0.15358153630614574,-3.5047433260848995,-5.611758239378392,-5.115858865882975,-0.16048820334119004,-7.41876998747726,-1.737433020548743,0.006734880399332853,1.4525730294158865,-0.20954582427074495,-20.28689728898238
112,11.785169693725308,3.7153491036170707,-2.546894942023029,-0.356068932312804,-3.527937990978423,-5.801190386972746,-5.644199124396615,-0.1431795100040298,-8.852331214892269,-1.5738931957015065,1.2716876681341387,2.032943425247056,0.606216257570675,-23.31621390740764
113,11.394510296381075,3.824602200248375,-2.225895742330908,-0.5485614411783005,-3.512799841537783,-5.932723310018974,-6.107289885780777,-0.12530471540391133,-10.096488604561685,-1.3998157347982125,2.497072356126968,2.607818437549801,1.4254157176948066,-26.101919702634166
114,10.958563838203943,3.8833791081385667,-1.9031449852809978,-0.7263044511123266,-3.460376039552558,-6.002745194928118,-6.493754884885763,-0.10734965420423884,-11.132377347755963,-1.2260982697203546,3.6513914083516683,3.157840897174554,2.217223508029611,-28.58854400399266
115,10.481476049982975,3.89197898277117,-1.5880838942878692,-0.8850710141688988,-3.3724734433371464,-6.008634238982435,-6.7937349664737345,-0.08966577990612859,-11.946548392566442,-1.0625188845867846,4.705819910500646,3.664553088718397,2.952772552724953,-30.72814304513563
116,9.967175102262274,3.8514495155745676,-1.2891938944693198,-1.0213174447463729,-3.251624719163553,-5.9489693587591805,-6.999384168184322,-0.07247253926628874,-12.531310159874891,-0.917449121948414,5.635136476883523,4.111104421760338,3.6062736213741715,-32.48171448010394
117,9.419556337012576,3.7636287787573464,-1.0137926456815929,-1.1323022452449445,-3.101024343198908,-5.823718345654547,-7.105295966978936,-0.05587245407386725,-12.884891871518294,-0.7976178028583742,6.4185441426738565,4.4829168463155495,4.1559956214347356,-33.82028151635692
118,8.842678365612082,3.6311872659128213,-0.7678503161412202,-1.2161658194000096,-2.92443868769768,-5.634388607769477,-7.108834565542195,-0.03987633101010024,-13.011414385852818,-0.7079301012562036,7.040345642597477,4.76827605827877,4.585063277844237,-34.7256092960467
119,8.240949490082237,3.457657393878125,-0.5558373140547765,-1.2719704993437508,-2.7260960603354834,-5.384124361607883,-7.010349724323551,-0.02443528175196089,-12.92066116758292,-0.6513475904078437,7.4904372266989805,4.958814347558204,4.882032005368524,-35.19053824862475
120,7.619282925472176,3.2474368883587044,-0.38061621806991536,-1.2997019527363918,-2.510562919420076,-5.077735655865732,-6.813258525999909,-0.00947597730078749,-12.627650859998921,-0.6288357480541136,7.764589796701138,5.049853736837303,5.041211160523392,-35.21893677507017
121,6.983202126919704,3.0057542908867427,-0.2433897130105149,-1.3002342820774049,-2.2826122088663925,-4.72164912800496,-6.523984123694976,0.005064544366669809,-12.152024365884056,-0.6393860889543881,7.8644954253291015,5.040585069100506,5.062720757203778,-34.82528973372474
122,6.33888198829113,2.738588073794527,-0.14371430194700316,-1.2752621733473284,-2.047089265308833,-4.323776711362404,-6.151750308739684,0.019208209287493182,-11.517272543906474,-0.6801204994660003,7.797569312456523,4.93406759721747,4.952280879930944,-34.03395174330203
123,5.693116888216171,2.4525353830746246,-0.07958685455595378,-1.2272042195022712,-1.8087800147443034,-3.8933045567756315,-5.708240778891581,0.0329128084108549,-10.749842418323743,-0.7464837282461793,7.576510287719395,4.737042992914569,4.720746800258825,-32.878105547106294
124,5.053212556537511,2.1546323251682393,-0.04760694009364568,-1.159082069743048,-1.5722852415496558,-3.440408924010488,-5.207141539437357,0.04605922860048057,-9.87816676325193,-0.8325246726220745,7.218636450362903,4.4595679155394405,4.3834163398977415,-31.398474331504715
125,4.42680557102484,1.8521338334710646,-0.043211890673517404,-1.0743805549269123,-1.341903922286946,-2.9759091602032024,-4.663592462288126,0.058450654474776785,-8.93166311088031,-0.9312585959748623,6.74502604225083,4.114480852244684,3.959148382164251,-29.6418423154687
126,3.8216213950039783,1.5522656396091823,-0.06097437481490545,-0.9768945730296984,-1.1215282692543422,-2.510871385022858,-4.093578842086915,0.0698238815551963,-7.939745168843124,-1.0350930901563378,6.179506150831317,3.716730707485129,3.469340915630971,-27.659440786989634
127,3.2451880341054693,1.2619629349765848,-0.09494549855034899,-0.8705692117508644,-0.9145531539659835,-2.0561807965358057,-3.513295364133243,0.07987128310084045,-6.930884284316125,-1.1362928690972876,5.547541655514587,3.2826045918402698,2.936822954733552,-25.505257813054815
