,AF3,F7,F3,FC5,T7,P7,O1,O2,P8,T8,FC6,F4,F8,AF4
0,-6.0999930596813945,-1.3298787554834155,-4.925642661071623,-2.6766180869495697,-0.6689184455850593,-0.7036391467027255,-1.3776867564631339,-0.2921196616008359,-0.28003037323566765,-2.7495582031240597,-2.615956018085182,-0.5263810278598607,-2.3295805194744355,-6.110214219196078
1,-4.91526189414838,-0.23471096434018776,-3.0450091311893703,-2.379600523729165,-0.8654385955272984,-1.823264524541932,-2.2255727005383106,-1.7561554226042606,-3.3323616390512183,-3.0111343252683507,-1.6179337634694004,0.6179609078575389,-0.06878287565750887,-4.431616103588899
2,-3.785052219053134,0.80922226213053,-1.2009648785112843,-2.1124131148393617,-1.0736405415920416,-2.9288957444676655,-3.0680277464766794,-3.1939652482993766,-6.342387015585664,-3.2947162685114972,-0.6799479882408125,1.7060210780458231,2.12278044687783,-2.8188502925199295
3,-2.7397391735866794,1.7821902856656089,0.5833811035777631,-1.8833024555379827,-1.2924456131152544,-3.9983646175090723,-3.88857947803071,-4.575311037678979,-9.252963647439552,-3.5944482144428855,0.17604849438517184,2.6953023835991323,4.20630899062455,-1.3046138515431502
4,-1.806707067707388,2.666215636655572,2.287551517138209,-1.6993500541082502,-1.5202645285166252,-5.010212768123889,-4.670829730374124,-5.871145284095225,-12.009576479000927,-3.9037577906519894,0.9310153679879335,3.546784588428605,6.146697708353806,0.08144146978642615
5,-1.009320149018538,3.445544861354993,3.8945674267450516,-1.5661832560900546,-1.7549269299284234,-5.944103240326944,-5.398678434953826,-7.054267997210826,-14.561702358302524,-4.215351263918077,1.569693695258447,4.226472240764308,7.913670242662922,1.3136865496501706
6,-0.3660564539768268,4.107061942551515,5.391640591705163,-1.4877415992227396,-1.9936275600940176,-6.781203683047072,-6.056579784632651,-8.099933913770206,-16.86400429711389,-4.521221823786239,2.081313036131282,4.7067236201662785,9.482724728898372,2.371347861388979
7,0.11015625973305518,4.64063132574734,6.77065415664397,-1.4661101024999184,-2.232895742373321,-7.504539823189451,-6.629835166098471,-8.98639811467182,-18.877318306636656,-4.812678023237232,2.4600983429962233,4.967300133112746,10.835852184845633,3.239159250576077
8,0.4123753519388262,5.039361798702509,8.028406486528961,-1.5014273067575503,-2.468595911988079,-8.099320010026698,-7.104922968703971,-9.695391717085371,-20.569411516454903,-5.080401123632659,2.705549443650252,4.996088252824579,11.961999270873505,3.907804294483596
9,0.5398339493048553,5.299785783909919,9.166605430042607,-1.5918722721567158,-2.695967455026659,-8.553231846517368,-7.469859813789733,-10.212521689080702,-21.915507330466355,-5.314540671057236,2.8224791099087865,4.789461085417898,12.857259730718482,4.374131392464231
10,0.4978832136278817,5.421949770967349,10.191612856024845,-1.73373132845651,-2.9097113640220797,-8.856709632203073,-7.714580750617616,-10.527589535885157,-22.89858782614331,-5.504857350666097,2.820808696435073,4.352262876326272,13.524790584355957,4.641134246670144
11,0.29769163621793493,5.4094109336770035,11.113952181854607,-1.921542101108968,-3.10412845975023,-9.00316634300933,-7.831318070249947,-10.634822991392296,-23.50949312141854,-5.640921377497696,2.7151314558134167,3.697416927763093,13.974459282325393,4.717700179914803
12,-0.044283727104800684,5.26913381248237,11.947604727960824,-2.148309221185372,-3.273309311551723,-8.989177920757866,-7.814951648114783,-10.533013661492443,-23.746841130231022,-5.712372746942995,2.5240630314352974,2.8451757374114055,14.22223689549786,4.618138237791954
13,-0.5070293956288019,5.011281117599629,12.70913340277531,-2.405783066747389,-3.411370557010927,-8.81460385253792,-7.663300833150413,-10.225552383261645,-23.616789035168356,-5.709244850453829,2.269407853458855,1.8220518106653054,14.289361457645807,4.3615091338906
14,-1.065876598058637,4.648895892867357,13.416683488336835,-2.6847894536281687,-3.5127269238232803,-8.482628577881691,-7.37733022544089,-9.720353483914984,-23.132651340049602,-5.622344251926708,1.9751801966513545,0.6594874989143826,14.201306060340137,3.970789577694998
15,-1.6935280680460494,4.1974788758957065,14.088918899357688,-2.9755943440257844,-3.5723831852369154,-7.999712813819717,-6.961248240121002,-9.029660134082542,-22.314382117448837,-5.443668311238788,1.666528575080439,-0.607660194490892,13.986597640776912,3.4719127674693455
16,-2.36116031259841,3.674473415498174,14.743956581292554,-3.2682843755831623,-3.5862261316309887,-7.375450228285454,-6.422485851460674,-8.16972658212706,-21.187925451869013,-5.1668323166086445,1.368619721668811,-1.9427317321150415,13.67554218160994,2.892733387451663
17,-3.0395481144488725,3.098678433958023,15.39836047223917,-3.553142693632164,-3.5512946379674566,-6.622331123361357,-5.771551716117112,-7.160379573183254,-19.784440648238192,-4.787472174825035,1.1055415491777554,-3.3088813693740895,13.29891788468127,2.2619688157160933
18,-3.7001594257238883,2.4896159161168265,16.066249913464212,-3.8210007096656975,-3.4660069376129545,-5.755420433231156,-5.021768636170219,-6.024470197461458,-18.139417032373743,-4.303589025792992,0.8992822376454612,-4.670608280280477,12.886698975980929,1.608168020403372
19,-4.316173715133054,1.8668824153403805,16.758567249538995,-4.063549526753078,-3.3303280124666585,-4.79196250881123,-4.188904771377174,-4.787237230460241,-16.29170425944986,-3.715807794191769,0.7688353922464181,-5.995123031764221,12.466869634134477,0.9587551873564933
20,-4.863383770052708,1.2495138044111054,17.48253775812973,-4.273599011131179,-3.145865510265334,-3.7509295210010554,-3.290720007370711,-3.475611036361146,-14.282493999477506,-3.027530693962645,0.7294706030244317,-7.253484593025117,12.064380945030154,0.3391866970901334
21,-5.320949070038878,0.6553892390545594,18.241343240003946,-4.445277118343065,-2.915888774436227,-2.652533227441001,-2.346452093809627,-2.117490701068666,-12.154294137126747,-2.244976914445183,0.7921963282685225,-8.421460852348794,11.70029438814502,-0.22775087559906398
22,-5.671978177259334,0.10069482693157851,19.034018253526995,-4.574166735728691,-2.645271772208368,-1.517720895284427,-1.3762681054936148,-0.7410256983038283,-9.949935663256449,-1.3771095888151617,0.9634287110079263,-9.480086012756617,11.391143367422991,-0.7224858451144911
23,-5.903928368393031,-0.4005390137486088,19.855564363641744,-4.65738175498397,-2.3403663288625,-0.36767521906512274,-0.40070493020471626,0.6260711726893707,-7.711646148272194,-0.4354595512620639,1.244866421860268,-10.415910676973565,11.148530058721603,-1.1290452085252407
24,-6.008822054229887,-0.8368183671716648,20.697263893589515,-4.6935876166911985,-2.008816198221431,0.7766647220908874,0.559881177629102,1.9571584666305775,-5.48021430001261,0.5661388793738918,1.6335595939914673,-11.220962619390187,10.978960031550201,-1.4352828663448594
25,-5.983288899697442,-1.1994799972404773,21.54716338084843,-4.682973003769658,-1.6593242700838189,1.8950483508199114,1.485840281706442,3.227233007100583,-3.2942597931141036,1.6118828954388766,2.122152807807845,-11.892454322508168,10.883904692586482,-1.63296480597331
26,-5.828447580331748,-1.4828941389380916,22.39069052651363,-4.627178235568393,-1.3013847118823487,2.9683151183936274,2.358717972038061,4.413419338546857,-1.189613008053664,2.684391621804468,2.6992790696642186,-12.432284409593732,10.86007365228964,-1.7177261297864255
27,-5.549641814823926,-1.68456904336082,23.2113667239587,-4.529183257272119,-0.9449901934961403,3.9787464613969665,3.1616993659370136,5.495377295939133,0.8011980835397694,3.765140592642408,3.350082452286957,-12.84638413895758,10.899874819692334,-1.688913820666229
28,-5.156044321066693,-1.805148471654545,23.991578410247822,-4.39315580814041,-0.6003228297622923,4.910363902150627,3.880001094789316,6.455627525120582,2.6493611179649377,4.834932476443455,4.05684865020764,-13.143959321512542,10.992036619048683,-1.549327721999517
29,-4.660142657870357,-1.8482938066463483,24.7133727463761,-4.224259860302308,-0.2774367006515569,5.749170454420242,4.501205720879086,7.279797847626155,4.330101849539366,5.8743975477307355,4.799722763863106,-13.3366746729065,11.122362130431577,-1.3048727830736693
30,-4.0771236457052895,-1.8204464407237786,25.359245664252025,-4.028426146062628,0.014060289417055288,6.483334378325481,5.015534108121908,7.956795712118749,5.822926238785157,6.8645162859608515,5.557491395084071,-13.437823025346873,11.27457930159025,-0.9641385177771326
31,-3.4241772555706,-1.730473186186987,25.912893057494156,-3.812090039374355,0.26531713004151797,7.1033171079567,5.416052310829321,8.478913859929413,7.111793442038933,7.78715373838145,6.308402323007755,-13.461516491243394,11.431246335190588,-0.5379251804365934
32,-2.719745078019887,-1.5892063372515068,26.35989899002175,-3.5819063854048356,0.46853427195228425,7.601950192036732,5.698810071677511,8.841876993026089,8.185231213862288,8.625591470802554,7.030990982332859,-13.421930840323633,11.574668489327731,-0.03873823702588472
33,-1.9827420396369344,-1.4088993267852168,26.688338071516846,-3.3444550945341844,0.6172323989639827,7.974468022539009,5.862907521930122,9.044835638045065,9.036402713514988,9.365038437201859,7.704879873306767,-13.332628464456334,11.687782199680047,0.5197274784007389
34,-1.2317827562495254,-1.202627240205812,26.889272133063738,-3.105954214025493,0.7064850056643365,8.218503380967885,5.9104856527982665,9.090309755153172,9.663127762067726,9.993097928038729,8.311515603149477,-13.205979876332275,11.754964224273797,1.1230940604789224
35,-0.48444538110510876,-0.9836671114767993,26.95712387740431,-2.8719977517980997,0.7331045588462013,8.334052054341946,5.8466362072082445,8.984080512923427,10.067853434654754,10.500165263864917,8.834808971371848,-13.052698822791697,11.762727281432095,1.7567790593275312
36,0.24339478404962264,-0.7648946582439781,26.889912854879626,-2.647333695709312,0.6957736039158933,8.323411837157552,5.679229148386335,8.735025624913122,10.257560893621328,10.87973102279431,9.261646992306808,-12.881501427643343,11.700269635906274,2.4064295905317747
37,0.9381329102774689,-0.5582317493797843,26.689342984438955,-2.435694262252721,0.5951149017864955,8.191100136496267,5.418660362030992,8.354892468931952,10.243590148906565,11.128567927345545,9.582252546838191,-12.698894976992971,11.559854473144119,3.0582978809091763
38,1.5888803492900123,-0.37417319359839063,26.360736728068073,-2.2396863145543873,0.43369778877539333,7.94375234689478,5.077526977374081,7.858004127639759,10.0413638593579,11.246786426293825,9.790377238816514,-12.50909687241701,11.337005866652605,3.699548700203736
39,2.187772963867511,-0.22141352044645207,25.912818949954236,-2.0607456839085705,0.21598068511883317,7.5899996029803445,4.670241255297488,7.260896666311558,9.669995964675,11.237753845089351,9.883324780035558,-12.314078576315882,11.030521598950594,4.318495872762488
40,2.7301349306780742,-0.10658569869842933,25.35736259980885,-1.899155177945318,-0.051808321286971666,7.140320235893078,4.212596249711629,6.581891387903423,9.151780182140525,11.10788287821613,9.861814228547145,-12.113722716954255,10.642317586076976,4.9047723972776485
41,3.2144985761376033,-0.034115728842658385,24.708717177080597,-1.7541225799197278,-0.36184936912696836,6.606856597184815,3.721297961915931,5.840612794436909,8.511565583561726,10.866305159716322,9.729703178331532,-11.906074562435087,10.17713115661814,5.449444519059925
42,3.6424869509745106,-0.006190752750118703,23.98324748770462,-1.623912044056877,-0.7049621728807611,6.0031900795982835,3.213479638729314,5.057469656833767,7.7760390139101006,10.524453254166502,9.493599021818097,-11.68766395318448,9.642117961611053,5.9450829767649305
43,4.018569813187275,-0.02283387183695022,23.19871260600438,-1.506020137160778,-1.070884065386038,5.344071846647031,2.706213435764593,4.253120296394873,6.972943633502212,10.095578442075823,9.162390047037826,-11.45387288525168,9.04637856646006,6.385803899893917
44,4.349705433667262,-0.0820758272619355,22.373612800161705,-1.3973864824288724,-1.448586486690214,4.645112265287172,2.216032074859745,3.4479423943659926,6.1302666494707605,9.594231354566103,8.746726813167474,-11.199327692466413,8.400446719004675,6.767287523041352
45,4.644881312088386,-0.18021130046281525,21.52652742956071,-1.2946282244682952,-1.8266206483766947,3.922435934530324,1.7584691566482573,2.661523582329826,5.275427539071537,9.035728747262372,8.258479779084348,-10.918300705178574,7.715764645067297,7.086776651147368
46,4.914568662590225,-0.3121249108667804,20.675462665954626,-1.1942867808695148,-2.1934822037504578,3.192311143020331,1.347623731484808,1.9121847321557535,4.434493879068909,8.435625142064616,7.710194792814899,-10.605110643490342,7.004164839560055,7.343051663974828
47,5.170109853362291,-0.47166869043283177,19.837226511356295,-1.0930743676485757,-2.537983649317785,2.4707632933703496,0.9957543446306777,1.2165455446790212,3.631448519548076,7.809205172264017,7.114565834598615,-10.25451179039622,6.277374734120152,7.5363770181419
48,5.423063983985521,-0.6520696926755878,19.026849844507037,-0.9881069571209157,-2.8496220037746007,1.7731820211670752,0.7129100308379135,0.5891418733448301,2.887530193528826,7.171011653127989,6.483943920366499,-9.862060091422514,5.5465600464424245,7.668415547576
49,5.684540795172762,-0.846344759996594,18.25707399129157,-0.8771102693355686,-3.1189284540352613,1.1139323051169814,0.5066094875601559,0.04210472215218144,2.220668520111548,6.534423984839135,5.829900283936791,-9.424442435302218,4.821922596961465,7.742109408741986
50,5.964554736787122,-1.0477002229986727,17.53792496370466,-0.7585866177820458,-3.337786471526254,0.5059818970342808,0.38158352245564015,-0.41508971871506106,1.6450319332076468,5.911299186454157,5.162858665288766,-8.939756124965806,4.1123665271422505,7.761527991390254
51,6.271428665564999,-1.2498974265092744,16.876390819211224,-0.631933009586073,-3.4997055989253916,-0.03943899758519495,0.3395983536385345,-0.7757920904919755,1.1707023170640838,5.3116826333696245,4.491804963613813,-8.407730038329557,3.425241683444858,7.73168236392909
52,6.611271605212028,-1.4475693817674211,16.2762126287639,-0.49750440892032527,-3.600039719958759,-0.5131265298679438,0.3793769185305689,-1.0362707997991085,0.8034837168415936,4.743588804056328,3.8240745833256766,-7.829885657735851,2.766165345016291,7.658303773054052
53,6.987549489677374,-1.6364778848771477,15.73779357574322,-0.35661997535620754,-3.636141001998058,-0.908121091650752,0.4966310360125107,-1.195722551786237,0.5448466009425291,4.212847161752318,3.165212111052833,-7.2096414363828325,2.138916734533102,7.547582945025546
54,7.400763482993246,-1.8137032040589802,15.258226181233843,-0.2115141106404792,-3.6074436450629124,-1.2198396534740303,0.6842092733015731,-1.2562061687754045,0.392005684439355,3.7230072283064164,2.5188966781771485,-6.552365061644509,1.5453958289890655,7.405869685902989
55,7.848247734548285,-1.9777602893945243,14.831434631682612,-0.06523794838809244,-3.515474855388251,-1.4461169778734149,0.9323553761808027,-1.2225054830850002,0.33812806356552816,3.2752998815846146,1.8869285078331985,-5.8653752374125405,0.9856390628650573,7.239338797781557
56,8.324096997588809,-2.1286371433108515,14.448427491630643,0.07848027634637567,-3.3637936354686833,-1.5871605598330316,1.2290629193722276,-1.1019283901001882,0.37266736018383656,2.868656623420187,1.2692752271627412,-5.157889851529025,0.4578876750081187,7.0536370378332975
57,8.81923383509498,-2.267752943903836,14.097655701212947,0.21540649912126283,-3.157860436946596,-1.6454324747009983,1.5605062012003412,-0.9040495242698862,0.48181694393378444,2.4997923971893137,0.6641789841438719,-4.440912767957007,-0.04129200424620563,6.8535345066360165
58,9.321623842314192,-2.39783620175252,13.765470855900107,0.34099493743572784,-2.9048422120256063,-1.625474972533267,1.9115267655679449,-0.6404035646940837,0.6490706626698838,2.163358803622396,0.0683268962473969,-3.7270480225880087,-0.5168338698118088,6.64261023645842
59,9.816643572931204,-2.522727126016854,13.436677573801402,0.4505977742402661,-2.6133583212916585,-1.533694974295185,2.266158702591701,-0.32413543400217915,0.855873548856127,1.8521727993931998,-0.5229124145398305,-3.030228797350008,-0.9749385288722242,6.423003953561852
60,10.287598750123125,-2.647113164258277,13.095170091253344,0.5396846212318945,-2.2931737413830717,-1.378117143985844,2.6081818172875804,0.0303869237189691,1.0823392004432326,1.557521932080135,-1.1151849302544021,-2.3653500949615007,-1.4227769603490306,6.195263167406793
61,10.716380784980753,-2.7762111199452346,12.724637545796849,0.6040668781433595,-1.9548473930505175,-1.168109085244532,2.9216968421651073,0.40799201223066517,1.3080070347333768,1.2695425064499222,-1.7147817569688906,-1.7477987239189856,-1.8681308166387893,5.9583078148769335
62,11.084239627269522,-2.9154122036835357,12.309316199939106,0.6401221864084834,-1.6093451624697348,-0.914078462442953,3.1917183706781067,0.7931520084218159,1.5126128237880445,0.9776632998004974,-2.328209556271335,-1.1928812218345244,-2.318974217659748,5.70952579835239
63,11.37264251632681,-3.069907718648784,11.834761540989632,0.6450133387797987,-1.267629200922361,-0.6271417168740242,3.4047777687374348,1.170453777005121,1.6768495429043917,0.6711050185161785,-2.961710081603895,-0.7151585637643996,-2.7830070410178753,5.4450035910321475
64,11.564182436496589,-3.2443133347376083,11.288609379691932,0.6168945961190893,-0.9402372106195014,-0.31876694115613585,3.549520584569567,1.5250890697125477,1.783100781160674,0.33942395123373414,-3.6207416002464927,-0.3277053444674263,-3.2671536237667897,5.159886838255489
65,11.643496674426636,-3.4423093533477855,10.661292431985126,0.5550970358223476,-0.6368673801022928,-0.0003979411434049337,3.61727304114364,1.8433564298481124,1.816133240302262,-0.0269139123748477,-4.309438803902827,-0.04132071440526211,-3.7770444014682183,4.848855937106655
66,11.598153168240046,-3.6663132322316385,9.946676722751041,0.4602836833333837,-0.3659860686228198,0.3169290290907078,3.602542945032616,2.113161947495439,1.7637357452775173,-0.43594545760640024,-5.0300721252295,0.13627119786758538,-4.3165026543428,4.50669075421268
67,11.419459120901381,-3.91719962261976,9.142580444436332,0.3345647397102349,-0.13447597768504155,0.6229611896830648,3.503414854930497,2.324499196260934,1.6172886648950708,-0.8936315878201452,-5.782532107532956,0.20118311641305794,-4.887064147623865,4.128887711912839
68,11.103143618073043,-4.19408261540711,8.251137674220042,0.18156333975981095,0.052657852352460136,0.9085816640115372,3.3218000126863934,2.4698826000235408,1.372241094644355,-1.4033141301201357,-6.563869112606718,0.15403185561783858,-5.487562446194191,3.7122831135472594
69,10.649866500932186,-4.494173783738703,7.278972447728983,0.006423411040255052,0.19250866463726682,1.1661220234450642,3.0635089458015345,2.5447054814398005,1.0284668456918278,-1.9652404057048172,-7.367922124322673,0.0004502717562156512,-6.113814882413321,3.255631108948969
70,10.065511925193823,-4.812726485546673,6.237156894303412,-0.18424632350565548,0.2844031537712531,1.3896188577956048,2.7381273544405813,2.5474954491458126,0.5904676844453922,-2.5761898879894622,-8.185071144013932,-0.2486133936484973,-6.758441933471361,2.760085105336176
71,9.361237289289418,-5.143071640188155,5.140940727020227,-0.3824945723594509,0.32994412984568006,1.5749990002627703,2.35869135698713,2.480045122969723,0.06739562405755442,-3.229236397385653,-9.002144451068968,-0.5768547687525349,-7.410846016869359,2.2295381416128124
72,8.553264394501232,-5.476744382700147,4.009256022429145,-0.5792143750203971,0.33295913897163887,1.720179909792848,1.9411739010323739,2.347403613406845,-0.5271246244852834,-3.91367470563998,-9.802505234140003,-0.9628598133884143,-8.057366112989012,1.6707892613878035
73,7.662416120188217,-5.803696569038359,2.8640170787866355,-0.7643897897873466,0.299357907653769,1.825075774578167,1.5038083061537864,2.157721704027503,-1.1753791333455732,-4.615133583842348,-10.566333816890628,-1.3806475090479036,-8.681614546320793,1.0935163941743746
74,6.71341572858428,-6.1125878329920385,1.729247542144785,-0.9273952881993806,0.23690400657564012,1.891506492971768,1.066286366470104,1.9219504823011768,-1.8561473846798766,-5.3158896489241,-11.271113442116663,-1.800499417214886,-9.264993039517012,0.510048929496259
75,5.733976800782378,-6.391147003417576,0.6300756133573218,-1.057339481075746,0.15490769064375723,1.9230149797276364,0.6488764647269579,1.6533995800935217,-2.545466564348676,-5.995387765263882,-11.89231871344367,-2.190050577074708,-9.787376384633452,-0.06505600223669053
76,4.75372093000116,-6.626594846845923,-0.40835628746192854,-1.1434437769338213,0.06384906619708056,1.9246065148633444,0.27151100588151783,1.3671678405806513,-3.217551818655657,-6.630963090298197,-12.404294702657456,-2.515601279146983,-10.227942627080383,-0.6156196108198068
77,3.8029686578895743,-6.806117322086083,-1.3620178468870257,-1.1754453049056068,-0.025055787276812284,1.9024301576673506,-0.04710815834550118,1.0794662937427457,-3.84583975375477,-7.198746556031517,-12.781300953711266,-2.743594664385097,-10.566118069922487,-1.124605296345543
78,2.911457120799573,-6.917375165864185,-2.209101867835006,-1.144011656659723,-0.10032889373368975,1.863425192001727,-0.29034195083982667,0.8068606729200449,-4.404114799048853,-7.674720141041674,-12.998679190780228,-2.8421912641009777,-10.782594084159424,-1.5750032951147028
79,2.107045253726978,-6.949030520640198,-2.9310673632560587,-1.041152715899327,-0.15072378398204564,1.8149549008158095,-0.4443459174450743,0.5654680540268727,-4.867668948009811,-8.035871835129392,-13.034088183324947,-2.782859924939367,-10.860361604065394,-1.9507857110495053
80,1.4144728655541716,-6.891265553472264,-3.5135618124231653,-0.8606124637351756,-0.16571451520050073,1.7644465605564517,-0.4986707812452385,0.37014866793920037,-5.214436434368214,-8.261384823990342,-12.868736137233599,-2.5418969624415144,-10.785700078219287,-2.237869660421599
81,0.8542411467050501,-6.736263947486346,-3.9471724809686664,-0.5982219798013019,-0.1359559853149221,1.7190517819537308,-0.44670826186716844,0.23373793182780248,-5.426039364246887,-8.333784424705268,-12.488532859146776,-2.1017839134971035,-10.54905325120239,-2.4250195471452867
82,0.4416771510458901,-6.478626132499412,-4.227964560147572,-0.25219472609500976,-0.0536935075445544,1.6853365456436087,-0.28596686246359726,0.1663637730830125,-5.488680934356139,-8.23996302618006,-11.885083220638732,-1.4523004224004166,-10.145727034543697,-2.5046204389579643
83,0.18623310791435663,-6.11569384200348,-4.357776478978726,0.17665309136485388,0.08689555084727917,1.669006631187238,-0.018171407176406845,0.1748899984109258,-5.393830562683462,-7.97200945959565,-11.05645130268575,-0.5913227319223244,-9.57635585329446,-2.4732633373776927
84,0.09105497069802576,-5.647767325732338,-4.344257654987814,0.6847711894084233,0.28943934155433876,1.6746724505947026,0.3508104954753541,0.2625186716217537,-5.138659353948385,-7.527784181197742,-10.00764032593671,0.4747417414043943,-8.847101879023056,-2.332097968899634
85,0.1528370168105109,-5.078206336773923,-4.2006480714414725,1.2658433040669836,0.5551945041128921,1.705657739009727,0.8112037823006739,0.42857458624262973,-4.726202910443084,-6.911202660628952,-8.750754413545748,1.7309105647870375,-7.969573105542412,-2.0869265356751123
86,0.3619639150556993,-4.413411783283421,-3.9453102121390864,1.9108612280055375,0.8829575932931286,1.7638581960376298,1.3497061838493742,0.6684840760908303,-4.165248733901264,-6.132212754822446,-7.304830581365391,3.1539783486161155,-6.96046725484414,-1.7480295152106198
87,0.70292945601332,-3.662688696372779,-3.601031853709907,2.6083070552388565,1.2690663801236344,1.8496570725596704,1.9499931530547554,0.973949320180642,-3.4699641573402062,-5.2064743186979605,-5.695349922006466,4.713251237547583,-5.840966209367792,-1.3297304142203754
88,1.1550107652952808,-2.8379943420582032,-3.194124849231733,3.3444408378220714,1.7074905715093653,1.9619029355801088,2.5933248309959898,1.3333084107668043,-2.659295447710942,-4.154768707034866,-3.9534545877759184,6.371633897068605,-4.635919302560583,-0.8497210617338365
89,1.693166705835738,-1.9535792483953298,-2.7533526480347836,4.103684773580676,2.190008089748391,2.097949978291445,3.2592299010459556,1.732060987570465,-1.7561787515481286,-3.002181127042527,-2.114912165864477,8.0870228097375,-3.372863886416664,-0.3281840353562715
90,2.289119147316951,-1.025533947404204,-2.3087286056156677,4.869088501276274,2.7064584354682437,2.253754972693029,3.9262383294069174,2.1535294526332387,-0.7866098931826085,-1.777109635244157,-0.21888139183969985,9.813943161367517,-2.0809387943572673,0.21323629089981364
91,2.9125667477467894,-0.0712597495229493,-1.8902369259082215,5.622854400706999,3.245060456194965,2.424020172439945,4.572632401745956,2.5796174440896773,0.22137627015596475,-0.5101607276187108,1.6934577784123248,11.505351372540245,-0.7897509125592257,0.7525501395107169
92,3.5324736399564576,0.8911129201382263,-1.5265365093600418,6.346898205654953,3.7927795174185754,2.6023702967353697,5.177184322381359,2.991621787134766,1.2387654254366138,0.7670071419829536,3.5803412567406308,13.114513608877784,0.4717431688270467,1.268554087422347
93,4.118370275868533,1.8433308022601433,-1.243713465645988,7.023419049423536,4.3357288235594735,2.7815542512541107,5.719850076592129,3.3710529306616595,2.236613777907172,2.0228337733335002,5.40085464477397,14.596863823876154,1.676280223688866,1.741902914807651
94,4.641601191404884,2.767618047779422,-1.0641492138769595,7.635453847080091,4.859590664670443,2.953666913459735,6.182393713327374,3.7004221289582526,3.18704644312684,3.2269491733472626,7.116295212542098,15.911743801004352,2.7992039703354257,2.1560485796310953
95,5.07645570827482,3.6472389247933084,-1.0055670837505792,8.167393205762078,5.350044815866611,3.110391120847665,6.548923076133404,3.96395992692723,4.06417070073336,4.351163619775499,8.691399542108526,17.02393280221809,3.819205144594396,2.4979818028942518
96,5.4011236146824935,4.466993055116202,-1.08031128985693,8.605439531738515,5.793192740815962,3.2432629916318034,6.8063256445834295,4.1482376549946,4.844878824548288,5.370321321410576,10.09538437046916,17.90488605591955,4.718857445102607,2.758725998667811
97,5.598429003096533,5.213617737657612,-1.2948986924574093,8.937992317089488,6.1759674707796695,3.343963119975997,6.944599474507696,4.242670148161979,5.509522124968991,6.262992454508738,11.302761303440539,18.533619378224465,5.484934130154225,2.9335521914768186
98,5.656311497048813,5.876079850324246,-1.6498661022233225,9.155950456393482,6.486519975536758,3.404631425309226,6.957077966855714,4.239883768165768,6.042443264939007,7.011988056752402,12.293901692303368,18.89720149679413,6.108506676394381,3.0219062418524634
99,5.5680442579985225,6.445750874141101,-2.139914384468731,9.252926759286435,6.714573527422675,3.418196004033429,6.840548758520227,4.1359398779123016,6.432358394378345,7.604692510602898,13.055345155756285,18.99084501161355,6.584843791864157,3.027065118544253
100,5.332199938180843,6.9164706405572725,-2.7543273754696007,9.225375135050063,6.851738043185946,3.3786991258743284,6.595267972900869,3.930410636740529,6.672584598077363,8.033217955819344,13.5798618597189,18.817618069914595,6.9131439035466755,2.955564321470154
101,4.9523948444397945,7.284515181516494,-3.4776227724078175,9.072635098167106,6.891776719291898,3.2815989809334787,6.224872723617981,3.6263108273729805,6.761111067629581,8.294391727704229,13.866291936368395,18.38782660267762,7.096143926766319,2.816459138682874
102,4.4368542452050805,7.548489272949277,-4.290377661681295,8.796900387285131,6.830817585544859,3.124024941595886,5.736197670454369,3.229895526315959,6.700513663966434,8.389590681535747,13.919193701557994,17.718136903927576,7.139649979514336,2.6204939764779294
103,3.7978471804958414,7.709165023670802,-5.170164631199439,8.403118980482242,6.667503199984374,2.904966930634405,5.139005636179256,2.7503386404372074,6.497713350701195,8.324436602179773,13.74833618814093,16.830518769372638,7.052032696195569,2.3792555861388096
104,3.0510388020148658,7.7692856989674866,-6.09253459172102,7.898831665931485,6.403072842196043,2.6253853154649396,4.445647156732051,2.199312318403208,6.163582425548449,8.108368059731596,13.36807273717267,15.751091027699669,6.843723355506362,2.1043798354015038
105,2.21480346403983,7.733349992349451,-7.031988328451221,7.293955931421231,6.04137303603829,2.2882350822037147,3.6706675400611384,1.5904922551719798,5.712410458722196,7.7541079491117335,12.796632206968944,14.508945425855998,6.52673901669888,1.8068702310795133
106,1.30953305395577,7.607386664933329,-7.962889605404396,6.600520961768806,5.5887935961586654,1.898404850443768,2.8303805716384884,0.9390177983786435,5.161252866760074,7.2770515444846335,12.055362973688146,13.135012986016722,6.114256024700239,1.4965707169193834
107,0.3569637843393176,7.398723807721898,-8.860286836979606,5.832358232881352,5.054127614147822,1.4625763048514482,1.9424252223388263,0.2609367905263955,4.529195837531084,6.694605027635217,11.167962359360192,11.6610213984508,5.620242212015821,1.1818162491208384
108,-0.6204664486292945,7.115752638365034,-9.700625362542977,5.004751610522106,4.448355406965348,0.9890130502492811,1.0253173883925872,-0.42733753495436055,3.8365794010394443,6.025507779041934,10.159720711921363,10.118575519749493,5.059149781142689,0.8692646715414502
109,-1.6002266653452113,6.767684139024746,-10.462345786936847,4.134051711965565,3.784354888148361,0.4872904231703271,0.09800473186903591,-1.109535902871059,3.1042240929098295,5.289172419215571,9.056804891537366,8.538377763717603,4.445663752665834,0.5638954944050643
110,-2.5602691498268344,6.364298049341848,-11.12637417306417,3.2372612745647316,3.0765439783103496,-0.032020475597646,-0.8205703202967269,-1.769994197304831,2.35270415128108,4.505073587732708,7.885599633631779,6.949592084861811,3.7944949608695095,0.269147253417163
111,-3.479576990052117,5.915686626408396,-11.676516024972663,2.3316007223076762,2.340464104775996,-0.5577004191822287,-1.711896661180267,-2.394059747703242,1.6017011172788163,3.692209542575132,6.672117207616052,5.3793447602271325,3.1202020150801943,-0.012844073930904023
112,-4.3386839276816955,5.431999030337217,-12.099767184624511,1.4340656944739538,1.5923172054862118,-1.078247174252239,-2.5583085981178866,-2.9684424382002126,0.8694584698815886,2.8686515171600067,5.441477864188434,3.8523478799156767,2.4370245334958596,-0.2809470667167153
113,-5.120161619790071,4.923195616903531,-12.386551282891084,0.5609908420915679,0.8484717576586622,-1.5822447139191789,-3.343387697778429,-3.4815143402503046,0.1723445435533111,2.0511867437276927,4.217458326579433,2.390627983787083,1.758711696268716,-0.5347171022600649
114,-5.80906167443059,4.3988242398479755,-12.530886989013322,-0.27236380881875155,0.12495598317859925,-2.058724984407895,-4.05235150014164,-3.9235621861772465,-0.4754791383310647,1.2550534936357292,3.0221040437616153,1.0133423364478402,1.0983357516192214,-0.7740922472878831
115,-6.393293292284835,3.8678318916473358,-12.530481356015558,-1.0521871142333334,-0.5630417504605022,-2.4975127190548734,-4.672425298568875,-4.286994577054289,-1.0622920325541783,0.4937606045015744,1.8754018805359782,-0.2633324431175023,0.4680874868519014,-0.9991272723802528
116,-6.863914472110096,3.338423602905723,-12.386740246387099,-1.7664365796857013,-1.201644563304278,-2.8895444488002804,-5.193187708148034,-4.566501606767183,-1.578959391719471,-0.2210204594748524,0.7950112390011828,-1.426251642662264,-0.1209428598998193,-1.209781548299157
117,-7.215316597262252,2.8179759910034026,-12.104684921293115,-2.40509230358584,-1.7787107093982553,-3.227151789875378,-5.606874201985091,-4.759160285687358,-2.0189937052930746,-0.8795060344316941,-0.2039480504452093,-2.4653025985329355,-0.6589915232532253,-1.4057697394741206
118,-7.445288237502955,2.3130059777493353,-11.692766120785844,-2.960338557441947,-2.2841915642602832,-3.504297790803176,-5.9086179162511945,-4.864476357716703,-2.378537262293115,-1.4738093463362567,-1.109053005219437,-3.3733595193388783,-1.137843512578318,-1.586478848376366
119,-7.554952304209677,1.829188071273334,-11.162572400726388,-3.426671028767315,-2.710409673557853,-3.716755279497883,-6.096605886631293,-4.884352863220833,-2.6562707975214006,-1.99792255497099,-1.9106813183314852,-4.14619627167398,-1.551038280620742,-1.7509497204609672
120,-7.548579487055164,1.371408103887761,-10.528436351520066,-3.8009313472157946,-3.05224621445618,-3.8622181607791375,-6.172131927675155,-4.822978447547036,-2.8532546709348874,-2.4476808963250285,-2.602061082090034,-4.782359259356593,-1.8940431814456946,-1.8979153295335938
121,-7.43328948874876,0.9438378473559631,-9.806949490093006,-4.082273035237616,-3.3072308482267414,-3.9403398735847084,-6.1395339255913814,-4.686633616626903,-2.972710298468124,-2.8207115097783086,-3.179263446727037,-5.283002834818907,-2.164377759988811,-2.0258838668967587
122,-7.218659666732352,0.5500133210892394,-9.016403538938484,-4.27206463752881,-3.4755308677083265,-3.952697021741234,-6.006012039410655,-4.48341984852438,-3.0197504347206428,-3.1163643366987883,-3.64113454699294,-5.651690639880717,-2.361672877322429,-2.133253251615995
123,-6.916267119974141,0.1929002262050392,-8.176181396733613,-4.3737366305991126,-3.559840882800287,-3.902680000569486,-5.781333253078355,-4.2229230875170165,-3.0010678697058877,-3.335620138457217,-3.9891644562159274,-5.894166806951866,-2.487651919729369,-2.21844409179456
124,-6.539193232232017,-0.12506688930569704,-7.306123955092257,-4.392578941608331,-3.565178700612009,-3.795315871396803,-5.477435094825039,-3.915828202682353,-2.924593297539029,-3.480970972206499,-4.227293593077447,-6.01810071484384,-2.5460260031013187,-2.280038555806092
125,-6.101518287024636,-0.40197987334990065,-6.425898719148625,-4.3354958364895975,-3.498597125593029,-3.637031682330833,-5.107946559601653,-3.5735038525659446,-2.7991342903279883,-3.5562705370343686,-4.361660061661728,-6.03280872730005,-2.5423006545252136,-2.316912963392874
126,-5.6178288970580565,-0.6364883866724482,-5.554394098449735,-4.210725166791194,-3.368825002575715,-3.435369020243906,-4.687647886826298,-3.2075780175610573,-2.6340082295883227,-3.5665549775039738,-4.400294727517227,-5.948957026779173,-2.48349810447922,-2.328353268226992
127,-5.102754713972402,-0.8278626384044703,-4.709160525113379,-4.027530085831049,-3.185854097204154,-3.198662890113193,-4.231893464851174,-2.829523470493164,-2.438682572511638,-3.5178383834886366,-4.352774319748819,-5.778251253716469,-2.3778071222840023,-2.314145364928038
