,AF3,F7,F3,FC5,T7,P7,O1,O2,P8,T8,FC6,F4,F8,AF4
0,4.386172486358874,3.0545186647356277,2.2483283752845833,-2.5807351798389044,-0.6238473309134055,-1.5759235045906728,1.460411965416396,1.3466162778851147,5.012998187913507,4.1028901219672544,3.38611228166117,4.986035336539608,6.115321631885076,6.3135483500936775
1,3.2304107390179877,1.041114069882518,1.8199884045674621,-2.2363641513975656,-0.7267656763140967,-0.6603491448575504,2.7879659079424193,1.0282809652949099,5.225881392496651,2.9442101452985963,1.3120223396466795,3.2933244674509914,3.457075345913619,3.517714897469594
2,2.111078968061513,-0.9225705519854113,1.4074577263868024,-1.8829299393848702,-0.8205375566782719,0.24529226246605335,4.105481986242727,0.716201413294311,5.43896270672532,1.825677631309145,-0.7039509962575884,1.6541522729707678,0.8676742975658247,0.7983921135330012
3,1.0494803247343896,-2.8040788061511672,1.0113603933640223,-1.5112855234685827,-0.9015114401655508,1.1266913020277085,5.390502760386068,0.4144889797090489,5.64205086846075,0.7643971358201641,-2.6303510659462215,0.09669517450022126,-1.6113781594138072,-1.800431075805412
4,0.0644811356574596,-4.573897153378271,0.631364194874357,-1.113728743455498,-0.9666778560308396,1.970220676104476,6.621412867628978,0.12698005474028023,5.825300267315476,-0.22481398051561974,-4.438868194629882,-1.3538653828297207,-3.942441226038568,-4.239102758580286
5,-0.8281572801533122,-6.2063979963703755,0.26611042616671116,-0.684376228569441,-1.0138513938378675,2.763333269395247,7.778089382156994,-0.1428384162377837,5.97958555882284,-1.1299475561211945,-6.1052059010713355,-2.676210899656477,-6.092872815335414,-6.483523477803492
6,-1.6162854137856155,-7.680593635122608,-0.08678190373200279,-0.21942995051668654,-1.0418149399487773,3.494887891824281,8.842472078652083,-0.39188642413177366,6.096834567310857,-1.9421745935506907,-7.60975761012739,-3.8535502301629365,-8.03594036298008,-8.506103928189303
7,-2.291684035555588,-8.980667315089487,-0.43063074031719056,0.2826782725326556,-1.0504178243274986,4.155387612172053,9.799031539411857,-0.617529752141585,6.170308928951816,-2.6560402276873982,-8.93806140765287,-4.874044841159638,-9.751466650014672,-10.286420139222715
8,-2.8501844011326147,-10.096265760236124,-0.7695289361562654,0.8212679841608196,-1.0406213229614372,4.737125784084437,10.635119464142294,-0.8176008132561419,6.194826579211735,-3.2694762504461874,-10.081018206675342,-5.730979869725714,-11.226190673093596,-11.811544057835091
9,-3.291597636652777,-11.022555298080134,-1.108120377559203,1.3935097997143275,-1.0144873698474395,5.234245364337604,11.341192369063771,-0.9904041385008991,6.16692312528444,-3.783640526263221,-11.034877606551456,-6.4226879508647015,-12.453844462718573,-13.076052346302875
10,-3.6194750374887477,-11.760058273645962,-1.4513362093444857,1.994627632110748,-0.9751095666285334,5.642725773288776,11.910907374211941,-1.134710565120862,6.084949910667604,-4.202608101348652,-11.80101262404776,-6.952252662646192,-13.434965147192868,-14.081739347578305
11,-3.8407302089060065,-12.31429696608555,-1.804115364816743,2.618181894165999,-0.9264894452933923,5.960316572819223,12.341096825128167,-1.2497445517799155,5.9491058759978594,-4.5329501525216305,-12.385516808314202,-7.327032913589987,-14.176474489494455,-14.837077507319881
12,-3.965157858423841,-12.695278822915146,-2.1711315057956715,3.2564100468038757,-0.8733646367185097,6.186438182778727,12.631636221881774,-1.335168466902023,5.761399209925615,-4.783242340839205,-12.798663621979705,-7.558056944929134,-14.691065127222233,-15.356477942689484
13,-4.004883598266485,-12.91685977105522,-2.556543263982585,3.9006018933652533,-0.8209981238934255,6.322067742286877,12.78522611240879,-1.391066537613748,5.525534607257548,-4.9635434839223835,-13.054268244083625,-7.659334828726495,-14.996435258910008,-15.659405537146654
14,-3.97377581346996,-12.996022124142609,-2.963778149893521,4.541490141105828,-0.7749388802525918,6.369624595601609,12.807112148523764,-1.4179297937832491,5.246724315353842,-5.084879985125426,-13.168987528873805,-7.6471331026559195,-15.114413200118838,-15.769398996562025
15,-3.8868462486981508,-12.952101390478035,-3.3953549709399575,5.169640244736534,-0.7407646883823094,6.332865795192535,12.704767835865304,-1.4166419981641147,4.931426980368319,-5.158763003559674,-13.161587515372583,-7.539247459557672,-15.07001140494296,-15.713039836964626
16,-3.759662122787671,-12.805993521937001,-3.852747016310674,5.775825996311616,-0.7238185689742852,6.216797738909067,12.48756177617858,-1.3884654380463854,4.587026586946418,-5.19675570230801,-13.052202528225655,-7.354301987322503,-14.890447317760518,-15.518908128764567
17,-3.607789856458123,-12.579371409768434,-4.336288544932069,6.351378645354825,-0.7289508110259827,6.027605527889953,12.166426118146731,-1.3350248780789664,4.221471800423812,-5.2100988331104485,-12.861607098359636,-7.111097479311881,-14.604166318983545,-15.21655816792625
18,-3.4462877824092506,-12.293936307682154,-4.845127856828211,6.888498552411297,-0.7602782503142393,5.772597060456853,11.753536610356912,-1.258288026462965,3.8429011288551727,-5.209396271555344,-12.610521340592218,-6.8280263845918086,-14.239899657819159,-14.835543401612254
19,-3.289260800715933,-11.970725720765948,-5.3772287810061865,7.380520585124666,-0.8209709111443186,5.460154767758569,11.262008401316391,-1.160541278715843,3.4592800723214614,-5.204359112070156,-12.318970295550782,-6.522567174279835,-13.825786723229266,-14.40451572006141
20,-3.149483459412107,-11.629494041426435,-5.929418247103591,7.822127917783621,-0.9130741175910241,5.0996845143806615,10.70560670431949,-1.0443599750780983,3.0780724375116444,-5.2036070690693865,-12.005715986670833,-6.210865733704892,-13.388585750680878,-13.950419262789458
21,-3.0380910091647486,-11.288176502831567,-6.497472571991891,8.209512715381283,-1.037372581689654,4.701548549774805,10.098468434413535,-0.9125727844193526,2.705960356400018,-5.2145271250224425,-11.687776518492312,-5.9074058126972835,-12.952990356095304,-13.497793656737246
22,-2.9643331823342836,-10.962442159359359,-7.076231653809197,8.540484868994536,-1.1933019252622634,4.27696799124061,9.454830575673105,-0.7682199585211889,2.348619377404131,-5.243189229236275,-11.380040139102332,-5.624765046216796,-12.541062052715283,-13.068196842010844
23,-2.935384592237634,-10.665338990462399,-7.65972980655025,8.814530513869753,-1.3789121328458742,3.837881324624263,8.788763533610558,-0.6145050301414957,2.010549811949317,-5.2943162566005775,-11.094975699141447,-5.373448601745398,-12.171782529516246,-12.67975399546475
24,-2.956208761142504,-10.407034295372254,-8.241334483278182,9.032820744178991,-1.5908862361932943,3.3967497186357654,8.113911789971528,-0.45473933780335785,1.6949643821631288,-5.3713014928235125,-10.842436395594502,-5.161790504005996,-11.860725517038619,-12.346836949137844
25,-3.029478233767086,-10.194654981092274,-8.813888786297197,9.198168911463954,-1.8246160179470199,2.9663070396708293,7.4432472098133715,-0.2922790350926725,1.4037332108067815,-5.4762641709594995,-10.629552309412643,-4.995914118485217,-11.6198472287616,-12.079877795248654
26,-3.155558434652597,-10.032232722607501,-9.369858961914684,9.314933603539055,-2.074334463111601,2.5592604591850647,6.788840549885003,-0.13045532083165795,1.1373874680653866,-5.610133667984136,-10.460708659459806,-4.87974750568581,-11.457395282224056,-11.885320049760786
27,-3.332565089562467,-9.920756514565236,-9.901491821354783,9.388865016757684,-2.3333016853202753,2.187954357219402,6.1616547517452185,0.02749951610048478,0.8951806776392448,-5.772755161158387,-10.337608814773228,-4.815093799450447,-11.377935850948266,-11.765708978760294
28,-3.556502221035789,-9.858329715110724,-10.400987156329759,9.426895339566782,-2.5940371265333537,1.8640144910035634,5.571361746302381,0.17852554271721738,0.6752018405636151,-5.963011649077353,-10.259421216572061,-4.801758361875357,-11.382495425184745,-11.719917642408399
29,-3.8214802265816914,-9.840421480835289,-10.860686451325433,9.436878370909666,-2.8485868197417763,1.5979909347577184,5.026184409629454,0.31980203183617933,0.47452935276732533,-6.178957314878859,-10.223005819345486,-4.837731803429476,-11.468806818995104,-11.743496362981942
30,-4.120004104727572,-9.860195333021949,-11.27327351664372,9.427288693010073,-3.088811674873636,1.3990179378803551,4.532766831606734,0.44880175904461206,0.28941218755739784,-6.417954853012039,-10.223208997669849,-4.91942206282512,-11.631640691601307,-11.829122545283187
31,-4.443314087268629,-9.908892532109645,-11.631977736738683,9.406894943184497,-3.3066818249394045,1.274507584859965,4.0960777334427485,0.5633286148438026,0.11546637582201674,-6.676806193321089,-10.253208613856598,-5.041922277312852,-11.863196834381634,-11.96711882872002
32,-4.7817571439754065,-9.976246598622428,-11.930768005343863,9.38442395203987,-3.4945627974188707,1.2298921678136563,3.7193523543477576,0.6615374257246549,-0.05212084679894995,-6.951864561203083,-10.304886195422,-5.199296858667304,-12.15352672303879,-12.146003751166129
33,-5.125168535229638,-10.050908135748607,-12.164525403304301,9.368232243441863,-3.645480929911826,1.2684270908492798,3.404077128477866,0.7419380901396525,-0.21838256962511474,-7.23911766699245,-10.36920274023496,-5.384867508604794,-12.490961395251732,-12.353041364907806
34,-5.463246681880767,-10.120865073539228,-12.32918496605797,9.365999012537177,-3.7533575177670997,1.3910620283670965,3.1500195238651076,0.8033883308410393,-0.38836106594724035,-7.534237059770996,-10.436558396106145,-5.591483745460844,-12.862525303912548,-12.574763285254344
35,-5.78590992456331,-10.173850546929462,-12.42184071182567,9.384451254914262,-3.813203466413887,1.5963838980927056,2.9553030773562274,0.845079854676495,-0.5668972560007869,-7.832595939136359,-10.497122851230468,-5.811767658241809,-13.254325167639497,-12.797446246795898
36,-6.083628131241156,-10.197736561068453,-12.440812249788811,9.429128338948141,-3.821268688168296,1.8806317971392261,2.8165251592125995,0.8665217246396504,-0.7584272679718639,-8.129264677838004,-10.541131085815648,-6.038328492058744,-13.651911132625633,-13.007537915263493
37,-6.347724697355609,-10.180914703374103,-12.38567460887826,9.504190713110248,-3.7751432275700205,2.237781471048487,2.728912480157257,0.8675230201100671,-0.9667946491474043,-8.418997847747239,-10.559146281268601,-6.263947854294585,-14.04061436768241,-13.19203124631793
38,-6.570645590609589,-10.112664980653916,-12.257254781420588,9.61227580855843,-3.6738101226148427,2.6596949320737737,2.6865071505022824,0.8481750743560703,-1.1950861589174622,-8.6962278208445,-10.542296319566534,-6.4817395985422595,-14.405869182043459,-13.338791885359855
39,-6.74619227987843,-9.983511140275724,-12.057598858492995,9.754403306429662,-3.5176528639413718,3.1363294054435937,2.682374709923196,0.8088323266849867,-1.4454961274219587,-8.955078066617714,-10.482491378727152,-6.685288978900208,-14.733527851123021,-13.436843996380777
40,-6.8697149566510465,-9.785556870449426,-11.789913060027995,9.929931341106776,-3.308422195197733,3.6559987812799095,2.7088254912063143,0.7500907062191406,-1.7192203031857836,-9.189404249723038,-10.372627655937933,-6.868773562438949,-15.010172631319506,-13.47661823643162
41,-6.938261667540091,-9.512793260809087,-11.458481101326566,10.13656458379163,-3.0491673626820432,4.2056800714831075,2.757642273226132,0.6727637043620663,-2.01637636804008,-9.392864136879263,-10.206777163026427,-7.027064964057223,-15.223423409904267,-13.450162287991969
42,-6.950678208960177,-9.161364729124156,-11.068559740424,10.37041450267117,-2.744136036571516,4.771356757442448,2.8203099096961,0.5778581761775261,-2.33594651570818,-9.559010714148295,-9.980357746462648,-7.155807747684769,-15.362233421831625,-13.351310682755246
43,-6.907653244286179,-8.729778921244904,-10.626254413709418,10.626111429764292,-2.398645954681788,5.338389797232957,2.8882449241449453,0.46655300759777696,-2.6757390333189406,-9.681399702651728,-9.69027351152652,-7.251471381879669,-15.417161712198137,-13.175808253655022
44,-6.811703337626379,-8.219046270678238,-10.13837763189479,10.896967044704398,-2.018930847361525,5.891904911123956,2.9530233690194194,0.34018314923481774,-3.032370666063973,-9.753703941167577,-9.33501531911872,-7.311373126532354,-15.380610501798467,-12.921381582822013
45,-6.667093854865421,-7.632737127566272,-9.612293820048277,11.175184150467393,-1.6119637650968277,6.417181809410727,3.006603361104218,0.2002294484536047,-3.401277770451421,-9.769831468356383,-8.914713511174776,-7.333673010364067,-15.24701756578462,-12.587755080592512
46,-6.479694581878378,-6.976948589751547,-9.055755031052774,11.452108175965874,-1.1852623231484078,6.900028424137926,3.0415357338963243,0.04831226482407603,-3.7767689204295043,-9.72404882549955,-8.431138802345108,-7.317345148893592,-15.012996617338192,-12.17661189350396
47,-6.256773535877475,-6.260178956392879,-8.476732323433646,11.718511990029,-0.7466820518243037,7.327122552658228,3.0511535069165836,-0.11381496909664379,-4.152132362972979,-9.6111136690658,-7.887651078630789,-7.262131674952361,-14.677421390588094,-11.691503788837673
48,-6.00673758075558,-5.493114041724716,-7.8832476197074755,11.964902853327118,-0.304205370391565,7.686305983952709,3.029729524492305,-0.284276603314394,-4.519807927470249,-9.426420160072096,-7.289098979406903,-7.168486270292984,-14.241451134904514,-11.137717407160608
49,-5.738832225862928,-4.68833511836687,-7.283210421552032,12.181838450144964,0.13426574973496233,7.966822415168617,2.972592885853233,-0.46109335891840536,-4.8716258543113105,-9.166157304845273,-6.641674960454376,-7.037513666772003,-13.708496415112707,-10.52210566895602
50,-5.4628143091867445,-3.8599620841306317,-6.684262741985999,12.360238553732321,0.5611056450247887,8.15949862533987,2.8761992983742455,-0.6422097395378045,-5.199106735917619,-8.827476140989612,-5.952731060082401,-6.870909732722859,-13.084124821630049,-9.852892494861587
51,-5.188610348640962,-3.0232473208690545,-6.093634221544154,12.491679864140487,0.9691424537235103,8.25687548430783,2.738157205615199,-0.8255289328152955,-5.493809706211554,-8.408658337779894,-5.230560969754426,-6.670904503034113,-12.375907269256617,-9.139457284121589
52,-4.925971203708099,-2.1941359474832134,-5.518008040740809,12.568663343301587,1.3518117318571663,8.253299200482315,2.5572180812210217,-1.0089521675177626,-5.747711550960349,-7.909277468746324,-4.484155184826352,-6.440208478942139,-11.593207671913175,-8.39210379629302
53,-4.684131635915898,-1.388807445074882,-4.963397332471868,12.584845638699553,1.7032824771408566,8.144983595390542,2.3332433739558325,-1.1904187912553705,-5.953597143944194,-7.33034442846593,-3.722937633536925,-6.181961140633303,-10.74692189152507,-7.62181684198354
54,-4.471482399623242,-0.6232126674970714,-4.4350316488237285,12.5352287773592,2.018553844829646,7.930052330184743,2.0671612205489818,-1.3679434329261577,-6.105440171468994,-6.67442896499953,-2.956493700703522,-5.899680084164075,-9.849175392997633,-6.840010105964933
55,-4.29526272273218,0.08738065219874507,-3.937253805423135,12.416304778785658,2.2935226000083775,7.608567043850041,1.7609236136641166,-1.5396472677798525,-6.198752070524077,-5.945749635491218,-2.194301145068525,-5.597209570406407,-8.912992302638045,-6.058269712126922
56,-4.161281826256665,0.7288217064854396,-3.4734290005817594,12.226153645665468,2.5250224761100863,7.182543976027532,1.4174704470759432,-1.7037814633012882,-6.230877487199011,-5.150225186036617,-1.4454769012922852,-5.278668215411927,-7.951950831407081,-5.288099976680492
57,-4.073678968833276,1.2884784701947583,-3.045870045179529,11.964494173286555,2.710837082858756,6.655958347872566,1.0407017723278151,-1.85874223539323,-6.201217193520934,-4.29548160366356,-0.7185529666025593,-4.948396313259784,-6.9798403962370745,-4.540678836789128
58,-4.034732278917643,1.7555971252268883,-2.6557842416696067,11.63268732308934,2.8496882243019437,6.034732988097034,0.6354539743775809,-2.003078397239119,-6.1113636868136325,-3.39081027960996,-0.021292539264817265,-4.6109032380008355,-6.01033366089596,-3.826630050185484
59,-4.044727299385382,2.1216090662017937,-2.303248527506578,11.233691794042615,2.941201839904586,5.326705632354263,0.20746965142252574,-2.135493501932483,-5.96513936202601,-2.447073448094977,0.6394462034862977,-4.270814601983819,-5.056682710081671,-3.155817945041231
60,-4.1018964661717785,2.380375669471288,-1.9872199401014556,10.771971224978829,2.9858542834283646,4.541568048746571,-0.23665400892117633,-2.254845346153426,-5.768531660107854,-1.4765538608203597,1.2577953744038644,-3.9328182692228673,-4.131444566468756,-2.537169330818073
61,-4.2024403063953795,2.5283609017275532,-1.7055883351219259,10.253352492263657,2.9849021070029287,3.6907697809652404,-0.689555494494457,-2.360145713358356,-5.5295245613099215,-0.49274768701380456,1.828911417797814,-3.601609056948982,-3.2462393560755136,-1.9785269673501333
62,-4.340639540293992,2.564721954370069,-1.4552773843311473,9.684835140207158,2.940298836019338,2.7873800772373856,-1.143252167711556,-2.450563079193043,-5.257832301984989,0.4898960988058642,2.34895900378146,-3.2818343120081326,-2.4115454430855716,-1.4865397142254932
63,-4.50906388966322,2.4913093869303538,-1.2323977185058665,9.074353582920724,2.8546024049464815,1.8459034757426587,-1.5893431540405774,-2.5254307618383924,-4.964549701952062,1.4562801998535964,2.815045933828288,-2.9780455641282537,-1.6365387260327673,-1.0665953106445096
64,-4.69887755290569,2.3125716996409893,-1.0324521642731588,8.430496915912823,2.7308769476470514,0.882047117787602,-2.019268394816343,-2.5842625273361626,-4.661742756925585,2.390991273235726,3.22511061357058,-2.6946633287798805,-0.9289856118537061,-0.7228013565479419
65,-4.900232886188263,2.035365223811407,-0.8505871302250039,7.762196031066361,2.5725926186823753,-0.0875593492508978,-2.4246100049258366,-2.6267767212414883,-4.36201021241627,3.2786406453754076,3.5777662744284644,-2.435960962113399,-0.29519832028918513,-0.45801699274616875
66,-5.10273383915861,1.6686781225411,-0.6818769102452567,7.078393328419256,2.3835274095770767,-1.0456876821009036,-2.797414074213166,-2.6529285973387955,-4.078048602396277,4.104196132702898,3.8721117247939314,-2.20606835643229,0.259944527240994,-0.27393115069592133
67,-5.295941124715975,1.2232854527667083,-0.5216207231081479,6.38771504182056,2.167675613080162,-1.9748725780687932,-3.1305071023976896,-2.662948857868452,-3.8222484778897963,4.85329445148009,4.1075258560351955,-2.0089884203109944,0.732918985766765,-0.17117417961163878
68,-5.469884200741457,0.7113586843753882,-0.36562791550326534,5.698168490010594,1.9291680708299752,-2.8578022588784675,-3.4177820777598162,-2.657384696313857,-3.6063394204405617,5.5125327483148325,4.283470125272084,-1.8486116887770268,1.1214364664260987,-0.1494413174503183
69,-5.615542483188886,0.14605664013260747,-0.21046620551079798,5.016885699113092,1.6722087185848993,-3.677727220675092,-3.6544341657091803,-2.6371380217148115,-3.441088687288808,6.06974593134566,4.399327620404057,-1.7287098002003567,1.4243101859661598,-0.20760194806703622
70,-5.725260078356201,-0.45887472140343843,-0.0536508129804652,4.349931180012286,1.4010299539208149,-4.4188739933364705,-3.8371333621639065,-2.6034944003936684,-3.3360466303626874,6.514281012233777,4.454307597744341,-1.6528881671607647,1.6413367412435182,-0.34376888632059066
71,-5.793063861496686,-1.0894687676084323,0.10624241256263504,3.702186211072326,1.1198666128807653,-5.066849014199009,-3.964129221875704,-2.558136054335385,-3.299325176958674,6.8372788986800455,4.447439683979928,-1.62448197126943,1.7732199310004826,-0.5553061674602975
72,-5.8148626465881765,-1.7318511472585196,0.26955034084433344,3.0773157093561005,0.8329456513686034,-5.609017477495102,-4.035289022696349,-2.503133216920328,-3.3373958631375884,7.031968101243738,4.377672424943732,-1.6463868629104916,1.8215570485521078,-0.8387607900620548
73,-5.788514445404133,-2.3724867767024618,0.4355860057676807,2.4778171675889533,0.544486241235118,-6.034843745307341,-4.052074350416901,-2.4409100069547565,-3.4549002352095366,7.0939656167254155,4.244078206338739,-1.720825096125547,1.7888977037752056,-1.1897130867749441
74,-5.713759062197249,-2.9983571613832436,0.6027887416387702,1.905144417648233,0.2587028331155514,-6.336183022344748,-4.017462169082925,-2.3741832897406394,-3.6544744596562575,7.021570539489687,4.046152919799211,-1.8490580875247988,1.6788733356183503,-1.6025519009921865
75,-5.592024642073307,-3.597073732089599,0.7689503749462158,1.3598924146328357,-0.020197832232445142,-6.5075172276148825,-3.93581593554799,-2.305875426131802,-3.9365978856786494,6.816027886528117,3.784185568179066,-2.0310667597125005,1.496383082826768,-2.0701941755776803
76,-5.426128738855638,-4.156941557032729,0.9314995068621965,0.8420234547822707,-0.28803492257893826,-6.546130123168733,-3.812711119541794,-2.239004078998258,-4.299479071189553,6.481735253564969,3.4596616606972783,-2.2652300804725374,1.247809852829172,-2.5837822883178436
77,-5.219905017899611,-4.66699424380378,1.0878192281174566,0.35111144418581336,-0.5406943460520794,-6.452217466144469,-3.6547181872575956,-2.1765539571298453,-4.73899070878018,6.026364619634832,3.075656904062678,-2.54803758073731,0.9412314278385161,-3.1324035333608338
78,-4.977793373587411,-5.1170237286533595,1.2355688691468811,-0.11341979764130003,-0.7741964546381975,-6.228928271370196,-3.469145685866596,-2.1213363577667224,-5.248657868566288,5.460876310900029,2.6371762755920543,-2.8738716305980563,0.5865875257085288,-3.7028815505795287
79,-4.7044326279851045,-5.497627165156781,1.3729789322977,-0.5520855215871235,-0.9847909553899572,-5.882334768789623,-3.2637480615738124,-2.0758430136764368,-5.819696262427179,4.799410286330528,2.1513980584680708,-3.2348901933275798,0.1957656823218631,-4.279687910547901
80,-4.4042914028233735,-5.800287391754805,1.4990907715406239,-0.9651725985803941,-1.1690751480448238,-5.421331736030686,-3.0464079330198284,-2.042101617790706,-6.4410941105229265,4.059048926903053,1.627791024805415,-3.6210323985293527,-0.2174242521574542,-4.845013982288543
81,-4.081365686973503,-6.0174947811620765,1.6139183686206757,-1.3526258496199457,-1.3241272558023982,-4.857469230272602,-2.824809135258211,-2.021541487938484,-7.099734825113911,3.2594536293500695,1.078083628261257,-4.020159315391521,-0.6374070396258597,-5.379029881751928
82,-3.7389627950503725,-6.1429088127049924,1.7185174316917888,-1.7139924296640339,-1.447642616122977,-4.204724303172914,-2.606121800232338,-2.014878525094911,-7.7805655656767385,2.4223840512587675,0.5160754207192024,-4.41833194459299,-1.04713898371369,-5.860340303009252
83,-3.3795822537455305,-6.17154961626755,1.8149556633245651,-2.048423524884804,-1.5380578708521409,-3.4792160404262904,-2.3967216907578437,-2.0220282597805577,-8.466823858168288,1.5711133975074738,-0.042707929650108646,-4.800218534103529,-1.428542413991361,-6.266628677030525
84,-3.0048955265267554,-6.1000042976603455,1.906186462025423,-2.354728734435814,-1.5946480631993911,-2.6988651533370875,-2.2019627445364245,-2.0420542177622667,-9.140336990419272,0.7297556620528629,-0.5815041539172677,-5.149614560134996,-1.7630655149292924,-6.575463922515354
85,-2.6158187249696203,-5.926630128816172,1.9958360955454675,-2.631475371847688,-1.6175838919617738,-1.8829967324574237,-2.026015577090008,-2.073156479126965,-9.78190536282308,-0.07747775738223764,-1.0829269750759611,-5.450051610332963,-2.032346788432158,-6.7652298559339235
86,-2.212665651557634,-5.651735943616446,2.0879213219461867,-2.877122176969631,-1.6079405869629524,-1.0518848436611885,-1.8717771602880546,-2.1127027275653014,-10.371772199422619,-0.8270726388056338,-1.529671996867029,-5.685466177790891,-2.218956021320346,-6.816127112984958
87,-1.7953628320408699,-5.27772360621729,2.1865202572300753,-3.0901745414581345,-1.5676551245340424,-0.22624103998793518,-1.7408495725805544,-2.1573015147990873,-10.890170063790693,-1.4970344562038873,-1.905279569757498,-5.840895702139972,-2.3071772060264757,-6.711191515499894
88,-1.3637037818323503,-4.809172900057231,2.2954235878411007,-3.269346529492677,-1.4994340797538845,0.5733453294593948,-1.6335797682068967,-2.2029148190726744,-11.317921807270599,-2.067709219152848,-2.194913542069355,-5.903166272959305,-2.2837931669513662,-6.437270419614057
89,-0.9176166873247242,-4.252855624981179,2.4177954913775,-3.4137143656754785,-1.4066193422753397,1.3270002760072062,-1.5491483464251918,-2.2450044061358767,-11.637062450326795,-2.522564669823064,-2.3861112039663315,-5.861533840247816,-2.1388265155730695,-5.985898247449227
90,-0.45741835132262565,-3.617668254666245,2.5558732052819626,-3.5228476174895773,-1.2930223034602484,2.0161701666785707,-1.4856938167383134,-2.2787045176777014,-11.831442202548256,-2.8488862712558167,-2.4694573799800583,-5.708239494959498,-1.8661878096408597,-5.354013714318489
91,0.01597133570617612,-2.91447734611304,2.7107305722496413,-3.596908164799737,-1.1627389242352686,2.6242108565568274,-1.4404604425583314,-2.2990124123021434,-11.887272143706324,-3.0383395204175203,-2.439136112266139,-5.438941347720155,-1.4641814616227389,-4.5444657340491315
92,0.5008749697207069,-2.15587784681236,2.8821242961297107,-3.6367118623835792,-1.019958895087342,3.1369292296798688,-1.4099621202816277,-2.300988236457404,-11.79358330861627,-3.08735481814046,-2.293318838577815,-5.052992318659557,-0.9358252603492384,-3.5662647483487677
93,0.9947752035042826,-1.3558708942860276,3.0684330987188346,-3.6437517666611434,-0.8687819830433824,3.543045023031997,-1.3901598934702906,-2.2799563142852697,-11.542584060962719,-2.997303416789785,-2.0343592075075296,-4.553544684242062,-0.2889511438980633,-2.4345518856602206
94,1.4943062585910982,-0.5294738195859872,3.2666909390931402,-3.6201842917778024,-0.7130531125878294,3.8345450692913454,-1.3766538706490683,-2.2317008576721555,-11.12991506239969,-2.7744499757266103,-1.668780230247433,-3.947476560911207,0.46392839697310145,-1.1702781062801255
95,1.9953125582172098,0.3077197749849534,3.4727073083851847,-3.5687814475357045,-0.5562247966503836,4.006910397998533,-1.364890082978382,-2.1526499050218257,-10.554811721443434,-2.42968512407884,-1.207056302678278,-3.245149721072736,1.3059852762122255,0.20039399538467634
96,2.4929617738442627,1.1400081735875465,3.681261241346756,-3.4928542892501544,-0.4012523558850703,4.059206743258582,-1.3503796720076229,-2.0400416310881173,-9.820188126111024,-1.9780571894754297,-0.6632075520176027,-2.460019682440303,2.2166517529141294,1.6469349783856553
97,2.98189689737782,1.9520541326887901,3.886351456029743,-3.396154753900385,-0.2505251203800942,3.994038578860059,-1.3289230045194926,-1.8920669661015828,-8.932653229743249,-1.438134041162655,-0.054234824012062414,-1.6081265435106722,3.1723731842555054,3.135495486954147
98,3.4564120157979916,2.729337955571509,4.08148307834025,-3.2827642520560247,-0.10583554332351991,3.817374732256948,-1.2968261617889016,-1.7079821230032346,-7.902460845784018,-0.8312327043726455,0.6005700688432162,-0.7074984431908432,4.147494542165094,4.630102219963163
99,3.9106384686062694,3.458568976893985,4.259971900352069,-3.156977073888757,0.03161298929702529,3.5382595950218367,-1.251093407817579,-1.488184761028335,-6.743383851022393,-0.1805561494111198,1.2804015670581539,0.22250057294620798,5.115233894099789,6.093945874872421
100,4.338731207149488,4.128037094230249,4.415249913387603,-3.023184942976667,0.16116056169022006,3.168427375971391,-1.1895785625964437,-1.2342484584538191,-5.472495441947271,0.4897249328440314,1.9637674768549125,1.1618490894981226,6.0486964228637525,7.49070373567258
101,4.7350487025979,4.727891207832278,4.541159840193461,-2.8857665898914893,0.2826105620515844,2.721837394686628,-1.1110815635401226,-0.9489119021856843,-4.109840708401522,1.1554102322020705,2.6293295406417436,2.09054767776043,6.921885306807141,8.785841662159529
102,5.09432262540315,5.250337149976957,4.632229692137538,-2.748984029921083,0.3961209561137752,2.21414728110332,-1.0153831488416714,-0.6360215091463632,-2.6779908902377336,1.7931945803741263,3.25672303438554,2.989276355959916,7.7106692154517305,9.947843483449013
103,5.411814608757105,5.689752464175722,4.68391954209601,-2.616886166643168,0.5020759754363228,1.6621405086056213,-0.9032186253762936,-0.300428745867624,-1.2014870877177737,2.38154650234194,3.827323182179209,3.8400085729169224,8.393669278644262,10.949319430839777
104,5.683456435653273,6.042718613265049,4.692831653975559,-2.4932204457257794,0.6009495601373447,1.08312652623731,-0.7761986891700307,0.05215411745781481,0.2938053818671055,2.9015069024403597,4.324928025374087,4.626559986038847,8.953030913782245,11.767949002208974
105,5.905967827955682,6.30797367468567,4.656873084007603,-2.3813538079730416,0.6931728096551494,0.4943354947447409,-0.6366893095754281,0.4153337664945654,1.7814004986721175,3.337373616442372,4.7363288307843385,5.335050127360341,9.375048228141784,12.387217847027186
106,6.076943995763419,6.4862915401244905,4.575358707036282,-2.2842043695206957,0.7790170033189887,-0.0876665290907903,-0.48766353741591434,0.7822427892019078,3.234916857274168,3.67723853833909,5.051740978141898,5.954255993733151,9.650611819344329,12.796913903513161
107,6.1949045277359875,6.580297324310461,4.4490439592067,-2.2041848718513304,0.8585019970130573,-0.647514351919947,-0.33253735306932647,1.1457633645130254,4.6287894021064995,3.913347820552585,5.265071990540354,6.475839590489055,9.775456095490531,12.9933566220937
108,6.259297189684324,6.594232409419109,4.280081161815738,-2.143158236727289,0.9313375716756853,-1.1715065845473565,-0.17500103872966644,1.4987557344826519,5.938936791652331,4.042263265814363,5.374010485683314,6.894437428747226,9.750190977855311,12.979345832324816
109,6.270455096260631,6.533685563475799,4.071900505064384,-2.102404856710605,0.9969027614191011,-1.6479743985740374,-0.018857099586013826,1.8342790953492918,7.143360453874707,4.064814833622544,5.379930896665632,7.207609395986327,9.580115197368986,12.763833304769674
110,6.229512505325555,6.405308226611053,3.8290248055128924,-2.0826007789668224,1.054265084384106,-2.0675430850644143,0.13212583522107652,2.1457936383031604,8.22265887421835,3.985849029303364,5.287622556766626,7.415656300761216,9.274822921650804,12.361338099725872
111,6.138291122636035,6.216531523112518,3.5568337798049514,-2.0838058495933844,1.102237807443622,-2.4232809060192264,0.2743373456781649,2.4273352065315086,9.160447445073562,3.8137930728110034,5.1048654488861525,7.521327137004601,8.847629717682114,11.791143351814295
112,5.999173304112897,5.975299407721443,3.2612973939090635,-2.1054612231621546,1.1394693779636322,-2.7107365606334124,0.4044270706930056,2.6736580336477878,9.943679638614707,3.5600672179836272,4.841886129949463,7.529446032123992,8.31485587264431,11.07632513517226
113,5.814979797468396,5.689827362293425,2.948698886166764,-2.146396290081526,1.16455589287095,-2.927872725865386,0.5193880129711461,2.8803454049019135,10.56286942797991,3.2383861085226924,4.510735049264911,7.446493853293184,7.695014042936685,10.242673023315707
114,5.588867712474733,5.368390778963655,2.625367142777573,-2.204845794428711,1.1761656934251523,-3.0749085297290075,0.6166276580072144,3.0438917999233395,11.01221817089396,2.8639950775814818,4.124630709006105,7.280180958715954,7.007953648033106,9.317566999082286
115,5.324260158275453,5.019142999467442,2.2974358304037006,-2.2784784175286945,1.1731650150244457,-3.1540881855145178,0.6940327783786109,3.16176228984432,11.289651719139812,2.452889500848742,3.697316729403818,7.039046050615934,6.274015573094071,8.328875976041209
116,5.024813598660412,4.649960740043538,1.9706433205284277,-2.3644381527761973,1.1547346893022388,-3.1693962110729363,0.750031015276247,3.2324352814495296,11.396775153889067,2.0210644328664364,3.2424741136053123,6.732111237535895,5.513246952424961,7.303938423901911
117,4.6944232971570505,4.268314337450794,1.650183269599971,-2.45939940524854,1.1204695364637938,-3.1262416413452594,0.7836484617123274,3.255433321334951,11.338753237374274,1.58383697209659,2.7732223066934507,6.368614862434047,4.744717250947602,6.268675108067095
118,4.337261630788424,3.8811611147519267,1.3406110635448667,-2.5596362097631937,1.0704537321601768,-3.031133800455112,0.7945589207511958,3.2313442003793025,11.124124728978808,1.1552748788202936,2.3017300105234604,5.957831964037293,3.9859643786110595,5.2468687912111465
119,3.9578387054574455,3.4948611231658933,1.045806220301012,-2.6611056018057346,1.0053069314610368,-2.891369276186693,0.7831187507644422,3.1618316837084426,10.764558285663691,0.7477529038480014,1.8389427261647364,5.508979113298575,3.2525845644896934,4.259628183076061
120,3.561069840158318,3.1151148347612887,0.7689850919405433,-2.7595451000113496,0.9261975997466119,-2.7147432258880135,0.7503818147431219,3.0496322188554954,10.274556054071288,0.3716449564274226,1.3944211454211661,5.031187796423487,2.557964379789577,3.3250359722697858
121,3.1523305790190324,2.746921844525971,0.512752124543138,-2.85058429675752,0.8348222435276984,-2.509289743128614,0.6980908646588649,2.8985310244762115,9.671107115717945,0.03514768151075415,0.9762739986623632,4.533520138502188,1.913140210628268,2.4579653595041786
122,2.737477924883277,2.3945586846349283,0.27917286516195083,-2.9298703622475437,0.7333519887486944,-2.2830490376910433,0.6286429264094229,2.7133082306971827,8.973286806506072,-0.255778957102768,0.5911613879602996,4.024994175915062,1.3267616913706808,1.6700377783261402
123,2.3228180131023435,2.061573217461158,0.06984972544535893,-2.99320649713388,0.6243505963940735,-2.0438560931306715,0.545026330097451,2.499644124129433,8.201792361049279,-0.4973744897782047,0.24434108998860193,3.514584807933665,0.8051322414357707,0.9696881447173289
124,1.9150065764119972,1.7507932092270588,-0.1140166688337457,-3.0367008724294497,0.5106699872226574,-1.7991463126670597,0.4507267188551025,2.263973564955875,7.3784046065442705,-0.6879661134519032,-0.06026808283528271,3.0111719075796035,0.3523019826212945,0.36230406649123903
125,1.520878438480542,1.464347312590671,-0.27159236411419546,-3.056921590906301,0.3953306441770023,-1.5557768654302921,0.3495996845239527,2.013284413085615,6.5253722028152055,-0.8278021044307077,-0.32002527460897984,2.5234180457689095,-0.02980544508542975,-0.14958863639596395
126,1.1472131074743694,1.2036971398574874,-0.40240588190965254,-3.0510511807921823,0.2813948751062883,-1.3198663016850314,0.2457095407943073,1.7548628748018138,5.664728053906253,-0.9188462314594321,-0.5335189443403345,2.0595725710743547,-0.34124306245059494,-0.5661123518974076
127,0.800452623642803,0.9696789999069175,-0.5063725741097997,-3.0170324614262376,0.1718405037789026,-1.096658068095379,0.1431380548289365,1.4959978928393907,4.817563029592776,-0.964544436824756,-0.7005310618725367,1.6272135055796182,-0.5838724017520526,-0.8898046833971386
