,AF3,F7,F3,FC5,T7,P7,O1,O2,P8,T8,FC6,F4,F8,AF4
0,9.878162826735245,11.902795789224442,0.3632415425127688,4.334368090890588,4.817374995085964,4.889362489404424,-8.882594290832209,-1.3353526667537836,2.417919566882813,11.187420760635094,3.6267774296070145,4.723474376878659,12.38497381970411,10.21626909705087
1,8.389112125228507,9.885029622690515,0.18896843446303263,2.605520604894985,4.624833134065344,4.819897537056232,-10.921896482363522,-2.537348131685193,1.514242840416047,9.37919963733188,1.3430606843022566,1.8547685479608593,10.811099917027645,8.414988555117635
2,6.924120097088101,7.903150002336653,0.02177329514285047,0.9040672138250262,4.426194244796642,4.734471013324454,-12.974629124973585,-3.74582765828603,0.6008198948132237,7.593617496161423,-0.9001393412318407,-0.9741452439565469,9.3096287871206,6.658858121621196
3,5.484544790647679,5.9603874601913756,-0.13609134914760382,-0.7562821757038964,4.215281208150208,4.633016824277089,-15.022497289697602,-4.950055160962129,-0.31365643277455874,5.849936992646294,-3.0611463473727323,-3.728748124842697,7.92995732604652,4.970593404811974
4,4.071860033873177,4.059949358669598,-0.2827293462311347,-2.3623178989272824,3.9864740328768824,4.515914798895923,-17.04684217977804,-6.138915956483782,-1.2198901850212693,4.166454367713195,-5.100529362153533,-6.376350326984722,6.7179000174146495,3.371583644904109
5,2.687870813134284,2.205343991222485,-0.41666264778878664,-3.901401381065065,3.734941797560902,4.383864512591255,-19.029039068469135,-7.301120958326223,-2.108037015690282,2.5600800658778025,-6.982214056581406,-8.88675397000762,5.7141032848359234,1.881242886313961
6,1.3348640060797157,0.40062611341870435,-0.5368725229259932,-5.361568279140861,3.4568346879215626,4.237800664208052,-20.95085748504614,-8.425438445089878,-2.967836811770148,1.0459246441370829,-8.674489878127531,-11.232856846137253,4.95262783255879,0.5164156559648991
7,0.015692562795027506,-1.3494496753064211,-0.6428174673016558,-6.731664508139634,3.1494296068486087,4.078855429997788,-22.794769723189933,-9.500936533402742,-3.7888143784301906,-0.36308508288922925,-10.150868760895186,-13.391170595185407,4.459764372362378,-0.7091288041378482
8,-1.2662043639932468,-3.0393751907883386,-0.7344268339891549,-8.001512096484959,2.811224369619763,3.9083628212846797,-24.544202742236777,-10.51721505979787,-4.560526488443823,-1.65653075557937,-11.390755617714085,-15.342230363690156,4.253139993070412,-1.7850841527255457
9,-2.506840703445854,-4.662935989678821,-0.812071355108893,-9.162098998505876,2.4419769232094777,3.727891104108091,-26.18373910597786,-11.46460719127417,-5.272828624934604,-2.8267417933437855,-12.379899983477168,-17.070880866588965,4.341158427846822,-2.7048554102154254
10,-3.7017749885744258,-6.2133538803682775,-0.8765137751952609,-10.205783648194148,2.042688229510905,3.539283844895158,-27.699280886740503,-12.334336768260759,-5.916135352691064,-3.8689298122734983,-13.110609160285206,-18.56643133813517,4.722801031373065,-3.4656563294574037
11,-4.846243870416163,-7.683511003830304,-0.9288443124535861,-11.126501226988587,1.6155304098133256,3.3446893417891337,-29.07819309043314,-13.118624937080408,-6.481652797322167,-4.781207252699232,-13.581714770183137,-19.822677209539115,5.387797869832099,-4.0684520848491035
12,-5.935325689987686,-9.066235801744321,-0.9704063766297513,-11.91995575806808,1.163724898658304,3.1465617705445506,-30.309439331880466,-13.810747421238327,-6.961569076039267,-5.564489032499165,-13.798297235963956,-20.837790557541133,6.31715957227488,-4.517752282287719
13,-6.964123295181325,-10.354628333652874,-1.0027178833632813,-12.583781820097661,0.6913782485641604,2.947623776294479,-31.383714314872137,-14.40505050574307,-7.34919749077337,-6.222286355439757,-13.771186968598037,-21.614086648244186,7.484040029622476,-4.821269425749423
14,-7.927959014625322,-11.542402895328312,-1.0273927192451846,-13.117662323022868,0.20328566537026505,2.750787664789903,-32.29356880712262,-14.896938625477413,-7.639076378830259,-6.760411961249206,-13.51627646331711,-22.15768149109604,8.854877989562334,-4.989470027115444
15,-8.822579565707198,-12.624228474368394,-1.0460657168006415,-13.523393309930366,-0.2952857963202591,2.5590393443139376,-33.03351652638141,-15.282849219142859,-7.827037293963132,-7.186624978190747,-13.053692261605997,-22.478064388726487,10.390744156247363,-5.035057972942644
16,-9.644372102039597,-13.596050103466904,-1.0603233460038515,-13.804891246933304,-0.7988212639113299,2.3752946693185066,-33.60011033135636,-15.560231274605135,-7.910258197401055,-7.510249362454754,-12.406886370333467,-22.587617033236818,12.04880488160186,-4.972438251749379
17,-10.390591399632406,-14.455374806330822,-1.0716415713371505,-13.968141003674846,-1.3017757170121105,2.2022409851270415,-33.991977150552145,-15.727542326554463,-7.8873190510986575,-7.741800413275723,-11.601708896501112,-22.50111284763644,13.783810793808769,-4.817208239336959
18,-11.059591074122762,-15.20150450267143,-1.081331937732924,-14.021082971573446,-1.7987722224926936,2.0421771330920873,-34.209805619394274,-15.784274127179943,-7.758272989243098,-7.892647957698413,-10.66551528680723,-22.235224911434965,15.549531232522382,-4.585711438798999
19,-11.651041793013135,-15.835696933895761,-1.0904965886683162,-13.973436553881522,-2.28476969987387,1.8968634862641096,-34.2562856075533,-15.731010487950481,-7.524738423299881,-7.974734256809618,-9.626345831004572,-21.80805995789115,17.300077778184047,-4.2946693414223605
20,-12.166112587031876,-16.36123718771027,-1.0999923371780902,-13.836457293928115,-2.7551931198810045,1.7673907635068316,-34.13600374512805,-15.56951380441943,-7.190008761087785,-8.000353164892907,-8.512198728569636,-21.238724850215142,18.9910831704849,-3.9608891267634414
21,-12.607591781138895,-16.783408459292055,-1.1104033270607552,-13.622628707915569,-3.206024638977568,1.6540732215681508,-33.85530350106186,-15.302831049293806,-6.759169041000218,-7.981987461498258,-7.350406121019447,-20.54692543126005,20.580718997871337,-3.601034318185354
22,-12.97993137654887,-17.109360615810715,-1.1220217524273242,-13.34529745221936,-3.6338604960415877,1.5563689435781742,-33.42212169248764,-14.935405366013237,-6.2392030298571735,-7.932194285376694,-6.167115645616235,-19.752596813304987,22.03054571450141,-3.2314428308218455
23,-13.289208780160973,-17.347885959155892,-1.1348368037394956,-13.018268854464713,-4.035943859922393,1.4728280443197348,-32.84581386476615,-14.473174939000604,-5.639069751457235,-7.863523674523049,-4.986875969132472,-18.875566418904413,23.306194454170207,-2.867978465877295
24,-13.543007957566365,-17.509119760729387,-1.148533178291835,-12.655385411458164,-4.410186054968538,1.4010693077531347,-32.13697721947638,-13.92363710080901,-4.969725621263683,-7.788452061951747,-3.832321151686993,-17.935252672512423,24.377884855673628,-2.5259037282559995
25,-13.750226424066563,-17.60418692630779,-1.162501434842944,-12.270111917460117,-4.755186368107568,1.337786923561638,-31.307272011177705,-13.295854893150608,-4.244069370856573,-7.719311769826129,-2.7239448969067817,-16.950401247214373,25.2207879805222,-2.21976235981275
26,-13.92081650545961,-17.64481665013419,-1.1758625019346962,-11.875148518212207,-5.07025496866754,1.278790561649938,-30.36923353183113,-12.600387432827802,-3.476793358244899,-7.668200039799928,-1.679952683730594,-15.938858247484742,25.815247462067465,-1.9632604984062278
27,-14.065471779181022,-17.64294658396562,-1.1875075949570113,-11.482089548118255,-5.355437310299426,1.2190827696508488,-29.33606128096905,-11.849134185614545,-2.684135776969153,-7.646857059256071,-0.7161787670051303,-14.917378306898073,26.146873691772846,-1.769137747164127
28,-14.195273506856154,-17.610337928461885,-1.1961531374439245,-11.10114294102852,-5.6115343068884,1.1529768639015225,-28.221372866632528,-11.055094410766431,-1.8835403327040425,-7.666510158018554,0.15394375029844637,-13.901466600071487,26.20652508002292,-1.6490238170289202
29,-14.321315436941108,-17.55822171578219,-1.2004086373937355,-10.74092194340895,-5.840111231070702,1.074255856108758,-27.038917629399815,-10.232053906934018,-1.0932396673714226,-7.737688061228123,0.9193695353324063,-12.90525558339112,25.99018914575855,-1.6132811376433542
30,-14.454326126756724,-17.49699284383471,-1.1988540703980282,-10.408316640272847,-6.0434890245302215,0.9763685741543245,-25.802255852326823,-9.394219602732617,-0.3317846221981832,-7.870012826784468,1.5713931276085404,-11.941417043259682,25.49877634038571,-1.6708370668356656
31,-14.604305263655203,-17.43596242651101,-1.1901221632149153,-10.108446974519115,-6.224713678627916,0.8526538366903692,-24.524419533650306,-8.555827114336735,0.38245647498469787,-8.071978157441212,2.1035762252950065,-11.021106777105055,24.737841146502443,-1.8290104972957102
32,-14.780185901541806,-17.383172478511675,-1.1729802351335918,-9.8446921328231,-6.387501599757426,0.6965791224812312,-23.217577017915406,-7.73074657402585,1.0318053352828274,-8.350722785220059,2.511661667872887,-10.153934742036876,23.717246632664356,-2.093337627842981
33,-14.989530015263307,-17.34527115565845,-1.146406213845623,-9.618784506154503,-6.536160298495826,0.5019782631691114,-21.89272534298319,-6.932108105687,1.5997685174520944,-8.711807322498181,2.793486495401049,-9.347950287127158,22.45078916324055,-2.4674015800694256
34,-15.238261105896687,-17.327441922366482,-1.1096540632196297,-9.43095100614867,-6.675483637180031,0.26327354304605494,-20.559431662346395,-6.171961608684942,2.071505300962465,-9.159001777416837,2.9489052524915125,-8.609631296966267,20.955799401177234,-2.9526706603020214
35,-15.530434777971948,-17.33337630108158,-1.0623048399371597,-9.28008133634345,-6.81061966674318,-0.024329632225378255,-19.22563996256571,-5.460978475868718,2.43425947906564,-9.69408894797076,2.979731339825638,-7.94386760418696,19.25273429283749,-3.548350101003312
36,-15.868046758376002,-17.365278334343447,-1.0043007503737793,-9.163902822823342,-6.946908232632883,-0.36468352528633957,-17.897552848825967,-4.808198258630649,2.677748306989977,-10.316688079251238,2.8896987944116823,-7.353932760335551,17.36477169061776,-4.251252478540036
37,-16.250878921944558,-17.42389075839311,-0.9359608740121563,-9.079145191055453,-7.0896865616315425,-0.7605780487592603,-16.57959131967563,-4.2208224765868,2.7945000439071386,-11.024105503585258,2.684439451073122,-6.84144448072214,15.317413695591487,-5.055693993097795
38,-16.676388274189996,-17.508538012464015,-0.8579784807407356,-9.021685932847287,-7.244064628151949,-1.2136594865993704,-15.27442895272926,-3.704060087279485,2.7801262988991744,-11.811224455064128,2.371461816235417,-6.406322653866605,13.13809694677828,-5.953428303116041
39,-17.13965067225469,-17.617187808083532,-0.7714007850222808,-8.986676201148835,-7.414677829708061,-1.7243843009763256,-13.983091927385503,-3.261032665877344,2.633509467686957,-12.670452714119405,1.960110182688158,-6.046763112220487,10.855799868290557,-6.933635791038916
40,-17.633377657876466,-17.74653868529487,-0.6775924147093273,-8.968656148588062,-7.605431099464199,-2.292002855976153,-12.705114060998659,-2.8927497549173897,2.356882563148378,-13.591750890414616,1.4614782022630035,-5.7592522923469724,8.500631092838345,-7.98299124351754
41,-18.14802758809767,-17.89214387765017,-0.5781840312542748,-8.961674602348973,-7.819254108818568,-2.9145679393929416,-11.438736559357057,-2.5981638561535396,1.9557818972142316,-14.562762687411892,0.8882524864067824,-5.538649233578854,6.103382340509862,-9.085833607186158
42,-18.672028901242182,-18.048580929730882,-0.4750078388267392,-8.95942901521149,-8.057889641378404,-3.588963788275262,-10.181143792885903,-2.374309029368176,1.4388631919028618,-15.569060067550048,0.25446927814506476,-5.3783555386555575,3.695033792786581,-10.224455905281042
43,-19.19212407056676,-18.20967205376422,-0.3700224877197856,-8.955437632945761,-8.321735521560603,-4.310952347859754,-8.928727203444701,-2.216518164396425,0.8175861129180816,-16.594502911137397,-0.42482068984135807,-5.270582033019871,1.3062091747489142,-11.379522267506335
44,-19.69382972354936,-18.368753318025302,-0.2652310378153147,-8.943248264792384,-8.609755133485056,-5.0752347289144595,-7.677369046443462,-2.11870449780694,0.1057866628391477,-17.62169858645272,-1.1339698974237764,-5.206705996751668,-1.0334111574632896,-12.530604653483424
45,-20.161994094720807,-18.518982879150634,-0.16259673323383828,-8.91667891329669,-8.919464010354998,-5.875527374155178,-6.422737132685604,-2.0736856218179076,-0.6808316732177748,-18.632535071019486,-1.8572115399675264,-5.177698546488709,-3.2957002352403455,-13.656817015398527
46,-20.58142006440408,-18.6536709731798,-0.06396186922130533,-8.870076758006281,-9.246991976163132,-6.704654082171008,-5.160582168285524,-2.0735250882415586,-1.525250489660765,-19.608753659634715,-2.5791640208538524,-5.174590877902341,-5.454690679706725,-14.737512239652963
47,-20.937513275312437,-18.76660861234381,0.029025147578497158,-8.798575559148613,-9.587213591310228,-7.554656310163243,-3.887030784018416,-2.109868827186703,-2.4096951506193136,-20.532525060931516,-3.2853254238798515,-5.188942505198587,-7.48714635856545,-15.752999693453066
48,-21.21691207166206,-18.85236921224996,0.11497013979792382,-8.698328960777753,-9.93393520043433,-8.41692445110798,-2.5988687215186177,-2.174260099880988,-3.3161687969790887,-21.38699592853935,-3.962523228607692,-5.213274880062733,-9.373069716827581,-16.685239581933953
49,-21.40805931540056,-18.906558730987015,0.19277736311198748,-8.566698887575896,-10.280124659276973,-9.282351427370891,-1.293808379104449,-2.258424533338113,-4.2269413109089,-22.156779740376425,-4.599291793067216,-5.2414387965107885,-11.096119963305442,-17.51847398145051
50,-21.501684241777415,-18.92599562627796,0.26167489524575316,-8.402383783988103,-10.61816936514678,-10.141506969016746,0.02926716729536047,-2.3545229534639147,-5.124982823531019,-22.828373945059486,-5.186160048720206,-5.268891924676192,-12.64392504378194,-18.239761992233678
51,-21.491173459892096,-18.908810869899202,0.3212195847742646,-8.205479583920969,-10.940149191920817,-10.98482734578868,1.3700936847483975,-2.4553732454750947,-5.9943387530063745,-23.390493012747665,-5.715842113458912,-5.292871901132856,-14.008279195513056,-18.839396240939685
52,-21.37282112973461,-18.854467646287162,0.37128154190652524,-7.9774746588556225,-11.238112777455681,-11.802812518417651,2.726858906036935,-2.554643443091825,-6.820447959195638,-23.834313603644425,-6.183331706983408,-5.312458932786527,-15.185225368746703,-19.311187661100043
53,-21.145956024121823,-18.763707218703704,0.41201029035697523,-7.721185616437523,-11.504347389972107,-12.586221673990318,4.096086967420687,-2.647016416133752,-7.59040689634221,-24.153632225257493,-6.585905395815614,-5.328528072528875,-16.175025647148665,-19.65261257624701
54,-20.812945789220173,-18.638430363847597,0.4437867443741957,-7.440641918115373,-11.731633522634457,-13.326259056636923,5.4725788970201314,-2.728321636061007,-8.293180050324052,-24.344936383427253,-6.923039530593717,-5.343594080809292,-16.98202255956607,-19.86481917562963
55,-20.379077216541273,-18.481523315502454,0.4671664241004791,-7.1409244754425165,-11.913475248245842,-14.014744183830663,6.849412153214881,-2.7956227824292825,-8.919751575962305,-24.40738776760556,-7.1962428515390355,-5.3615516124858456,-17.614391414106045,-19.95249028806664
56,-19.852309222208348,-18.296635177209023,0.48281960569353866,-6.827959344944402,-12.044296826004437,-14.644262895245001,8.218001805549703,-2.847244712346982,-9.463208388599517,-24.34271307682478,-7.408803924720873,-5.3873129328476015,-18.083781211742274,-19.92355891304235
57,-19.24289683608746,-18.087912825323414,0.4914737074397149,-6.508265792466923,-12.119596574223243,-15.208297585649337,9.568225356923664,-2.8827234896870535,-9.918745069603403,-24.15499859966475,-7.565453246588285,-5.426348332583468,-18.404842353538324,-19.788776103693333
58,-18.56289262493527,-17.859701618887414,0.49386239355471984,-6.188660867101016,-12.136052172583286,-15.70133635224144,10.888611078599679,-2.9026704921101314,-10.283587249404535,-23.850391184560937,-7.67194661987873,-5.484143690262422,-18.59464536567958,-19.561140080714196
59,-17.825545970121112,-17.61622599836894,0.49068475785341303,-5.875930265905883,-12.091577354215016,-16.118961537863527,12.166586208870438,-2.908554018305424,-10.556840044248094,-23.436719692301658,-7.734588832150717,-5.56560449673055,-18.67200587862471,-19.255210363851656
60,-17.044636684247212,-17.361271357890658,0.4825767062702635,-5.576484988081474,-11.98533625803864,-16.457917946193195,13.388777709729688,-2.902414985486935,-10.739277343500396,-22.923063225201204,-7.759730871904844,-5.6744517401141925,-18.65674413525507,-18.886347445552147
61,-16.233792896715066,-17.097894779064024,0.4700954193190199,-5.296031252515996,-11.817725814142838,-16.71615985369978,14.541355485858903,-2.886543578106265,-10.833093692918467,-22.319301152714385,-7.753284904068928,-5.812666862693782,-18.568918535110388,-18.469932031003637
62,-15.405850391678582,-16.828195129214574,0.4537165118641896,-5.039284466932395,-11.590337156733195,-16.892874448795446,15.610406170003493,-2.863149330356478,-10.841643033355297,-21.63568324587497,-7.720305516592247,-5.980046568501169,-18.428079438370105,-18.020624431512143
63,-14.572309638838108,-16.553171161844244,0.43384227379296036,-4.809755561889648,-11.305904702444339,-16.988478129752522,16.582324675789327,-2.8340574753760492,-10.769188032587994,-20.882456025877953,-7.664682177290543,-6.173922057755632,-18.25259059908801,-17.551723052533557
64,-13.742937329599384,-16.272689224094126,0.4108184397665232,-4.609630380499773,-10.968247455783398,-17.004581546253068,17.44421076494459,-2.8004594156951654,-10.620680007499338,-20.06957423257688,-7.5889771720785655,-6.389082115929989,-18.05906108757272,-17.074671606548264
65,-12.925543025079302,-15.985570951460884,0.38495647295884655,-4.439751979520774,-10.582202564594743,-16.943919843673367,18.18425837226083,-2.7627361065085245,-10.401582631797067,-19.206515137929422,-7.49442761256249,-6.617918314104794,-17.861920766521536,-16.598749299755763
66,-12.125941600660715,-15.68979764610868,0.35655823879104376,-4.299703904763235,-10.153547151989674,-16.810246753834015,18.792125418714733,-2.7203627757051865,-10.11774422866908,-18.30220014023787,-7.381111853956633,-6.850787383578751,-17.673158235350783,-16.130958990300915
67,-11.348091735616595,-15.38281378768765,0.32594000748925417,-4.187981519210197,-9.688901643232914,-16.608194521165558,19.259271366421952,-2.6718944435471115,-9.77531548107373,-17.365014768994918,-7.248261843718206,-7.0765638941776565,-17.50222323704307,-15.676107568963733
68,-10.59438255675288,-15.061899477610627,0.29345295260785703,-4.1022296135113825,-9.195606721721559,-16.343104631717342,19.57925017622677,-2.61502524355702,-9.380703192770245,-16.402906493685773,-7.094685346484783,-7.28333754921938,-17.356078095210215,-15.237053019340644
69,-9.866027078948049,-14.724572917382183,0.25949780861328103,-4.039519022740652,-8.681567386664813,-16.020835755813067,19.74794845542151,-2.5467104465153034,-8.94054691290017,-15.423530965049094,-6.9192482881421284,-7.459195325404602,-17.23936791483749,-14.815076503559544
70,-9.163513934292947,-14.368981041869656,0.22453210350937028,-3.996633638093037,-8.155061667891369,-15.647555550039725,19.76376153765657,-2.4633380605756248,-8.46170406066023,-14.43441314164183,-6.721360848699685,-7.593021589524156,-17.154670361117663,-14.410328039748084
71,-8.487068425535401,-13.994239504155454,0.18906921457116954,-3.970341848067495,-7.624517466678289,-15.229523182420369,19.627702469985092,-2.360936576510617,-7.951230372604575,-13.443091246441691,-6.501413236193822,-7.675250783136149,-17.102784548361292,-14.022292301691165
72,-7.837078953362326,-13.60069088252792,0.15366925739898854,-3.957631675695122,-7.098266760112178,-14.772870369126482,19.3434398584496,-2.235406131747315,-7.416345229534815,-12.457217963658941,-6.261117005594587,-7.698516270341598,-17.083023752802223,-13.65022607962198
73,-7.214452955619743,-13.19005971157404,0.11892253497467957,-3.9558948620971424,-6.584290231508544,-14.28339011041352,18.91726102223002,-2.082761243458958,-6.864374877361728,-11.484602202314285,-6.0037215504274215,-7.6581521801028885,-17.093485177530862,-13.293528559591032
74,-6.62087539762027,-12.765492668978638,0.08542700395889864,-3.963050742998117,-6.089966679149111,-13.76634351064361,18.357958015870548,-1.8993738265024602,-6.302670025859649,-10.533183204249097,-5.734088979961672,-7.552519040997892,-17.131278885909484,-12.952016932008181
75,-6.0589515119361055,-12.331481255850118,0.05376186805310144,-3.977605815430504,-5.621840837271767,-13.226295613318047,17.676636307593977,-1.6822054482757056,-5.738497142101016,-9.610935086553281,-5.458621731598143,-7.383136653766551,-17.19270568985183,-12.62609074672255
76,-5.532224055274715,-11.893672646750892,0.024459787068849114,-3.9986495548756706,-5.1854213462798455,-12.666990867940765,16.886449257078738,-1.4290179948537942,-5.17890494760098,-8.725704358865405,-5.185046061426865,-7.15461870774802,-17.273379967457362,-12.316777970161933
77,-5.045064468496338,-11.45858211443765,-0.0020197891594282767,-4.025791273519089,-4.7850181266370795,-12.091277219940508,16.00226583439266,-1.1385526323294564,-4.6305701106945545,-7.884987197657064,-4.922062628633109,-6.874414031241479,-17.36829871461306,-12.02566423676595
78,-4.602447204749148,-11.03322724532192,-0.025313860209258025,-4.059046402220011,-4.4236256938799325,-11.501084355580877,15.040283610054228,-0.8106685124160358,-4.099629573002746,-7.095658606569227,-4.678883898108892,-6.552369845287925,-17.471863322770012,-11.754715136817143
79,-4.209626187302729,-10.624709074739632,-0.04517366832434472,-4.0986832309714565,-4.102856181792136,-10.897456727684165,14.01760275211298,-0.4464348827368467,-3.5915104645984774,-6.363671523854778,-4.464686454543928,-6.200142543377628,-17.577865547179346,-11.50600952111412
80,-3.871739939689342,-10.239766993211548,-0.06147542927953127,-4.145042439829212,-3.822923084243109,-10.280637185502336,12.951778762732044,-0.04817239690280491,-3.1107703214109144,-5.69374849125684,-4.288013113445242,-5.830490220505012,-17.679453129266644,-11.281408690989526
81,-3.5933756932516463,-9.884332515241963,-0.0742229814389383,-4.198341485080154,-3.58267411956259,-9.650193824469634,11.860372086991672,0.3805589870425275,-2.660959389128584,-5.089089959301616,-4.156164097797573,-5.4564878416356954,-17.769092980305842,-11.082190996717532
82,-3.3781225223133338,-9.563103239331753,-0.08354198068166192,-4.258474627919832,-3.379669438149705,-9.005181191499263,10.760512054299214,0.8350267945253239,-2.2445137364990715,-4.551121396266701,-4.074618399975305,-5.090710681027412,-17.83855060079721,-10.908683525666946
83,-3.2281408159648133,-9.279154944020386,-0.08966585451467889,-4.324818420145982,-3.2102998247085126,-8.344326203415923,9.668491150188041,1.3094471759806416,-1.8626838730886046,-4.079297466548311,-4.046525782332336,-4.744434529601817,-17.878903585119833,-10.759922450054228
84,-3.143772331069327,-9.033608286289786,-0.0929144431672311,-4.396052794174612,-3.069938510152475,-7.666228359644077,8.599403323643916,1.797158048911089,-1.5154996674520516,-3.670977695188576,-4.072306699829076,-4.42690181848825,-17.880604775997462,-10.633371556428996
85,-3.1232126590471188,-8.825366361330179,-0.09366723588813203,-4.470008949448358,-2.9531194350604877,-6.969563613733334,7.566836698765836,2.2908395055373956,-1.2017696033036618,-3.3213848080260204,-4.149391582887865,-4.144700557110836,-17.833606747187776,-10.52472446447474
86,-3.1622652062891863,-8.650938157076677,-0.09233401957631715,-4.543555113617094,-2.8537340111571488,-6.253282440192071,6.58262675478306,2.782773778624242,-0.9191115687393832,-3.0236527516944878,-4.272121953145067,-3.9012969780641757,-17.727553273564457,-10.42780951451678
87,-3.2541915576632485,-8.504359232593576,-0.08932606753784192,-4.6125289395726625,-2.7652375099844106,-5.516794679980913,5.656671718302068,3.2651330639290177,-0.6640137000439564,-2.768965205287733,-4.431823972144601,-3.6967528236881844,-17.552035402133153,-10.334607286576295
88,-3.389668154907288,-8.377215914585612,-0.08503058152607515,-4.671721878965277,-2.6808555142128703,-4.760135047669219,4.796809034032323,3.730278431230272,-0.431926996712466,-2.546779040069501,-4.617052030514596,-3.5276455095513395,-17.296901367760743,-10.23538087260073
89,-3.5568555449113406,-8.258775258410877,-0.079790318230565,-4.714918284461333,-2.593781091554538,-3.984102823175599,4.008751073327658,4.171047862473264,-0.2173954609730798,-2.3451236243371563,-4.813988479164361,-3.387195971478199,-16.95260328925277,-10.118910778561691
90,-3.741584702742124,-8.136220855661048,-0.07388961432344758,-4.734991022366109,-2.497354925631481,-3.1903679467273336,3.296079068938868,4.581008065417924,-0.014232487193654744,-2.150966885422343,-5.006977586901991,-3.26559669406836,-16.51056088418558,-9.972821333847223
91,-3.9276640085920604,-7.9949934464810735,-0.06754751814288124,-4.724055469353926,-2.385223331528827,-2.381535060217393,2.6602950486649313,4.954645032891377,0.18424786756474096,-1.9506406911204932,-5.179167943432728,-3.1505225873141742,-15.963523597287283,-9.78398417205669
92,-4.097308534946671,-7.819233725853752,-0.060918298914419404,-4.673683715766514,-2.2514722465220283,-1.5611582342712762,2.1009306557457834,5.287473229983545,0.3849401717062019,-1.7303185233573035,-5.313236426815554,-3.0278000840077484,-15.305916121580617,-9.538985464942451
93,-4.231688322133593,-7.5923209902247795,-0.054099073591835495,-4.575178978965196,-2.090738272368037,-0.7337024632363378,1.615708590413289,5.576052618007965,0.594600593978022,-1.4765354343811206,-5.392165137417696,-2.882203100880086,-14.534155149021933,-9.224643895169473
94,-4.311583169432794,-7.2974943020889,-0.047143687655656734,-4.419905573049587,-1.8983002967449216,0.09554713134606134,1.200748028009551,5.817915323889325,0.8194568484869594,-1.1767336022830797,-5.400037806829812,-2.6983362418410444,-13.646924725346008,-8.828563042225888
95,-4.3181200421614605,-6.918534166618821,-0.04008141216775767,-4.199663463629049,-1.670157170254547,0.9206221220823283,0.8508018360468238,6.011417227923294,1.0647990971977788,-0.8198086171439796,-5.322815573879813,-2.4615566772397908,-12.64539475551071,-8.339695890922464
96,-4.233559737268612,-6.440475935179133,-0.032938474542189476,-3.9070913967072434,-1.4030984323791742,1.7350427231342553,0.5595124623966855,6.15554110587376,1.334584504136838,-0.39662554121926424,-5.149048024662113,-2.1588799835274544,-11.533365851083847,-7.748894443058082
97,-4.0420945908465535,-5.850323450306023,-0.02575988368539081,-3.53608045181433,-1.0947756504319426,2.5320112527778313,0.3196755004977279,6.24968538505884,1.6310928100689426,0.09952775930260319,-4.8704769422211465,-1.7798143980220418,-10.317326550028843,-7.049416449724064
98,-3.7306176242733415,-5.137731555786469,-0.0186285476331588,-3.0821792825654097,-0.7437804509511721,3.304613506900117,0.12350426921208181,6.293475566449568,1.954670247074955,0.6725796972864497,-4.482496757862794,-1.317071995025846,-9.006415051347387,-6.237363186092938
99,-3.289423192897492,-4.295626574028227,-0.0116785883176512,-2.542971107087437,-0.34973108023750105,4.04601681030175,-0.037106695877208815,6.286633227377315,2.3035941255096777,1.3234304248081086,-3.9844450302205807,-0.7671124190603767,-7.612283999253454,-5.312024731618897
100,-2.7127995354294674,-3.3207342053863584,-0.005100286643366504,-1.918400672174833,0.08663683226544537,4.749656929410463,-0.17031873573806047,6.228928970147589,2.674079935345278,2.0498397565769153,-3.3797069687358925,-0.13048438582000974,-6.148871761833493,-4.276111778258138
101,-1.9994763473428754,-2.213986010537236,0.0008647741255018214,-1.2110289313941955,0.5633854433491295,5.40940919736638,-0.28408671093112403,6.120230850300829,3.060437189413704,2.846453770198859,-2.675629813294716,0.5880570167329724,-4.632087676855496,-3.1358570404283395
102,-1.152897150245536,-0.9807799381133856,0.0059383526729741565,-0.4261955666057794,1.077309195566823,6.019741348266162,-0.3859002315241838,5.960641759416497,3.4553622701587847,3.704965268535191,-1.8832555423436284,1.379662949439244,-3.07942314215612,-1.9009764463327663
103,-0.1812966436462441,0.3689229897037928,0.009828505929691412,0.4279255127747236,1.6239020170623224,6.575846281793269,-0.4825358372654344,5.7507025446247155,3.8503402111045295,4.614392760392379,-1.016892763108122,2.231721384052812,-1.5095054021002472,-0.5844901417385809
104,0.9024241712852648,1.8206758230229785,0.01225807785167474,1.3403861679180293,2.1973679672616706,7.073752279752041,-0.5798317691937218,5.491625954845852,4.236115684925163,5.561454239222983,-0.09355881611878511,3.1283776758096966,0.05838448810291835,0.7975862498067792
105,2.081019705462033,3.3557985302419544,0.012995022781072696,2.2976414574166446,2.790682167815427,7.510406728034871,-0.6824999995634259,5.185521718597162,4.6031881978858635,6.531007231332327,0.8676708021013758,4.051205662639745,1.604805170169146,2.226661392328265
106,3.3334024405275073,4.951800741498082,0.011880621464162267,3.2838406452270785,3.395704896621511,7.883728408727399,-0.7939905962483811,4.835575851446491,4.9422884651399395,7.506526519694035,1.8463675376034674,4.97998385255776,3.1106358467981754,3.6820760444454708
107,4.6353032114073365,6.582961594398157,0.008852179055416048,4.281223214266793,4.003348252409725,8.192624156632329,-0.9164202619183469,4.446156877474964,5.244801589334587,8.47059564435942,2.8214744475756204,5.893530512128553,4.557523998262333,5.141675705784121
108,5.960060582576597,8.221047278792994,0.003957906158879669,5.270607168068784,4.603791577417133,8.436968531857634,-1.0505703171923935,4.022835215610862,5.503115346237409,9.405395750096865,3.7720208459695357,6.770554193530137,5.928285077327827,6.582426720400752
109,7.279506117229196,9.836140231397879,-0.002637009521141405,6.231952771062537,5.186738607834796,8.617549338883428,-1.1959514044488986,3.5723155005029152,5.710884823481341,10.29318261946804,4.677802585520018,7.590480438059185,7.207244925141549,7.981055632471714
110,8.56490769468192,11.39754755258049,-0.01065304239253392,7.144980872526869,5.741706520030229,8.73598576356538,-1.3509253302130073,3.1022917811850594,5.863214838491613,11.116747785143135,5.520007588298209,8.33421994791518,8.380520048337695,9.314690948565167
111,9.787929706877296,12.874751571260836,-0.0197069065279543,7.989821967208424,6.2583352914997405,8.794628168382982,-1.5128705508649534,2.621240905066334,5.956767727676852,11.859861878860267,6.281769034464573,8.984848257848677,9.436234058559883,10.561485137952964
112,10.921568771970101,14.238364269139133,-0.02932891263468478,8.747671111901303,6.726705203406639,8.796448506961578,-1.6783771630354143,2.1381700228275524,5.989806360171138,12.507697787978712,6.948631159482967,9.528172118637881,10.364671049837924,11.70119485885072
113,11.94102718573522,15.461049727289224,-0.038985665019772034,9.401424790634648,7.13765043813574,8.744928227713574,-1.8434589618731891,1.6623313070184869,5.962181325748928,13.047228023369325,7.508915734048922,9.953163776599922,11.158369008748862,12.715700284215481
114,12.824492508615034,16.518383241787898,-0.04810659433552369,9.936277690714022,7.483057069182498,8.643947607023387,-2.003772764994955,1.2029131413787133,5.875268539758717,13.467586283694422,7.953981273593843,10.252251280930498,11.812158714665019,13.58944952279314
115,13.55379837354393,17.389620262111652,-0.056113149861385686,10.34025875781681,7.756134071445876,8.497677990695866,-2.1548375183467128,0.768715169430316,5.731861145931488,13.760379927641178,8.27837154713712,10.421460630826953,12.323155684332734,14.309819927722405
116,14.114947565902908,18.058351925884242,-0.0624499417480613,10.60468642836548,7.951646378985757,8.310477122795128,-2.2922469678401196,0.3678166012954902,5.536019736294888,13.919940039088598,8.479854548082514,10.460413420889468,12.6907139041502,14.867393113923052
117,14.498483952822665,18.51302694846544,-0.06661716201661093,10.724523367180558,8.066099769957036,8.086787620370927,-2.4118698147056907,0.007252877024260654,5.292888206102747,13.943499217230068,8.559357411059294,10.372191082791176,12.916349907382527,15.256144051534251
118,14.699705548741978,18.747322652897886,-0.0682029882769611,10.698612498069373,8.09786881663054,7.831039475014126,-2.5100307795651338,-0.3072772069486378,5.008487384561868,13.831292233160486,8.52080661245426,10.163083303841958,13.003644211675434,15.473546539264616
119,14.718716614945112,18.760351371670748,-0.06691373896054847,10.52977907724163,8.047261428041084,7.547558886052735,-2.5836657379132197,-0.5716473591768004,4.689501793956171,13.586578583903298,8.370885843434904,9.842242902305008,12.95812452637547,15.520597728171142
120,14.560321331380095,18.55669215849818,-0.06259888177123639,10.22478770053713,7.916516238574063,7.24048718410536,-2.6304448292087788,-0.7834578638012267,4.343073738297347,13.215587016143056,8.118725495107583,9.421271183005926,12.78713175008909,15.401763179340211
121,14.233765052936203,18.146241642640504,-0.0552679801274451,9.79414819053289,7.709731741737866,6.913714512293398,-2.648859281359422,-0.9420921105382372,3.9766128993317778,12.72738036459679,7.7755371698248865,8.91375585335466,12.49966614946072,15.124841574353907
122,13.752332537668245,17.543882693711865,-0.045097347520449235,9.251770653375674,7.43272883221664,6.570833120688864,-2.6382699334603754,-1.0486733568128472,3.597621297939337,12.133636460475437,7.354204633152923,8.334778879440368,12.106208542975562,14.700745994169585
123,13.132817247730593,16.768976424638936,-0.03242535954693718,8.614477979899686,7.092851994249367,6.215114670929366,-2.59891735984902,-1.1059324374496964,3.2135272858583708,11.44834036099739,6.8688410315452115,7.700406834021999,11.618511465029753,14.143198665928168
124,12.394881966246865,15.84469192585251,-0.017736689490280493,7.901393062835061,6.698718643037081,5.849514697506976,-2.5318950897195895,-1.1180054223977862,2.831521245565313,10.687386778263022,6.334322637043749,7.027173868514445,11.049358744881344,13.46833949538923
125,11.560336802490033,14.79719746605061,-0.001636756058158471,7.133226537625451,6.259929741144632,5.476705067486805,-2.439089015892361,-1.0901829086095791,2.4583893237179755,9.868098798111985,5.765811762227367,6.331568076327831,10.412297363216963,12.694254914123777
126,10.652364336426674,13.65474499094779,0.015181897906216569,6.331497551508064,5.786756405335841,5.0991320623622585,-2.323087592575282,-1.028631170230853,2.1003467960149793,9.00867739333741,5.178284390857712,5.6295345505919885,9.721350349491864,11.840440666894814
127,9.69472297933966,12.446685967365301,0.03197953722511739,5.517724219085764,5.2898165737567,4.719094161670256,-2.1870683845861514,-0.9401016608286024,1.7628770919111583,8.127603844662746,4.586079925237179,4.936011121389859,8.990721721140323,10.92721835331001
