,AF3,F7,F3,FC5,T7,P7,O1,O2,P8,T8,FC6,F4,F8,AF4
0,0.016581134037310787,0.020171455687090455,0.011004598317306477,-0.0043951136525366835,0.004208814186163872,-0.036605294363733706,0.0017532296651576256,0.008098342744157518,-0.026725332708838045,-0.028860300166818002,-0.013730270518786796,0.0029191701967643535,0.031392808731539885,-0.05717460673536212
1,1.5144517683312804,1.4493479893901429,1.956214032981575,0.08291443689656422,2.1697814235080912,-2.3565103965768635,-1.7510995438262418,-0.2821776309188054,1.5755500641526397,-2.135177963381405,-1.323533230801234,-1.7535492663787628,-2.410826726585429,-1.0087050334790961
2,-0.9337024184198844,0.08495715714281225,-0.950868320722225,0.02187274916814614,-0.7492381072629096,0.7576126398653955,0.42678239428463177,0.3601666397393095,-0.41906699071984016,-0.6970222580643269,-0.10627087432545176,0.5956369867671264,0.00993993735516736,-0.7953980876896979
3,-1.1282526070139298,-1.6698361573504312,-1.77708940028631,-0.24288391422868147,-1.8981117699634484,1.561857390311027,1.1400522160237059,0.07005415568627642,-1.6224485085248548,2.2544141673273224,1.0517315154980642,1.2072208683925771,2.3108628850118693,1.33421305438727
4,1.6801494995287698,0.048478345657521724,1.9159263874010952,0.10893299447994229,1.377300777814789,-0.912604063701873,-0.3915505843821784,-0.5862487629391019,0.9912425077130351,1.371427283347575,0.42396565521357793,-0.790862464103344,-0.00801466955479831,1.4377840054918225
5,0.4378188568480556,1.9245904316142382,1.3515721415817847,0.44723571845260907,1.4051066628756292,-0.3626470716647882,-0.23966598145692014,0.2627233464036056,1.5930671585351688,-2.4785875277735228,-0.6688839083959952,-0.40666946253442204,-2.1194762614636287,-1.8564447970716944
6,-2.1173141844132126,-0.5004469859331149,-2.8495078764998065,-0.4412280676424144,-1.7843359867329143,0.2019637942403288,-0.33700243035674343,0.591929156289032,-1.7116736457328656,-1.941160073956754,-1.0317523176087966,0.3988170079239031,-0.05987700214261937,-1.7365682604909338
7,0.43007069191683284,-1.9253401284744334,-0.582971248414992,-0.522610854514341,-0.7685296512263345,-0.632699108199893,-0.4280725451494946,-0.5749472773839874,-1.310286813241523,2.7886633018738016,0.42569680648919017,-0.20910923174188178,1.9188711546968116,2.406243791873912
8,2.1562940107750364,1.114418882866709,3.579060985460945,0.897452205442639,1.8973029867324611,1.2667323183617332,1.619763804763555,-0.39717964349735146,2.4506503297705553,2.365681303560774,1.8509376567366822,0.4416421168041492,0.15143118355437474,1.655746025865926
9,-1.3005528539055176,1.4975842652229692,-0.5227617754231205,0.3450447315074456,0.10455726979277455,0.875333772462029,0.429369210003144,0.7461167061690659,0.6685833975322313,-3.168199078645752,-0.5496083728126042,0.3021926222530389,-1.7544035120573178,-2.8025738016646886
10,-1.789308481546796,-1.5863948116254722,-3.8910194752658516,-1.3059161972900424,-1.7009863397903926,-3.016188772158159,-3.0155296322584944,0.10237256607766451,-2.972125189589452,-2.6051289234165975,-2.6413877557342564,-1.3477621475080006,-0.20052770506468176,-1.2682623943226254
11,1.9872351071656724,-0.6966870413864091,1.8081827055406845,0.08894641619926788,0.45522893612349774,-0.12740580840187135,0.37051020367745513,-0.7300093746922662,0.2741667763359077,3.5970716300533967,1.1293465059898924,0.18946955295356832,1.612140148361806,2.9166289316920695
12,1.1045625520924263,1.6423616596157253,3.6477688462074442,1.488877912281128,1.2535931150950541,4.40589927680487,3.992274082821139,0.1671930740749343,3.051564681128765,2.611482575830527,3.089252882760551,1.898511223424058,0.17501991091864957,0.7282904138418598
13,-2.34630689409225,-0.2173162802038501,-3.010472051495111,-0.6570578486569466,-0.8037334647215072,-1.424764023467908,-1.749300522728861,0.5662610489776575,-1.289736540699328,-4.027966460094586,-2.0500281831070315,-1.032255585133755,-1.4503802120711942,-2.72129203250214
14,-0.26637285398606403,-1.1909804321155355,-2.8670209813580225,-1.3520930104318973,-0.6749634470244185,-4.915425695286481,-4.169812614656378,-0.32207290189501114,-2.603990515743418,-2.3427264878197986,-2.94254138718267,-1.8476157152499884,-0.09909324552310327,-0.20865909438997893
15,2.3223552303639896,0.9188627947966991,3.866781177631925,1.1707989569818908,0.8954859605565206,3.2501948238454843,3.237507297172072,-0.3481810281671872,2.0683746137075505,4.368161007157358,3.014828892384232,1.8302447094715197,1.2502792822033708,2.2962476247707677
16,-0.5366759705221272,0.3658704594559049,1.7193255776416345,0.9280559548819646,0.10717577326232983,4.3724180476075665,3.4767708534364616,0.3423511661512144,1.7502675128799823,1.7996169742763062,2.1381943037694127,1.2310111368288101,0.022659597539480835,-0.16667201983610558
17,-1.9601605450541548,-1.1783703728727444,-4.2105044942216825,-1.463478801991156,-0.7589140538924701,-4.70870743528648,-4.327789313025964,0.16946694895806635,-2.360847850117393,-4.4928650968932935,-3.6555521807569713,-2.22720602888342,-1.034905752649864,-1.7815543650723005
18,1.1506319913101453,0.5520406345608632,-0.45947992401789944,-0.35444296220875365,0.3340421540043052,-3.017403387546667,-2.160316085083355,-0.2707848633523383,-0.7809006597466731,-1.0591355040967674,-0.8587889026166166,-0.32493620680127605,0.02900714927836434,0.3559884903291083
19,1.3770333116172087,0.955287393101104,4.011468381043131,1.4581397579685405,0.4756624020696106,5.328097312829704,4.67796314968286,-0.08114578254568298,2.099414950092602,4.293710153472534,3.691564299750432,2.066503519954484,0.8379868204500761,1.3079684347738672
20,-1.4927325452318516,-1.2717854698783557,-0.657546566244326,-0.19353608210445145,-0.591806487829652,1.378335689783314,0.6643842610950463,0.1766276397094783,0.03220469959041201,0.27264865727835197,-0.5189418520296517,-0.5046822632048482,-0.07216220937026842,-0.3811862883506086
21,-0.7145908646768645,-0.38655249691731364,-3.3600876453945236,-1.1837313531298799,-0.13915828840779104,-4.9882492475754585,-4.221291762167606,0.07895403756690156,-1.4331362455131298,-3.7348938298795717,-3.064958539569734,-1.4359220691763683,-0.6550313035752723,-0.9511648701487223
22,1.5528164880134143,1.6070538638097225,1.4352636727040462,0.5755646474972245,0.6690773825390174,-0.02493315296009452,0.5513494282005885,-0.11529230541491381,0.2623704772512104,0.3805540392018133,1.5723756989069295,0.9714785140396753,0.1259939027197668,0.2780207625007473
23,0.09816007621925212,-0.29983448843730964,2.426372095746764,0.7405366486229288,-0.18320728749969387,3.929256211012677,3.1551025105368797,-0.12037963976257188,0.6590356943325734,2.877910936868664,1.98099749709669,0.594851113504647,0.43257254819007684,0.7386154316608518
24,-1.370643725290664,-1.5176229847402427,-1.761655630921635,-0.7257861734016569,-0.6021996321488167,-0.6685341553327157,-1.1679219393194848,0.10524766669993069,-0.07073501246328923,-0.7596285128337791,-2.014446400277378,-0.9736627641353357,-0.15284265220114376,-0.0608687545239211
25,0.37962143670819487,0.8824832563506777,-1.4210871628975932,-0.24392645899264756,0.4636480990805567,-2.596943820733914,-1.8375301640285957,0.15497320819619465,-0.08565676720821232,-1.8558831386901387,-0.8239656083036561,0.16032826788650503,-0.12146474064253204,-0.6934573131754251
26,1.0125091560768158,1.0821033531974487,1.6187580585492762,0.6469897923402708,0.4269938557300464,0.6376780883130652,1.0850767581555012,-0.12840411571713015,-0.4354088449679081,0.80729051923519,1.8199074210030763,0.6004345786263152,0.04188105054042065,-0.2648731637120296
27,-0.6558066707619377,-1.2054647495992286,0.5632675196127803,-0.21709607083767313,-0.6990845472646828,1.4226761108360826,0.652523243642316,-0.14969376482215527,-0.10222700733057781,0.8151429999756235,-0.01759155870687268,-0.6194862761744906,-0.24018079900567396,0.8665198269571576
28,-0.5629143074208695,-0.44419255027311755,-1.0892441578745156,-0.3765124885249048,-0.16030144814646546,-0.08247952425106037,-0.41381346274253705,0.14624058802290577,0.9690505594919753,-0.5480555582723393,-1.229801032815545,-0.05932667774857598,0.3259349524601374,0.6526280584058509
29,0.6932564052103591,1.19039449237244,-0.042442725800214895,0.5863445126998041,0.8819111074723011,-0.65607427483888,0.1026938194408775,0.09997766337659156,-0.08483218114768036,0.13516743585476634,0.3312672200049792,0.7205101368072129,0.4886117957231571,-1.3157233999208742
30,0.1277384481749799,-0.2277390091274447,0.3551749789843426,-0.04371353259087787,-0.19141865478619982,-0.6855027348397486,-0.5883621810203225,-0.11929296802758436,-1.2593639685407598,0.049264857744758604,0.6281494932680897,-0.42615231558680167,-0.9609175428255387,-0.9754464317396747
31,-0.4905861572766952,-0.8281824809847047,-0.031245029554923663,-0.8199961957751858,-0.9798139455493744,0.32207167348101673,-0.28174745334663537,-0.027790317103921443,0.4593694254776338,-0.9344308978721596,-0.17557717134414894,-0.5397913471088547,-0.3966415491962007,2.036793640616638
32,0.1688106237739644,0.7590155733166298,0.3282238392526157,0.5691130682914649,0.6035227474169333,1.4030589522057146,1.6029589318840505,0.021843727565421207,1.164508498072323,0.6187298911755341,-0.3516207003951999,0.7006276002553202,1.6803184555837212,1.0467111818323553
33,0.1034244582235094,0.17901814166657773,-0.32266199656043376,0.8680449345126009,0.9426074048258655,-0.29390858475574777,-0.09391112921131445,-0.027080883375565783,-0.7484149162885307,1.5460443931808545,-0.1584506773033676,0.2336816096898668,-0.1767951713794416,-2.895855560276214
34,-0.20910427305307785,-0.985144840623074,-0.6952834480806926,-1.1289109792548404,-1.0069049957616047,-1.9390956724931507,-2.3327727602795645,0.14952277968483227,-0.7201574740607891,-1.390565162476738,0.5275122543342826,-0.7160838268136229,-2.1390648991836074,-0.7074912438820485
35,0.342250280481132,0.6165639672887756,0.9315293436370055,-0.6843177990659655,-0.7362927284099829,0.4126685965151161,0.8535243852747998,0.0179369898702827,0.7122200954365449,-1.9306488919754128,0.29794452805246496,0.034961085149017065,1.1368166957041435,3.6257318237827953
36,-0.07225132676245632,0.7889310904927681,0.5602238549071177,1.604587690427906,1.2880049231770196,2.2794861647061078,2.5716564639596156,-0.3715088039650445,0.11070293359494573,2.181086352568874,-1.0190367463821144,0.5240442443229909,1.9920520383342775,-0.06652489962405504
37,-0.6666428604018213,-1.339932586313262,-1.5001566646262081,0.26729133000437655,0.3844222507231717,-0.5736877922742472,-1.7237464785169703,0.09598845142251337,-0.23906720726205807,2.051836806621642,0.0251032421274639,-0.15609599952473296,-2.113916891771585,-3.9119786976578843
38,0.6431147397637983,-0.1560122928817869,0.09712574133665142,-1.842109388283592,-1.3242038146295256,-2.452169714845795,-2.2553909137300843,0.5937734782149122,0.4169885500385628,-2.860652778973825,1.500943786002483,-0.2349460909724749,-1.112225140719145,1.1102997249884996
39,0.689155764006648,1.7371157340091206,1.7024930158616867,0.29538591600396313,0.01216167389038689,0.73780682600426,2.4003760317289173,-0.33359556604071317,-0.6199000763119926,-1.9188939623286414,-0.8416370546411943,0.10103351443420726,2.5966854058835493,3.534233172619003
40,-1.3586937986023744,-0.7826987720631496,-1.0944574662431528,1.7079010936097367,1.0400656345055763,2.4594459315175157,1.4808851157672656,-0.746605759561929,-0.6560870572677783,3.270308237330986,-1.6246579325160537,-0.03475848753142065,-0.26971435448329,-2.1136753147675136
41,-0.29976365249822,-1.6027981294847569,-1.3090623343983094,-0.817590957847964,-0.2959974848792108,-0.8819637974711526,-2.6346134960305,0.6756913818941276,1.683791735314675,1.6329015179817512,1.9281432996863943,0.08376435443508663,-2.1912293734344725,-2.4846813442261584
42,1.995033020788618,1.7597327685485793,2.092106205277887,-1.1648647653848592,-0.453424368268142,-2.266725782758098,-0.4800049828082114,0.760977024999878,0.5147475758215501,-3.287872057007799,1.192416308011265,0.20782025879644492,1.6152198005679832,2.7513196696758
43,-0.4860737719785779,0.8716856730105365,0.295644639611433,1.0631062228869024,0.30868808915929463,0.9430491103896286,2.3095048086435974,-1.0578195411992273,-2.7216164861213104,-1.387819328864755,-2.9083309873834837,-0.3102021064526121,0.8668448478018722,0.9910765425767947
44,-2.3229099344814355,-2.4441515629660944,-2.717240766808549,0.3233037695872623,-0.3162832687221522,1.8494060254047284,-0.45205209579361605,-0.5986559743368115,-0.03586717775700441,2.911433594930794,-0.2602865847797897,-0.26891014631303967,-2.3243435778053816,-2.830469129513201
45,1.5186649158984478,0.3303288747716901,1.1256111424641155,-0.8387998351843431,0.04566479567118831,-0.8077263983411659,-1.4767844787627715,1.383468204440117,3.5395504906863877,1.402491691468407,3.424691421017122,0.4929834362490085,0.970602054592316,0.5738599745171896
46,2.1901260029588987,2.554487424488582,2.7185519785505865,0.5711323970237469,1.0833952586002356,-1.2547731241112805,1.0525537771715028,0.2789246826673219,-0.6392382201482939,-2.30104284426418,-0.8746413530422424,0.2594403498653492,2.057234710345137,2.376144796936875
47,-2.557055189449468,-1.7050028164523212,-2.580445943369665,0.08867539687608166,-0.760775024752816,0.3620571433582683,0.3360159120148059,-1.5601763125958046,-4.038833936550601,-1.8087430492117929,-3.3026835055705797,-0.5857698743305821,-2.6504048538087797,-1.8482064691591902
48,-1.5763445115662331,-1.9645547016389078,-2.076339131170616,-1.2176653221252025,-1.6565888121464893,0.6245530564947568,-1.1756702403171746,0.11751237764399002,1.339926200568868,1.7357264627470856,1.7961096731291208,-0.2505056997344194,-0.9413873806206909,-1.6108968342711347
49,3.343995961542432,2.86648019289332,3.685325446500744,1.0613410810112363,1.7283235849743848,0.43279374521210945,0.838415570723035,1.5440102316976299,4.22560459709396,2.5597217990879444,2.6361007100208833,0.5958636495174255,3.57915895469696,2.6197804364241053
50,0.6014362203838536,0.7601082173635226,1.0081892291866892,1.3759864717232744,1.895605109865837,-0.1533209477930388,0.8322583580429473,-0.47813340968120077,-1.9338352876620555,-1.4938240035354284,-2.1469288907221165,0.3077943313649295,-0.47602471612746,0.8466365346332463
51,-3.6833917998226893,-3.46091881589297,-4.205607459295301,-2.3351799130096245,-2.771440191942701,-1.4935765022959446,-1.7941145012775972,-1.3656705444664077,-4.178038948073991,-3.4209749242623855,-1.756136417958627,-0.5753819638181406,-3.5607725321506116,-2.884420585048308
52,0.5100050563912752,0.7733357707978322,0.1361699726562966,-0.963794603559027,-1.743463479062245,0.005529736040799574,-0.16954024754119384,0.7108397159005206,2.3647716925124525,1.7163446068181483,1.7873028469002046,-0.4626199754713111,1.5236504314937238,-0.3493205170247436
53,3.4972356016380366,3.2807767901392735,4.138784958844094,3.404066862300476,3.6914026282469985,2.631257403328861,2.3821265745907936,1.1176451496992776,3.993797951120112,4.061960328235915,1.0949067827094812,0.5961534633374934,2.8977279462194256,2.8102823186390333
54,-1.4937263021567335,-2.227675980955608,-1.0367404415302177,0.09030426061129178,1.231138390400481,-0.24302500179814834,-0.5993908473794699,-0.7890422004178597,-2.6511228688038115,-2.3299708707694538,-0.8636958062788594,0.697907454540441,-1.7843003068145409,0.23954420666682985
55,-2.8496269761059656,-2.3379712108727926,-3.682155652308332,-4.006318033026363,-4.309662547991461,-3.620846495923042,-2.5900279326286126,-0.9058934619801443,-3.7438357648938743,-4.205773654972273,-0.9996488648788932,-0.7188847253912558,-2.201714395376108,-2.6403770657436976
56,2.124658463765915,3.1928618384383407,1.537219615695309,0.9896128440078034,-0.46422893538150406,0.804943483604321,1.2843411191403007,0.7606620369025247,2.8546567603428206,3.075942673173673,-0.2455453147265045,-0.9519887443554647,1.3291085514569572,-0.46205295558598497
57,1.930513837614464,0.8713204025007328,3.1072455243690964,4.035724538191285,4.49882343132716,4.281552572026552,2.514999578634311,0.7943283113357283,3.4481465932307565,3.75840163586313,1.578616567888025,0.9660608451932482,2.021160085599804,2.582065934137658
58,-2.291536179640797,-3.386448234621169,-1.6839317597065357,-1.9780271766958868,-0.39830586111514127,-1.543970106779985,-1.7846673885747357,-0.7147532563568383,-3.038490869451371,-3.63197000763166,1.0883768015902668,1.1387905860653795,-0.66266134630876,0.8225413508284185
59,-0.9953750319860656,0.7197152350516689,-2.6123685675104396,-3.5606273174903396,-4.204848678607596,-4.524659439709442,-2.293201317629025,-0.7760643387301455,-3.0754425976080406,-2.8487285893379304,-2.6501300620833605,-1.3062502040471804,-2.5095870709424357,-2.722828220230363
60,2.0417490483376244,2.749860461011527,1.6564526834210254,2.643935794490619,1.1702548327864775,2.2884990764234923,2.10372672344771,0.7273733320657781,3.229092539647236,3.7627623784430804,-1.3325339848304871,-1.179206847726675,0.41121177575476553,-1.0708561427219208
61,0.27001923379045134,-2.000156067741994,2.2327710505599145,2.7702560703216403,3.4622422911299093,4.355008289662211,2.0232829558418475,0.7872577525916409,2.5628788992169773,1.759895877218047,3.821697364822424,1.6558246812484592,3.3337425140812993,2.994836190375407
62,-1.5681284370641224,-1.4730207344788677,-1.6350903679859226,-2.88930058980939,-1.6709739765320424,-2.8932023974317693,-2.3073373607534986,-0.8205618996591354,-3.3903777173120124,-3.4203282811371962,0.9057242035103964,1.0340421276921976,-0.9423414007177348,1.004306337616488
63,0.1470721615764119,2.644100491341951,-1.8527429782659375,-1.881423748019239,-2.3981352893812713,-3.842550720276841,-1.72511572655338,-0.7514468494992875,-1.8533653455646326,-0.7915859459060501,-4.664827254142961,-1.9001904927315385,-3.871709734179233,-3.198741772116229
64,1.126199074837177,-0.06994725410545138,1.6817061441623236,2.744823332978371,1.7646144560064758,3.2594428774182522,2.452635441659696,0.9570230107138384,3.4181719510788318,2.744272040518487,-0.01666599981121698,-0.7258532802543642,2.140103404176124,-0.5609130496898569
65,-0.33505144637599266,-2.5442957532849158,1.3071580153435498,1.0579327297722494,1.2183059212166727,3.0916285113871664,1.3559525882890002,0.6249526012366813,0.9455299286796314,0.12851472179439674,4.903716346629834,1.929166850796488,3.577885264344543,3.086109702013392
66,-0.9072931823636112,1.4560139915632688,-1.6997165410352961,-2.3093595080457354,-1.3992021730512123,-3.3322105924905214,-2.5311821963648047,-1.0685936376606284,-3.1666551461792034,-1.967864903300631,-0.9521472436160773,0.3393326475542883,-3.459095556076599,-0.13337039816186935
67,0.5138608526340548,1.838728611310986,-0.5120499199348878,-0.3841322060418728,-0.17147603212813167,-2.2249882749948715,-0.8732791067599045,-0.41749438537362843,0.06163325737128813,0.21571401845562022,-4.528097510146491,-1.6733666947863128,-2.3019983171464555,-2.4805597370083787
68,0.9287249667102464,-2.366572814102659,1.4941360059083895,1.6795994886371841,0.6347213173287825,3.0933461737166383,2.4634582359646604,1.0970143139109954,2.511397311103461,1.2879638376388576,1.6264189114969407,0.0008275683214518438,4.215953703234164,0.7961134669171519
69,-0.9231155429943833,-0.8388194559073403,-0.45073350287439534,-0.10360263768701279,-0.505604141812862,1.3799823507408635,0.3042736709059454,0.1810199607014588,-0.9603731919560187,-0.3551594138115043,3.777585188456425,1.1266917666701628,0.3883216795945206,1.3911179642909965
70,-1.007567387115261,2.691360824391171,-0.897621656018159,-0.9194456061431825,0.3512477795089508,-2.566001447098197,-2.1523262791814095,-1.022611741728379,-1.4311681351544794,-0.7766124568745161,-1.8066279462322963,-0.1639805788633408,-3.9497001750046152,-1.1055432092069948
71,1.6728481265471449,-0.1090307732060705,1.3444094720296325,0.3651325997694996,0.6539438780674917,-0.701313789429954,0.22585131686883828,0.02103892691000997,1.4864767522138143,0.4240953705295361,-3.0093375484428027,-0.34809544935733977,1.4879963088602408,-0.05554731987335903
72,0.8461175064969264,-2.5361656707803224,-0.10792876779039061,0.0858820527606889,-1.2907307694165429,1.8289259921648697,1.5657927288869,0.8685847274147321,0.06674778313881852,0.38463026671162553,1.5378962170478172,0.04382622323253321,2.658439742976653,0.8642153861645389
73,-2.649187730567986,0.7610947485279628,-1.881384766472891,-0.33708524396637574,-0.2535307570296243,0.3162764099166018,-0.5331054453211898,-0.1442261747272508,-1.4250500846348293,-0.48032246114815325,2.5205816393553504,-0.5511657548511154,-2.649994831251348,-1.131028076559418
74,-0.19327996895812238,2.1375220998314584,1.3436486951774562,0.7191040187763703,1.891498632283945,-1.0238173787452831,-0.7965092876433548,-0.6846543491213443,1.2878032191623525,-0.025592537939397232,-1.0533481415735904,0.4235329891286113,-0.7975776917171785,-0.1276846134662498
75,3.535056501666531,-1.0471554390898414,1.8668883700833505,-0.027826541021865735,-0.5445610092126121,-0.2931869306093485,0.4674671106297443,0.17893036821302,0.7241920131538974,0.4845942958455904,-2.4198081100551434,1.4221895154426358,2.738569286683526,1.790708939884392
76,-1.002179465067872,-1.7376071257994505,-2.4903768396737735,-1.3271699369830772,-1.9344523124643098,0.33617188908457163,0.05329157794724293,0.5231449657999712,-2.2771319927104945,-0.32766854074764906,0.6296478333811106,-1.2484662061686622,-0.9478842099776025,-0.786482496689976
77,-3.943282107864029,1.0503844597273515,-1.3050690190217544,0.6865667550077224,1.4427820582501742,0.6017466521765689,-0.008083767678473457,-0.1489840756695111,0.44612067097292585,-0.36542120639380055,2.6102000688781266,-2.090240082382859,-1.8635784935611928,-1.760006969584386
78,2.529868362321862,1.4880834700068246,3.2232629176756507,1.5516508024761553,1.3710773393384719,0.056544051615711036,0.4224533453461012,-0.4196000962350655,2.6287444868679013,0.6102837731198428,-0.4398359404558632,2.372424689986834,1.9932137055563455,1.439156802679356
79,3.596239891262362,-0.9268532408048545,0.40930801136395734,-1.4578520861093918,-2.0904922547689337,-1.1022659713996517,-0.6991607974945958,0.0991569347396139,-1.733336053838845,0.11322632434165858,-2.882362767593863,2.3739679691634232,0.5187139866861328,1.1949430614481615
80,-3.981256217710642,-1.4221092102234552,-3.3543234169646396,-1.2916478110549001,-0.3714361531732782,-0.05328031245478561,-0.4755114124783508,0.38287317110837643,-2.281966801925111,-0.7230694516626527,0.48370452187208385,-3.648497905002526,-2.1170671583899217,-1.4991960705579357
81,-2.462065468265532,0.8231154388832614,0.4897306479839946,2.055798068221394,2.2224181816762933,1.58118714564659,1.3934379275334738,-0.07936593513934967,2.735722336910666,0.17714279155344573,3.052102226295699,-2.1266955146808533,0.6875742721689075,-0.5064486187223671
82,4.906309529911259,1.4838018497545724,2.908795485939137,0.6285806451214706,-0.718538835262662,-0.3185435303977281,0.1237915369525833,-0.3931847495255113,1.431871223905309,0.6351607569483473,-0.6235420242568812,4.837669031318499,1.527951925405657,0.9343934879935041
83,0.7843517178351768,-0.8331775113095689,-1.089363527230099,-2.2106838944269787,-1.781812077338234,-1.8267452445384669,-1.8200862870715393,0.12953255802849645,-3.1746353450976024,-0.3589064250050422,-3.061397361061353,1.2979371309691894,-1.3411207138540455,0.14556292045891003
84,-4.988678265012182,-1.5740711880118665,-2.0989633020517866,0.15951165971103456,1.5099922335038518,0.8990012198446935,0.4414251925548173,0.4053971347508731,-0.45411236094703095,-0.44590075854854866,0.6899033745357612,-5.646293866310023,-0.7080993473957232,-0.045042766592220736
85,1.0017942298811848,0.994211306308751,1.237834793098723,1.81943440249121,0.9599121082210653,1.714032008555485,1.8566793427365853,-0.2648404294158714,3.022530924643296,0.3496075406206499,2.993537794637258,0.012858071260894773,1.4089904724597238,-0.35502893556442827
86,4.16481095501004,1.5812063080616652,1.2155038730168637,-0.6997192415151582,-1.7397482747184785,-1.450237989480636,-0.9491264640406609,-0.3582201931936583,-0.26457581916685163,0.3452261529905179,-0.5892896803520801,5.810054406730097,0.12645503081560072,-0.6896451118228462
87,-2.424460601408761,-1.292853155930618,-0.9757744311784748,-1.0345504797529523,-0.1187278591795959,-1.2580828186802424,-1.5715295838237702,0.4616171319075021,-2.5159075703734866,-0.22401944041140426,-3.0084677855976087,-1.5495122201741904,-1.2099573652399813,1.032610223485531
88,-2.6453884876886753,-1.3972800259692097,-0.49771157237113917,0.7041770281468168,1.390273572632475,1.7495280485871223,1.1873941752951338,0.19335465006434222,0.5121474510893642,-0.4857947364875592,0.3577174955525606,-5.195603468290056,0.018750453560951223,0.8680832223842536
89,3.135965381827068,1.662287069999222,0.4842952682611859,0.22300785643661597,-0.3733561881905948,0.6054411649802388,1.1780613078930813,-0.6498202679942826,2.0343894116550634,0.20320239955011526,3.244083360070477,2.9602305813837653,1.193961242580223,-1.787400597081314
90,0.83978232259548,0.941563485670226,0.04854249342002765,-0.13247443592717265,-0.6955942193417611,-1.6772749927406199,-1.1087057592280443,0.11417657094961037,-0.3568561935562118,0.8503626508610426,-0.14315977500022642,3.8701350078730896,0.11235551313318334,-0.3787356005512357
91,-3.023100942553408,-1.9795014942309161,0.02306513008323933,0.20125505098129404,0.31276670129662043,0.03453884398348848,-0.9092605627050285,0.7237407908264348,-1.8975237266552918,-0.5271393057178322,-3.7352335850409837,-3.910130805130047,-1.661121237906538,2.154364424513446
92,0.7830694687412256,-0.2003847367802381,0.1701423339654177,-0.7621781616018146,0.026890156694214892,1.2555588840510994,0.8394115180524904,-0.5236842297119749,0.1082992213832623,-1.2130823783550908,0.13596460687423714,-2.098544688524788,-0.12411581382482155,-0.5493007057245703
93,2.2334051309470704,2.0882134375407664,-0.40310602352385716,0.011441424068253755,0.24794571903165613,-0.4837084512826829,0.8858456482946434,-0.5796396120118238,2.182875763765443,1.2819068689543078,4.3824886643960825,4.197422664743889,2.5798464288958924,-1.8410984564743935
94,-1.847493516589646,-0.7362847862694308,-0.27218124299659235,1.5418455503283908,0.28456849245995086,-0.6184323465448529,-0.5872703474546401,0.9152603529473704,-0.1421844041265122,1.2396040914397166,-0.48232394920071253,0.26242174779548066,-0.3610367651689595,1.4760931828870567
95,-1.1131444531662382,-1.8575213275381932,0.6293710138667844,-0.8084999968756407,-1.032866351943471,0.6641522058193814,-1.058109932377491,0.17368854626594968,-2.6688962582338434,-2.293527945376354,-4.977020628179125,-3.820393113945751,-3.600323977558691,0.8708729755607535
96,2.186477563687527,1.6761246546562851,0.35655146761235235,-1.7975168540264646,-0.09840607337491097,-0.06604612499986329,0.5044412977155105,-1.1165937550556362,0.6754603912436903,-0.6811563946977227,1.2139210072326732,1.2661804727923027,1.467002905935303,-1.9774141315735743
97,0.08029853642166467,1.2529844880054084,-0.7668025225604448,1.8512531698105252,1.6787404273668263,-0.6071910049525275,1.2572479484200547,0.4270623740526591,2.945495820726473,3.1691795360473174,5.269142795207401,2.965354238962003,4.24505474187001,0.443862425836107
98,-1.8809162121087428,-2.381285632968052,-0.44416086924501574,1.3541275941836606,-0.4810742907051761,0.6748498301542504,-0.5933138074000269,0.9738048041988548,-1.6164427131073458,-0.4495898277990949,-2.2174855029121954,-2.2414747573773064,-2.974897398165575,1.8412963591866964
99,0.5224157337973951,-0.37621286648139207,0.8991028907861695,-2.680599431892791,-1.9033357509359745,0.4050893113312866,-1.322054119723581,-1.0374981648678023,-2.6419555006234927,-3.4792735965316544,-5.0568413075226015,-1.9229627475280382,-4.162618299978631,-1.6645564747467996
100,1.2093103118886648,2.6610596401125646,0.47353068616787447,-0.35609978877477494,1.1664741382063906,-1.166263994469781,0.7161927583041606,-0.4397721797736179,2.582252855653145,1.83226963297087,3.25623963713553,2.601592039304891,4.41836263947695,-1.1408697712795388
101,-0.5405777650580224,-0.5592482471208668,-1.0560943515901537,2.9434650166613303,1.625445763864935,-0.14271478937585882,1.2163311827847052,1.4127595931038663,1.6486657443067871,2.9848548502819092,4.263826841205511,0.9732563319689768,3.3076366402611184,2.4271748397943993
102,-0.5280861112066348,-2.452149698991098,-0.3512595750626647,-0.8113087634125955,-1.625569368495342,1.561027561987447,-0.7012958801328472,-0.36885176830061356,-3.0838442520492255,-2.9613621335993954,-4.039442261181133,-2.446314858353132,-5.300659474201716,0.16761336717596115
103,0.044289001089591884,1.310274332771398,1.1832770565143487,-2.55895825279888,-0.9872560641670948,-0.1465477285062288,-1.057921133059187,-1.3572203780757706,-0.20473267880984747,-1.781388690907943,-2.976587259864306,-0.2938544754251834,-1.9629289431492252,-2.5796423420985106
104,0.13209609580799522,1.8410900752781487,0.02330825678459516,1.7195941250438553,1.6267225096612297,-1.8921485002059588,0.47245182251357243,1.189194680765449,2.7795302396375643,3.3767634045868693,4.3169263957878545,1.9533312218593608,5.316913021485441,0.7191784008012548
105,0.7244066360340254,-1.7015444374665751,-1.1678026239605146,1.7386763736172473,0.2809805699050414,0.47946492963094256,1.0407626861459993,0.8326728745815115,-1.2025647177772965,0.2760613999201202,1.422698947309587,-0.06630768200440346,0.6085077294192718,2.2065960265345814
106,-0.15398046284604017,-1.0171912673244963,0.4752578238126656,-2.105464570218498,-1.1289475419524995,2.16216531354429,-0.11456336168717973,-1.711190449987651,-1.6552017069792808,-2.878109103239422,-3.9615698163393835,-1.283111132200128,-4.477645654417551,-1.2429508638290505
107,-1.4658676733766245,1.6842314507411176,0.9022427621116419,-0.8567923874386711,0.176784049275846,-0.8879545693992631,-1.3040975460834825,-0.0037785831851030126,2.0708859989727246,0.9877635771342764,0.10247549095294722,0.1413961129885209,0.2861182829434872,-1.5563241067177522
108,0.5417720644264223,0.18666198160339686,-1.0188673287557277,1.9796791789125499,0.28856864397936827,-2.3327748241812643,-0.16742177103958186,1.71707640637621,0.03339428308579929,1.612198029601957,3.005784262239728,0.5286454966564302,3.0896437856468935,1.2978128627387837
109,1.9445685397294277,-1.3282314828683963,-0.3490318795829065,0.2464729283386754,-0.16649571352983664,1.3798948016262467,1.8356465024144937,-0.8139328228641418,-2.117745203232771,-1.5618164758653394,-1.3293793401901517,0.03088600644333612,-0.44663431468243103,0.9238790799256283
110,-1.1151153853722666,0.5002263268669623,1.436880691065359,-1.5836110212947112,0.6070450198232875,2.3448076671792175,0.16582708719797049,-1.1912001277314812,1.5846663088716562,-0.0008930794609109506,-1.620237127071178,0.26185662949275573,-1.6194409292784815,-0.9570492112647939
111,-2.064414116863641,0.7643290540447765,-0.4277694137416444,-0.03638873674872675,-0.3598529004293172,-1.919189605513117,-2.4678094928353564,1.2863335172393304,1.3932351522191209,1.2642431876334888,2.0893652697322285,-0.46016929136722884,-0.11868216554517859,-0.5444292936692264
112,1.663478008331261,-0.972291502377878,-1.5806264782028538,1.226659629046262,-1.2444512815738353,-2.1492185650097517,0.21290738219254426,0.3403019178645099,-2.7473490172638835,-1.436696740233284,0.05058719595829327,-1.0125727164405502,0.5106414459621703,0.4224503810969485
113,1.872413871739118,-0.12173219157857379,1.2767702640867566,0.11481203614363808,1.2689581200774163,2.4302958113811663,2.962757743778728,-1.210395015553781,-0.22579734978193983,-0.22420337480922445,-2.3463581843752483,1.1803638249904478,1.150786068081423,0.5263988984167051
114,-2.0352819945285736,1.213700359894871,1.3795441314246812,-1.1034099411526423,1.3885182113297407,1.7308127799327042,-0.9003695879375733,0.489949225266016,3.227838477548657,2.2736519878851547,1.4573953037746379,1.5631923014944933,-0.03401629415838268,0.05478391384587744
115,-1.50377642757388,-0.5005158515782888,-2.0099101669681194,-0.23331612467137056,-2.29616392955802,-2.8188204077803385,-3.130170202080882,0.607431665442895,-0.9485045516579013,-1.1936700535671059,2.183509358432298,-2.1628157194284783,-2.260861272085105,-0.8305145862748892
116,2.1807723728049138,-1.2281257838786015,-0.8632636977715311,1.1972871492167723,-0.9536937763581947,-1.1171104487452972,1.7067653036714603,-0.9626511922572829,-3.069901582999301,-2.3010954670790524,-2.7185274317136896,-1.689954485027897,0.22311604857009187,-0.25828996350543276
117,1.1065107267445116,1.023631457341,2.464762702622673,0.18037013281231795,3.1336436802558976,2.9968705794791486,2.91085175225684,0.2843387197863019,1.7707525102814476,2.529535502268058,-1.7594790866821544,3.2318727190223115,3.079634601175003,1.2919732026422017
118,-2.141859470984756,1.0259658505273102,0.14420633597282714,-1.3221456950146488,0.022697852508645693,0.37333244354933004,-2.417892124089226,0.8915385736277505,2.5089758192525213,1.5639363066192873,3.6424690328340694,1.2130195860231523,-0.9053210564897864,0.07847810032798107
119,-0.7836224123880869,-1.3675950070486445,-2.55136281331687,0.08401009427911985,-3.5250482306255284,-2.9043102570775114,-2.3875598698903775,-1.1113603973824306,-2.0692013159196576,-3.3721382912776017,1.251770280287843,-4.0604669831824935,-3.3730692679858274,-1.6810241355948254
120,2.0090068131447474,-0.6421995074217629,0.6271348140209694,1.2676883685956541,1.1884711765851192,0.41174230021477337,2.892293184070728,-0.3140669244644454,-1.8352285387010312,-0.3199510662899337,-4.238653596992902,-0.1299053908803607,1.7986536551866055,0.44782253153298385
121,0.571516603820633,1.4503480522274808,2.2659820859148763,-0.41341544720185963,3.334537819625404,2.520062358400274,1.7266730586254833,1.5513992933215424,1.8641371992493638,3.4668022472727245,-0.8011647185792171,4.275525030971718,3.087098256900431,1.7884962421022095
122,-1.8741492124001822,0.16225409111995234,-1.310838371480813,-0.9517259154177252,-2.4006152459327303,-1.1423037975143506,-3.1106190741515336,-0.5315518202868447,1.2772067296231726,-1.0491849240871716,4.592263253363263,-1.3155797993726495,-2.6232466588512415,-1.1488437506922142
123,-0.4502517371839842,-1.2185760467076605,-1.6719993071995283,0.5830548399244985,-2.571331252484464,-1.8622446841335918,-1.0874366213689477,-1.4411983727178364,-1.2977241387831018,-2.771828330079565,0.47063545021169995,-3.628382427279467,-2.3208389721302427,-1.5075826530691154
124,1.7995509283970574,0.2761064434861906,1.8071264002896337,0.48170600929073487,3.347154599625912,1.7275167728929992,3.157812770986042,1.3099230928409,-0.9522146677898815,2.1476698494736337,-4.816085851261049,2.686782558704973,3.1802000999246975,1.7825794508848576
125,0.36882761538568765,0.6915717504968906,0.8658552130011415,-0.4458199968083505,1.3722573409697294,0.9826804119267054,0.5476877560577408,0.8343311457480368,0.5474642176282304,1.4597098160708895,-0.23302285757707203,2.137663451794524,1.25887179447609,0.8769846441076216
126,-1.8067958451976347,-0.5204870372927979,-2.058194488410312,-0.08946649356138103,-3.832002615227925,-2.0869478050748502,-3.1528723729117645,-1.726068022120359,0.8811987170073536,-2.672713777954417,4.992696603255374,-3.516013430909704,-3.3764778037592285,-2.1309085519541755
127,-0.2702082570485553,0.015886252138745276,0.04762448184146232,0.03398623166799057,0.03979753250988209,0.03565222143777629,-0.08399647861285484,0.03039097843206139,0.22966035034657728,0.13516934114997614,-0.0037757884757793504,-0.12263138931421774,-0.1036853522905311,-0.06467652944239169
