,AF3,F7,F3,FC5,T7,P7,O1,O2,P8,T8,FC6,F4,F8,AF4
0,-0.12098247359835451,-0.0926165389229168,-0.06030382133759484,-0.033696598896582455,-0.07958681216449062,-0.13530399363760287,-0.1261457280216069,-0.05862211419390412,-0.04973596003820792,-0.08796166848291108,-0.089863891903734,-0.04776212968451593,-0.03515291055505133,-0.11316644378246872
1,2.8943375861774334,-0.6547909727300437,2.970042390945189,1.1901579233563964,0.4328736020280854,-0.5048114048697371,1.109984069220856,1.407203788782505,-2.3817215220509764,0.8061801215487802,1.3307475602179868,4.446241419722146,1.4013051362372089,5.3132147278067485
2,-1.409990695792214,-1.1852526777181573,-1.7286707170402764,-1.110179000099244,-1.4361418224052376,-0.7158582479874681,-0.7811385757003372,-1.6558217342718795,-1.9352930751047028,-1.8571257447728116,-1.3020924879719156,-2.694901351992537,-1.3353794012256048,-2.697751362347447
3,-2.0848856412034973,1.5115395807033116,-1.6713015033922394,-0.6013656871153461,0.4286250733568576,0.9076354505913925,-0.672601805110808,-0.46512475046138685,3.3939081593382454,0.07204728707437563,-0.6403536505622629,-2.8735340879165894,-0.5777172901058563,-3.8959815915321245
4,2.5302664288922116,1.9772571406270185,2.8028750675802967,1.927229749943052,2.4536438359094923,1.311530433865044,1.503161737352041,2.771413953817289,3.2766540938940185,3.3320869315238646,2.3380502858682934,4.605856265063896,2.3051710568655133,4.786972171548843
5,0.651244128347058,-2.9578359174053204,-0.521008828509697,-0.4132971969782328,-1.8903865025566966,-1.607542981817157,-0.1781961300362614,-1.1112920365896055,-5.084135184931039,-1.6579145140922862,-0.5905273321464293,0.18964511053663902,-0.8701784385122034,1.3348763944139566
6,-2.9026502431612613,-1.9223413638821731,-2.666408661487642,-2.1819942620058552,-2.6180992823455584,-1.4431883738874662,-1.833273218283428,-2.8822877664653537,-3.5332144076778103,-3.9414060802510047,-2.7182086086805106,-5.091842296994361,-2.563090974652467,-5.52926105094286
7,0.9885271072275786,4.4576763233196885,2.8758266938885355,1.5322804411912445,3.440211063264278,2.318477045246035,1.2561154349226136,2.720334078404499,6.817801615571441,3.5112160998407873,1.9991742920811642,2.760989676523693,2.5454534245274063,1.673129147633643
8,2.433849875648529,0.9894002460125495,1.2567991437528807,1.8330430009717653,1.8859869928387083,1.0815743920700933,1.6438973306256006,1.9704361857017545,2.6636686332820196,3.533593164606008,2.3480494601795048,4.064873266872358,2.013148767382071,4.656160120165478
9,-2.3569495223741184,-5.433316229798447,-4.61308146768422,-2.4163355824171493,-4.543093036692975,-2.7270415764644227,-2.285915382154143,-3.751054091480901,-7.936641555145708,-5.10067819559671,-3.157628458601203,-5.0829642391032355,-3.9883457734378114,-4.2490220745382405
10,-1.3119353268478382,0.4853668524157195,1.0247318054462853,-1.0394504383430938,-0.5360197542916196,-0.398771611730627,-0.9468053803762894,-0.4133014851858857,-1.0450584593310064,-2.2622942504461974,-1.3866620693786271,-1.9701744239472012,-0.812877046120387,-2.383105553306834
11,3.0788803803673037,5.498862418972048,5.183008858035406,2.826727463555688,4.837778245021362,2.614868124160748,2.966866034299468,3.827991643932645,8.01425460837405,5.970486623253402,3.721349429337873,6.156381938061771,4.82018732216939,5.586004436246592
12,-0.05235860992499259,-1.9097760277994145,-3.4540529201274186,0.09427733704496942,-0.9427109009719945,-0.2836277970130385,-0.06987767854472146,-1.167475710266494,-0.6723900645350067,0.5518140482158722,0.2049243536914682,-0.39038658481620936,-0.6726610846371285,-0.5959400093455667
13,-3.0144222917272483,-4.637013634087335,-4.465385723606115,-2.7006262042415345,-4.262143416237755,-1.9552133912329124,-3.0765775049129873,-2.9630639468892284,-7.026974553033636,-5.900929104547732,-3.5639993739694806,-5.856684859700314,-4.868732785795033,-5.236803567392117
14,1.1650647248015784,2.668806656132113,5.250090733134788,0.6856019709147269,2.0390554604038456,0.6081013124963721,1.0653118612869508,2.157139355999851,1.8239772738987776,1.037685215052183,0.7466348304141408,2.1739633820342505,1.9961569147030944,3.292616923664139
15,2.316287415733701,3.234812255341977,2.809359103922026,2.1595311712287817,3.0591560646300473,0.9456501443258614,2.5817347032100018,1.5514140401437073,5.365969236605279,5.001336765558018,2.8370290200606734,4.579229928246616,4.221957873835185,3.3233763165575603
16,-1.6282982304687403,-2.394626162909087,-5.868471550217044,-1.0708605468023327,-2.406088307884715,-0.3214656224725233,-1.650872637030193,-2.1984561087334544,-2.0024709501206224,-2.011406439766763,-1.1162002941837652,-2.829136578719915,-2.789518341460532,-4.762285456537597
17,-1.383089190083787,-1.9417839191627126,-0.8909015563392262,-1.4527563013746652,-1.6679327399967647,0.04411070599609311,-1.6954478606137375,-0.21006131676366882,-3.676905098098039,-3.6848724590522672,-1.9164679414918357,-3.0538254709604824,-3.181225737691764,-0.5522153159915945
18,1.2999791311414126,1.1561979571931174,5.206436156178475,0.9936559405661439,1.9721069818073504,-0.6092722444988324,1.552070917292799,1.3391718687016758,1.228459846907339,2.1361821915542074,0.8005109059370128,2.3099606338846974,2.894027141268598,4.481157521152469
19,0.7103235156947167,1.3902709238545006,-0.5618874204662363,0.8595344759261093,0.552916098957395,-0.6006000581494969,0.827914458220084,-0.47749662978750845,2.5873459034099766,2.515284444512361,1.2484740269715917,2.019564761974038,2.130736684947181,-2.0173277413035415
20,-0.3682241206927273,0.5320313997505057,-3.6306451234920964,-0.5609902724905921,-0.9424623816124217,1.9558649242508463,-0.7554472279961431,-0.01290052366940591,0.06059479861954325,-1.546022055701348,0.004647630645808611,-1.077475289496247,-2.4015622365261073,-2.59414585341454
21,-0.68238621361734,-1.8921406621750418,1.064499178904223,-0.5849506807115546,-0.04233842488019224,0.42940453010984747,-0.42654017937503763,0.20695447691241814,-2.4368404869086637,-1.973689179046373,-1.1550654809665464,-1.8943289757459936,-1.3819586740483019,3.388600591031422
22,-0.7069021406337439,-1.9115760462892954,1.8106795604354688,0.004750469529839879,-0.293228174358438,-3.2901937124542426,-0.4450208862460401,-1.1424840698574688,-1.2050527740912842,0.6968062191463563,-0.8837497074265395,-0.12007803456223093,1.5921741189817453,-0.10520634665629743
23,1.3881220748929515,3.257614930968864,-0.5648110723183651,0.6861180897830738,0.23048844636971272,0.5109774759505306,0.7685251405536211,0.9143741134121448,3.131187483341322,2.2414522984256533,1.6858911067266258,2.5854044197842003,1.062354216046836,-3.0560182080950153
24,1.3814714577461036,2.3191077962719455,-0.42773453451495,0.41372831197254223,1.3032504980196096,4.136379219272182,1.5475440898949862,1.5559369065838105,1.6178912404745938,-0.17243385445034803,1.382605639164666,0.5986279791613939,-0.8033854488891746,2.4876637449106553
25,-2.552297337268265,-4.841749042552972,-0.5601978744174883,-1.0560528062972814,-0.9649200121644387,-1.96541921977271,-1.809398681271715,-2.4084897537556484,-4.191090145817588,-3.10356283522774,-2.5872446566828784,-3.5338550566531177,-1.0913662730453655,1.2416877311293941
26,-1.2762579647523729,-1.5098702885393536,-0.11218381550356073,-0.5102711679515145,-1.7555688505152056,-4.160421299772205,-2.057588910097276,-0.9696464499292359,-1.0456122022068821,0.41758360959210716,-1.2144276603853752,-0.06519831779261478,0.2930088196692444,-3.5732059863276544
27,3.6356619131647,5.819305511679119,1.698108305624196,1.4740017107426808,1.9114127357952202,3.4600587216822416,3.174569734621745,3.628835424487585,4.975850585229639,4.031758649669162,3.410301541858672,3.982104028469367,1.2428583556469353,1.1910697836824025
28,0.3707105792870719,-0.1975714488474904,-0.16858437760575742,0.2544273699696938,1.5200575243093415,3.318147664077248,1.719625605455914,-0.4469039347617509,-0.32496091903037405,-1.5179470809832754,0.39781497818655787,-1.23311313435348,-0.1495382809635865,2.9675581496954466
29,-4.076185729656711,-5.5695968254522095,-2.2942328597384343,-1.7059702252389282,-2.6733210194830126,-4.482772830285046,-4.312269269076379,-4.039233688646476,-4.978438964168794,-4.423375958500875,-3.7171115959471863,-3.347141761591011,-1.2590853095443673,-3.1262250158332523
30,0.9623162636428354,2.0395955790292084,0.8664934805899487,0.21759421595317935,-0.7046311108968683,-1.888387766406808,-0.648791642190574,2.167845375606857,1.9616501158411848,3.138277797742033,0.7415540230292638,2.6146778281894245,0.27672809297435924,-1.0375185769935504
31,3.5645497558525947,3.9871247201298665,2.1069765031783136,1.6162404882697488,2.9311795962110323,4.694457276089393,4.742058507957936,3.447214811357811,4.053722294089344,3.8910283432448898,3.2931875123345,1.5247193255344842,0.9690755385421037,3.7100258574816265
32,-2.1144032576753404,-3.1434316793448573,-1.4165487836089046,-0.6642809419448309,-0.3877209957188437,0.3635597738307191,-0.7088121287610712,-3.5374444925778796,-3.235441913965334,-4.659307945512843,-1.7148834547908371,-3.2811583080356552,-0.45139897769162013,-1.2680257557309464
33,-2.216244288616539,-1.5630002297056729,-1.3075365485012882,-1.240657607140243,-2.55861708071448,-4.072525832091322,-4.279965418823061,-2.0868127260948777,-2.47499058924157,-2.4641204710000753,-2.264250963407766,1.024481154864277,-0.3679837550841147,-2.74538097232401
34,2.526882923047397,2.924765966716688,1.3769147108395792,0.8532933059423331,1.372421788742996,0.7602381696703648,1.7731624704896904,4.05135729199203,3.7027791052810963,5.457361134173195,2.0990069715047213,2.7010793016581256,0.4319539673404008,2.8704387965546685
35,0.544391002642559,-0.8072336601270883,0.3814700887092456,0.7833511532116256,1.6697914278320922,2.9110231299865568,3.129247557643452,0.5133581181197805,0.7974509411125302,0.5986025772197784,1.0529723374918334,-3.455220574188388,-0.3742478049726715,0.7728172051000887
36,-1.966425243647305,-1.3599946610524416,-0.6429328089028333,-0.6801426617308189,-1.9299073193163474,-1.193960239824902,-2.09179970021478,-3.566366483247583,-3.2901347278729953,-5.196080278262589,-1.74104821557607,-0.8759397682435508,-0.07649800286307701,-3.068956312707856
37,0.765335617796348,2.2014856822492184,0.1161196414204962,-0.5299834297626491,-0.5735001538904462,-1.672497952273213,-1.7912993024168993,0.6409873674280083,0.4008924575038118,1.0174767690727369,-0.18812029233543034,4.904498895040051,0.9843587037161362,1.2005436406288192
38,0.6500394214635005,-0.9913417116596863,-0.507821237675936,0.23347401283580752,1.9271247085654661,0.9610969535392354,1.5419205233484914,2.34678117978353,2.3016736097917865,3.989456375054219,0.834520478554986,-1.6411241644053685,-0.5816022741144738,1.8584719318745844
39,-1.1731235201380001,-2.0618451141854144,0.1674808660678394,0.7111506661723128,-0.3518731418873803,0.7681705940583275,0.8392591073711296,-0.9389472681792069,-0.7760252805294002,-1.7739959007985333,0.05716780462430262,-4.871985092528228,-1.2120393440993058,-2.188939096477351
40,0.8498190221074153,3.21884745932112,1.55509061188658,0.23117834609836513,-1.4610495684965963,-0.34729338025850504,-0.37997982854162654,-0.932674123426286,-1.2579234787238043,-2.3561482062127537,0.1750039552114526,3.9840574297138214,1.3418584946915857,0.09115807908973393
41,0.5388776735562224,0.42628582812288,-1.2117761432713652,-1.3793530768988238,0.8103302382815643,-0.38276940153040523,-0.6614709187476365,0.31581127827949634,0.3563124504712478,1.4179052795025966,-0.7276213149709585,3.4337724533186114,0.9524572077011616,1.6947295146589105
42,-1.8770671077374579,-4.438972859068579,-1.9886560802919346,-0.40446129563941746,0.8054377360811644,-0.270107750817663,-0.8805835879053172,-0.10408890101242955,0.6496634414147217,0.9855356991941626,-0.8061074554680245,-5.353390545235488,-1.9305750760704226,-1.7751974342584922
43,0.8180877468966459,2.091931968025806,2.6299484358450664,2.363162166042208,-0.7014801301815485,0.4308102241118305,1.2927900674799109,0.9104628727254581,0.4901249249106507,-0.16999726917620442,1.9266121587174747,-1.1925252667438675,-0.3003362265201154,0.06705665399136301
44,2.0040508980018905,4.1522383658629085,1.5533157361868455,0.07240544836069829,-0.28665238643669627,0.6134258055361972,1.7038765861554597,0.40434358048421243,-0.7203459737472075,-0.42499596907561904,0.7661545833802091,5.353550954419748,2.1340296445946847,2.342325346344016
45,-2.2842897525566737,-4.557701169294991,-3.845421548935138,-3.327621821412526,0.1488945620234255,-0.6519822521190762,-2.4077523088334543,-2.1921485813390253,-1.2317996464884169,-1.3739061321606472,-3.1812726221842946,-1.0022506412092018,-0.49555699119418856,-2.2844175257319046
46,-1.2242633312939113,-2.43329157306246,-0.3739812677616009,0.77187780562363,0.1443417594832007,-0.6159416771500728,-1.770170576896007,0.037549796400567145,1.3657271132857107,0.8328019111437002,-0.07195422491292731,-4.13306525084916,-1.899364776134947,-1.497123814069676
47,3.2547262242763937,6.085665165986681,4.353583251261349,3.9159284881518492,0.5626892477357638,0.7770704066403026,3.4743512355410893,2.993900234401969,1.4109977775370168,2.5094599050964357,4.037827328354791,2.4212869292846064,1.152423767902033,3.9389195638356678
48,-0.07084544461059177,-0.1152697220585706,-1.093324498182355,-1.911779253515971,-0.43449153140005936,0.4079831035782827,1.111357524417166,-0.8898127249836723,-2.183458699413939,-1.9079408112199285,-0.9818376601194536,2.2768757588179875,1.3497990169325857,-0.36721085063701836
49,-3.412935741419853,-6.174134266952451,-3.948968007797337,-3.9038468763649163,-1.1099077819916858,-0.6679005081734093,-3.995037508581249,-3.018987413512744,-0.8444477320740504,-2.7349383283061313,-4.246070662221538,-2.7358566591514575,-1.4805896591060106,-4.281439615245501
50,1.31114212466406,2.6153260618373646,2.260690837017143,2.9955276290211357,1.01022055126997,-0.2060509403827649,-0.08457707769785656,1.6424609468675824,2.6474551358953478,3.025523531888113,1.9718071687887369,-0.5216927110300789,-0.7112853106681876,2.358615101453297
51,2.844270430143609,4.869405796189761,2.8162539970407052,3.291211046107688,1.2621025756904782,0.3643352018058166,3.7240416062229853,2.327141859566413,-0.28943780207300895,1.967774482924383,3.8303061872186093,2.0939997789091382,1.4501191385650447,3.17248310025095
52,-2.0378464690187252,-4.260545511518375,-2.668205509019081,-3.6844373890773037,-1.5836341522375388,0.17950125879209328,-0.7993222044717173,-1.8395572408905212,-2.3385537348967875,-3.5137557270198037,-2.526477788998779,-0.5587851601946376,0.19785159769356755,-3.5028833141508824
53,-1.9349584645995095,-2.7040022615613615,-1.4446473069999184,-2.2890613961921975,-0.9719768744604599,-0.03183621148509954,-2.763828445341541,-1.2975209706607644,1.5125466454153627,-0.57403897985065,-3.037225404532955,-0.9840782343422987,-1.1694043015493507,-1.135855547240903
54,2.105585513475738,4.613491193170337,2.187139120527386,3.78701544214074,1.8430303531892624,-0.367116425996962,1.1083252007897924,1.28612423915635,1.1407662157470604,2.9475540667748117,2.4560611166258135,0.7556279243849843,0.07847600423428894,3.192081951343414
55,1.1310801739500675,0.44773339623696823,0.40427976027488916,1.2163456204271643,0.39317211666275903,-0.14459986673334538,1.5023318375272858,0.45255969210520447,-2.2402072518455665,-0.7958799733061783,2.2093785167207876,-0.023210860450731948,0.8011718998803213,-0.891857935720917
56,-1.6970554474685204,-3.734168474144062,-1.0721206372707897,-3.3169368899960254,-1.5810632043386235,0.6753576864659928,-0.6728928536817214,-0.13957371943139968,0.6810830128600739,-1.3308953741880427,-1.7915317832285123,-0.2424827075876411,-0.12941125251203137,-1.4588641747671613
57,-0.7042857435405663,1.2134756302804663,-0.08725293628919652,-0.36428834540268007,0.18165167632385787,0.05684617165241753,-0.42848549336631053,-0.21748345444117498,2.031895706183191,1.487408133035035,-1.6512809041247434,0.5222073618959066,-0.4729509699703437,1.9951737494092674
58,1.1659997891533185,2.0978034504006255,-0.16382895755661658,2.4571043273095197,0.7847655343319,-0.9414483970208393,-0.35995548989191584,-1.1587395081013951,-2.5644085536161216,-0.9060726197696591,0.741695724582547,-0.5666651568598589,0.045956118101754734,-1.0467363242341
59,0.6510613856016447,-1.9315642966748623,0.534694398590122,-0.10455625421161882,-0.4398998405311186,0.2836451325421106,-0.08130418061702264,0.7230009692312294,-0.7927887445936698,-1.1139239428948489,1.5365903648561954,-0.40605209671737336,0.23144751978773118,-1.693246929649881
60,-0.8208219824966035,-0.3521009304748202,0.9928117080644888,-1.4607443271385363,0.3497900230777245,1.0168811006975318,1.6157738824627783,2.08571514793477,3.8659054196406046,3.085431956236206,0.3956526933601404,1.2300724843992639,0.07204797286579663,3.3615953319593435
61,-0.7576905786997622,1.7805815225497803,-1.4320218785804815,0.18297920318314115,0.17943256227906854,-0.7640668549697635,-0.09400657749391171,-1.7454187243109085,-1.166202652096514,-0.291751940066459,-1.8729220589166207,-0.1457222811809973,-0.053413990462535595,0.14078790736843297
62,0.7780899832399786,-0.9685140166784796,-1.116521879914532,0.5462470199258059,-1.4875905175964315,-0.8300787857803971,-2.6704363217131113,-2.2806184471097417,-4.121885679363275,-4.552224416910972,-1.3312475670173145,-1.4612851358019239,-0.16654447722039506,-4.644976957414114
63,0.7620937263390589,-1.1489769423635898,2.273454568389005,0.024715867623794328,0.6036921810905097,1.227400805401261,0.8055681853376182,2.817327316993086,3.240014773249381,2.3010418792984004,2.518603029823271,0.7916193165127178,-0.11089568870968493,1.9717496490281505
64,-0.9496288441915622,1.6419809921832211,0.593393139488016,0.16541376757226,2.283440768686032,0.40836461980781347,3.226011741167615,1.7133702910744284,3.238700231061282,4.923238088669444,1.8659558589935057,1.2182083159786958,0.23213835784720976,4.535005732588868
65,-0.5032351641188358,0.5049114158707143,-2.6132645376848247,-0.3801013652344865,-1.7092295932795645,-1.537972755419648,-1.739233807921754,-3.458254313927922,-4.764531833394637,-4.268282166059722,-3.238951734658764,-1.1966317004595868,0.29642070229580814,-3.758113680855756
66,1.1352045210410224,-1.7880485722826658,0.21063263686593328,-0.6529695888705025,-2.5156152636498463,0.14026466242710325,-3.205160197462095,-0.6920732882304083,-1.5326732728324133,-4.218540203423706,-1.9419113919792255,-0.6832467526842334,-0.29897210371390964,-3.2623889634078367
67,-0.015780467555488092,-0.15508682427633505,2.278264681751357,0.776721018933728,2.8125726705050935,1.6315748017943053,2.5740278806580292,3.4111566416746335,5.274765281465922,5.5855923584963065,3.788462508009195,1.1764267626160856,-0.502921520114787,4.539321590037641
68,-1.142245980401034,1.7283536990070616,-0.8183105067617411,0.9523578931425543,2.1660620011425995,-0.6746839278286813,2.7329623763672974,-0.29591828417414867,-0.3932535604336781,2.8329805327681687,1.6505985004766193,0.1579136931247097,0.4100069533239632,1.4869227561868297
69,0.6547068241673164,0.1163383000754665,-1.4366566543591548,-1.1658531396387257,-3.594611025142801,-1.5348852806397315,-3.1112781325230223,-2.7640678747684264,-4.681317342523108,-5.912053432345122,-3.998424424900443,-0.7675818436699977,0.6923496999770307,-4.112540980394775
70,0.8678703902681147,-1.7597992135195193,0.8817836812911637,-1.1031670169886512,-1.4126045707769601,1.0812218908774454,-2.034396376131032,0.8289599577619363,1.8822671704065914,-1.3663912185346752,-1.1891845920581818,0.08210439771821623,-0.6026084946663179,0.037263908235588214
71,-1.2092852531705718,-0.15979586082035657,0.49320338970776273,1.5396261004000273,3.8620940342838876,1.3454018866212534,3.317774492801996,1.894241147083179,3.2980815521883398,5.29013064750774,3.8386945171114455,0.20141225884986425,-0.7938745434608404,2.7734058252961757
72,-0.3255729281921942,1.96697207683348,-0.34418130156174015,1.115733691891158,0.5408201150730128,-1.3240186184146918,1.314357459423188,-0.7553879515760766,-2.4730547479640315,0.3825098758978144,0.7741284264709772,0.08599938749803474,0.8898393210410561,-0.7877910808815204
73,1.4856923444118437,-0.004401970399706032,0.12833545624369427,-1.8918628620520241,-3.6051090551688136,-1.1747200513018035,-3.279894104033518,-1.265833241131336,-1.7128161083909288,-4.106816876402229,-3.422133649994673,0.20690542091983166,0.7161115831758452,-1.1159164177142853
74,-0.36714750793632966,-2.1780276791252535,-0.5578810107123183,-0.9732978656591831,0.17801650401745292,1.458074542612713,-0.6852509808066773,0.2517752408519637,2.0700247612661427,-0.19369062534385015,-0.5475369012323351,-0.5769065814733056,-1.2386659936498483,0.640309222927048
75,-1.3576309400567412,0.5121065672340345,-0.19615792367355941,2.1854541112695394,2.9719085836334234,1.078244178984778,3.114234309948423,1.1901036733729535,0.5505714036834147,2.9179166993755494,2.9428712339713115,-0.20612139482662417,-0.3747849097123889,-0.258760740502749
76,1.0216971751682966,2.087316488031261,1.443063642060974,0.6616427358689237,-0.5835067628698665,-1.5897885702628505,0.1682671084658342,0.2904359834719749,-0.967993607977145,0.7592745027051933,0.5240685916203711,1.1397839912906969,1.5563161211464354,0.17065076350761066
77,0.8058341195576648,-1.2290059382159757,-0.2367423135723329,-2.347132749780741,-2.1838537562454303,-1.0112874725837777,-2.8960886531767884,-1.674741722119579,-0.2216685952351816,-2.2117154390089073,-2.5773949275324544,-0.2749325801806608,-0.26359427185928996,0.9718154187008993
78,-1.4264087450259064,-1.4689064421907962,-1.9940825130378406,-0.20369011187845146,0.6579563601678894,1.7997920415287396,0.25490051313346546,-0.4822826439259447,-0.28116518264503754,-1.7373170794890387,-0.6067452223306664,-1.4774592432516016,-1.7031936917152997,-1.229106316424788
79,0.06296956590611126,1.8050179649415357,0.8984176111465612,2.292506946452264,1.439959958601536,0.8455059233551139,2.6433696667300954,2.4363996568962283,0.7572027666600256,2.217100746297467,2.4029697475687013,1.0980531805964802,1.1404406347694722,-0.9462137102221793
80,1.4082337137151826,0.3488850326306354,2.106657822492126,-0.3241802769204431,-0.49362801167979925,-2.072856031863651,-0.5898660525712998,0.13832552453434677,1.1084033920194265,2.6590727246576242,0.6581306738773401,1.3807635278239228,1.53910210092179,2.132637687035881
81,-1.0298945056833921,-1.867581221632218,-1.471155271252878,-1.9669346161240178,-0.8563309297795954,-0.44552652575869917,-2.3492115529411697,-3.059477387211656,-1.8054265000843785,-2.8406998205671354,-2.3777104793287727,-1.9827072739623006,-2.094733870684511,0.34697074133247585
82,-0.8952020455497817,0.9703911475411425,-1.9020671044070057,0.8053931802252386,0.22813271687554704,2.283546378689256,0.815274240162305,0.6421928569677926,-1.1724061500678484,-3.1375779932153876,-0.579929566535675,-0.8119160224379666,-0.986329452493879,-2.611941753579771
83,1.8184528633441712,1.237345009450122,1.7638959079662218,1.3799781604865125,0.4565231930738901,-0.23602298674215016,2.023753347516368,3.2080550335581024,2.794948643752741,3.751961781270224,2.385936645231833,2.6283230123459154,2.8999575809221363,0.5385822848508921
84,-0.04583935888858621,-2.0491202946588407,1.6121764923329793,-1.1212707737109675,0.012945051213544638,-2.255083234387715,-0.9077369781839204,-1.5456925116364788,0.49943139842018247,3.009243187273902,0.35396621771285175,-0.09573598496084786,0.07723140626209823,2.557353348180097
85,-2.1773425765775767,-0.03831493731217771,-1.7866006303976756,-0.6146445473571988,-0.19738248234941522,1.1046161164079231,-1.7070552749789747,-2.778108920574248,-3.191863298221074,-4.558673814178661,-2.311992801501379,-2.8279505690812647,-3.337336446276732,-1.401931117927856
86,1.217972911017247,2.5286700267385607,-1.4187226145833909,1.1970114749364196,-0.14562350714197111,1.861647682684887,0.8751988740094111,2.215155482365157,0.5461977286800369,-2.350100196492357,-0.028307219792665945,1.107456264712761,1.0411986146421792,-1.9965597818309326
87,1.9594690734787141,-1.3583353847957271,1.6959480242302096,-0.19605881941202022,0.0024846994812369482,-1.9493178326051337,1.4459802808560456,1.9195147138285606,2.729875578821259,4.973527079563355,2.094161263633991,2.5249298453467093,3.2720654407668164,1.9706325306389654
88,-2.3489512801863572,-2.3033928447700296,1.3473080758256017,-1.0335630392015973,0.1337500586289331,-1.113871560174943,-0.7649750954015199,-2.4232198906338405,-1.4425119385789678,1.3820283437304028,-0.33048136446680554,-1.981302579935621,-2.1498484077990128,1.0734886176571337
89,-1.164795298636022,2.518132508438632,-1.6598782651409814,0.9177980255772903,0.21435448779558713,2.538769915681169,-1.260377175468658,-0.9326203142590986,-1.5066107510638598,-4.890528987156655,-1.731394108854326,-1.801837340643933,-2.697797987991652,-2.0481976928518555
90,3.1668194355737382,1.5526201096083254,-1.275747484468603,0.7067101035337972,0.011439155894118008,0.17398846945684865,0.6380639935769461,2.1586575138716286,1.747724940213557,-0.3433104521569954,0.6791055797121361,2.539923040289855,3.025203113001092,-0.036375618673970406
91,-0.06451858031687245,-3.1462010957547637,1.7326216945086501,-1.466915883457653,-0.5335955175692492,-2.7351629522044436,1.1313479498249859,0.10887510506742742,-0.0890896646163084,4.355096706028125,1.2508742085351003,0.8257272656656015,1.7342201510534476,1.5675271076827137
92,-3.464498199071793,-0.6243625675213939,1.0438146141467233,-0.32808221121709874,-0.22822149596644103,0.7132360894768612,-0.5314060239575156,-1.5935755705336916,-1.278907705774254,-0.5951630911583443,-1.0025475170596694,-2.6953174421460497,-3.500138693571041,-0.7986000730824856
93,1.48222622079611,3.197145954688626,-1.8203241158757233,1.8366220032248373,1.009390441947896,2.559510145729255,-1.023528869637852,0.3942598433857885,1.566762781254009,-3.4792665172011525,-0.6708754249682806,0.21090606147833285,-0.5886515222600225,-0.6479155750260183
94,3.137620484484023,-0.1536099081287052,-0.5888359291629348,-0.015461464917005773,0.40403272079110286,-1.3376812897050165,0.43975996014614355,0.967031769956635,0.15627272730570582,1.3339807323147876,1.2812883005872997,2.433654655719901,3.4975385835548365,1.1391015616294673
95,-2.78498404734674,-2.839947189416244,1.7588174996089996,-2.076934139740313,-1.6363842556974597,-2.166808902631693,0.9242699294559429,-0.5846342344410992,-2.5376061613141294,2.3777926620314815,-0.004239278208222957,-1.1225949276372986,-0.49350054000512356,-0.39522491708274804
96,-2.20338346227961,0.6225809210758604,0.014248928970034928,0.3083161795766714,-0.39577915073890596,1.6204717873712498,-0.33346361499432303,-0.46203498475897736,1.2853763897555324,-1.8007662335669492,-1.4520303977060534,-1.7912321632275092,-3.0390257880330043,-0.8466817655938846
97,3.6573524448587245,2.3133835678027745,-1.4520776210844515,2.2347539180477014,2.314907633789989,1.7439595169493483,-0.8684711765686112,0.5745327249895598,2.8395117798426934,-1.167237140024569,0.7448062634135569,1.7332447023477546,1.2720876518857867,1.1341224322818086
98,0.8156519520405762,-0.8189139605460538,0.46142893730395423,-0.6027339753017376,0.08395659429260437,-1.6284285195520736,0.2019062054440514,0.1451475865863038,-2.653225465125745,1.9226247469914668,1.4061469464188714,0.8534508848516832,2.2438906644217176,0.03607693966174712
99,-3.8255269845023787,-1.7715107781658237,0.9757003134404383,-2.2919703671618104,-2.843204961832617,-1.3962672885074598,0.9263316685111025,-0.4824055403750333,-2.54893880741281,0.006800309803759632,-1.4393734447450794,-1.8744702019544153,-1.5513505702320163,-1.1968061834449149
100,0.7258259388024302,0.8748556492075629,-0.6500030128069025,0.9578392832145384,0.5490707215413567,1.4951531261355882,-0.09337640520442124,0.010442478889946722,3.6407292107858917,-1.658658005053524,-1.0498212118581167,0.21768816923882298,-1.3247231720535284,0.932002505132473
101,3.1345919667379127,1.2192894119053939,-0.5659132281160153,2.15091338310873,2.9654563005697607,1.101709069628095,-1.1543339699954247,0.36537524144275363,1.904559867830077,0.8826413305123044,1.8745699512110614,1.4151533176536035,1.2264707233347663,0.44428240815515335
102,-1.9999352988569932,-0.8731161284783411,0.5402742277691114,-1.3563144959361522,-1.3549185457561692,-1.3039525624130854,0.11992711491148876,-0.05287251962249481,-4.10877677721947,1.0751030877773884,0.40353494403330953,-1.158951503484868,0.5660686444282635,-1.5871294813372208
103,-1.6396124414111393,-0.5734640384139863,0.4870249894697065,-1.6915253880204244,-2.478621274072325,-0.7674496315257731,1.5343472092846848,-0.21930908458455994,-1.1956760179949808,-1.2720003759047864,-1.794910693268171,-0.3335192524104694,-0.33620677139730765,0.9431945616154519
104,2.554597070191498,0.7623078862035712,-0.34285696540808264,1.6602030180122196,2.0197660269444695,1.0211589495690812,-0.412159318505086,-0.009014905052425819,4.095738364292281,-0.39563642947263994,0.32395656721142235,1.6324826535870562,-0.2649455873137584,1.5564617151011064
105,-0.33507863633907903,-0.20399886626442404,-0.8540438130163842,0.8743369076321165,1.3596628438984844,0.34608380051143084,-1.9398666755887908,0.03212193346507999,0.6608108174899678,1.0415578824746146,1.0375262614571672,-1.2007865595772371,-0.9047346075885428,-2.528568436136222
106,-2.062544469574107,-0.3941586400522186,0.39060744339149883,-1.6508306890301712,-2.1588898515793935,-0.5351244582573398,1.0383505428943536,0.21199521575588856,-3.7741509032529654,-0.038383468804405046,-0.7567259015520188,-1.3291058594703844,0.6322112448497688,-0.7343046483258113
107,2.2277662580398325,1.0024492975470483,1.524364081175536,0.17691081684527807,0.15554074160632378,0.08117195750562957,2.161822285042139,0.15885207852153682,-0.4200224649198392,-0.29357786649074874,0.32268147606963615,2.7975434936126065,2.1306223853970865,3.8020993262690816
108,0.4889589880461334,-0.34442739235755454,-0.9453118865800585,1.1443238757325402,1.483928576424602,-0.22517110550196112,-1.9313639582026088,-0.5913289729551194,3.3755865354341386,-0.09280253535764674,0.4925173994312169,0.12122098910924752,-1.6892162951898464,-0.6766927064183865
109,-3.390777208282639,-1.5691862475035825,-2.134510973249315,-1.176668092515267,-1.6031009276442758,-0.32600904520296803,-1.995727016160842,-0.25202324851522406,0.4503613012411312,-0.6248940972526061,-1.9113000063997205,-3.9215431823924636,-2.923071919476915,-4.3896919622817006
110,1.8166737126449612,1.3980761264211716,2.0235057093797804,-0.12007056813663428,0.029145590955161498,1.183754043695059,2.8742049556256717,1.1182013181390689,-3.1029389689706206,0.9099205890965167,0.6849012084056907,1.8092117977485418,3.2148656774657036,2.2669598528978088
111,3.3247730193964524,1.6296216634932945,2.26990217686784,1.7793834190410647,2.444953194993051,0.21102308775102915,1.3506774620389657,0.12293121909003513,-0.6099371432780284,1.2310395595340158,3.1432542726143717,4.0724402409742035,2.9568429606181876,4.180437959066201
112,-4.175820523436632,-2.502836857268959,-3.3446535231627994,-1.2167284248389696,-2.0609618075438343,-2.1100093104450606,-3.5677954087244563,-1.667898546066114,3.0540162183762476,-2.218571700374829,-2.628800137918378,-3.9506965814649813,-4.784054588160236,-3.598051096144425
113,-1.9005045776657954,-1.048666408232501,-1.6771256422206107,-1.736925484497826,-2.293494091129065,0.2996798322818345,-0.3175057243972859,0.3019281222498337,0.7083487243917881,-1.1143396650378554,-3.4545990264001576,-3.0045434781933658,-2.133706564977691,-3.3257300034437662
114,5.789369783305913,3.272836548470443,4.4338786270544315,2.484483691981365,4.017792224512579,2.7226119283255485,3.754400175790614,2.044270584500883,-3.186536036260368,3.5344466784790383,4.801060481755003,5.592669952202738,5.896493048420587,4.361597052443071
115,-0.5389962120354972,-0.06416328730080618,0.407498493629716,1.0309609484834603,1.1088365158715074,-1.0517813037688355,-0.8492888083272991,-0.9817145015463113,-0.6015900543951177,0.1489512795423159,2.5836526014392236,0.8850162513863756,0.6437181832421398,2.1387626949357834
116,-6.0267166724187184,-3.3691842050318646,-4.8276760235593725,-3.2722743868593267,-5.241826070782463,-2.8356898518713307,-3.3313932167780913,-2.0533655007612253,3.346227452770741,-4.262467063790854,-6.445786020084897,-6.07682555377635,-6.151038182981402,-4.455568729102062
117,3.256408146965914,1.3676777442205648,1.1781148787247417,0.09107232743043604,0.7310750244369373,1.7674745339116793,1.8302176443482518,1.7454064064699386,0.2692985358930725,1.39991701653623,-0.7577340036309981,1.6985446128444635,1.0774017973738903,-0.9645078747482115
118,4.676522159434017,2.6609768139086927,4.283000051955488,3.3176644835987688,5.284625826511257,2.45109924776274,2.3933049232753283,1.5929182113773297,-3.351385686080335,3.9618934129679886,6.914682929111586,5.07262766384202,5.398517169236439,3.9733167351314185
119,-5.359364154442066,-2.4140419395859025,-2.54282200584526,-1.2010479336885649,-2.5402198493260486,-2.179335174180183,-2.3652814723807984,-2.3372594796143615,0.168071578599781,-2.9454788502731537,-1.3366598596552122,-3.9103677562323993,-2.4845280395328064,0.07837585656103736
120,-2.0519981191904537,-1.2977600531161608,-2.895957209658164,-2.630799622593903,-4.123360423531735,-1.7450451961770685,-1.1850331077019827,-0.7153266308795563,3.09454355588658,-2.575777694669259,-5.996910014722298,-2.7542172414550645,-3.8132979138198855,-3.141112047993498
121,6.110886786848257,2.8230082493424806,3.1846101568831435,1.8623328514521749,3.5875289134414845,2.1438257554405244,2.3381265436532246,2.508633156508353,-0.5067646641308444,3.8133642789124886,2.8248328771456483,4.96605761347113,3.1072851101074086,0.36732467951552006
122,-1.0951683683037545,-0.33622173707974334,1.0822397346352022,1.5042002999014563,2.2101122535435045,0.9724319200498054,0.002507016464755025,-0.36804673621673256,-2.6082058991609065,0.5057413205596798,4.074896631183917,-0.21227749173227922,1.8534001371016502,2.242466688480716
123,-5.191683926831698,-2.4253185798692067,-2.836137284089591,-1.8130473753477498,-3.40802009150486,-1.6743486689807983,-1.787040118849496,-2.1192403094108094,0.5653097289708585,-3.5430615870555844,-3.0479237999444324,-4.441578389629048,-2.7177141008988235,-0.35884580411514294
124,3.8205310727060207,1.757956486138046,0.569796895339742,-0.39988576369329365,-0.3116807885358682,-0.3595406024166364,0.900055739315379,1.3485539918124005,2.0576040931910287,1.5220453908661098,-1.9958745564554878,2.8837412100000335,-0.1181190547994196,-1.5476848356731112
125,2.8170198048766353,1.319724301548804,1.574364682431752,1.0780426446566473,2.0195409307782097,0.8979228388898198,0.859809778172441,1.2044491212039394,-0.2833456176590045,2.1143525950658524,1.898785738737963,2.459091458861959,1.4202866941450154,0.011424461074847536
126,-5.301737582264773,-2.5503191959400606,-1.514251997051826,-0.23869066784356457,-0.8041141207048306,0.044843575865256655,-1.3577859156854344,-1.9263537074243187,-1.661178488634266,-2.752595617927632,0.6946392758180335,-4.380736539372713,-0.8513067597897455,1.2515433907883076
127,0.3315246984119557,0.16757559266512173,0.201362133505687,0.04115623435952097,0.06605944697615547,0.013377182742988974,0.2430487637137798,0.022410796831362906,-0.23881020359893526,0.01830270154551375,0.09875145081497878,0.3367225406781804,0.3722505238929158,0.4631180078580636
