,AF3,F7,F3,FC5,T7,P7,O1,O2,P8,T8,FC6,F4,F8,AF4
0,0.031629994177177496,0.054815419383351285,-0.017267010107388188,-0.05626794253388058,0.0308554913715618,-0.014681407767188024,-0.041927331664577724,-0.05194854560122052,-0.011289647215550404,-0.030975966496713657,-0.053306546334277914,-0.09823696886602007,-0.07729708813862038,-0.08584198980687255
1,2.00444669724878,6.376465619756354,0.11012179094334831,2.0063823159681933,0.6949791127089477,3.320219616642715,1.189890621786125,1.2192854235717572,1.8448299942909976,-0.47841340130541593,1.9618648102516658,1.7790483464627505,5.388501757614011,-1.6763989589437156
2,-0.20250473151782225,-1.331555388480824,0.7128085238985651,-0.07588785437899173,0.10656046266497997,-0.20430252716270966,-0.08855483095461773,-0.2560499569695237,0.11375671647533306,1.4159399326291573,1.3706738158984886,0.4554028636128988,0.0598995802839825,1.7140523676146684
3,-1.8091837246256346,-5.855399668114478,-0.25903107024862165,-2.0119838853030574,-0.5885076435122824,-2.9393852993011462,-0.9750665028328437,-0.9285953034776007,-1.6514614035149704,0.09852051021159075,-2.4216259991524725,-1.7239755715908205,-5.146057556845671,1.115272432253806
4,0.2678100818494295,2.4170807991098076,-1.3496687981100146,0.30272709995131547,-0.28447212525514826,0.2194391584610389,0.09925379188017495,0.3969495724393314,-0.3177018665725398,-2.567961029983522,-2.374409938513604,-0.841395309961297,-0.1535071868948618,-3.04760297191338
5,1.5308891300401517,4.925301136379006,0.5625982237173789,1.9128184785784956,0.4254103152489965,2.2913772799970604,0.6163095954138597,0.4856474290375368,1.4101536537356067,0.5930542224559857,3.1532182713057,1.6738460340623744,4.756994175547443,-0.1502443949042216
6,-0.2074384334614838,-3.1747673482404557,1.855057927390823,-0.6101508535051067,0.5163021220438649,0.11466848270676913,0.09513241240982731,-0.2734163405245361,0.608142724388013,3.288933281766719,2.890899004886058,1.260675660021084,0.4185258450859034,3.902350707905168
7,-1.294586129192232,-3.7421093037823145,-1.0136118087449593,-1.6311212916240134,-0.2623487903914194,-1.609347810227492,-0.26099462474755264,-0.10516701672314531,-1.2596613449225682,-1.4057609315010977,-3.8895980341436607,-1.7267980833968564,-4.401054856933894,-0.9895449726116887
8,0.09794731725330973,3.5269793439153707,-2.1431912171107235,0.8867543061209552,-0.7931213346618526,-0.8151836161900007,-0.4894922826703172,-0.07275280827686599,-0.8447301269270802,-3.4869675097238697,-2.9308425628213346,-1.649536072666619,-0.794052523873011,-4.235414076504127
9,1.1721075115798851,2.5003124855398626,1.5699664419496884,1.18667838844663,0.16760424168291013,1.1625239623055221,0.06647132516711524,-0.005068724460564281,1.2341815233952471,2.1132247478701194,4.416318363398366,1.9625331909541133,4.235924392296416,2.089016428242912
10,-0.06795118279020368,-3.4697552985072564,2.1382533244919864,-1.0011298888958156,1.071993634943183,1.740155334545712,0.9795533157740826,0.45809162194671127,0.8540096831414492,3.2016377640655254,2.63768394238279,1.8856748961129415,1.118486272069582,4.125933828627496
11,-1.1330348611735692,-1.3997401104629663,-2.1492976451946366,-0.720365288597576,-0.19630406625437227,-1.1604577975500552,-0.13568813358103168,-0.2551925903948085,-1.2215295433114028,-2.5233051954201766,-4.653794880026536,-2.3923839934500255,-4.323488257033304,-3.0231954983816003
12,0.21311031726782845,3.0753900232605935,-1.8040696021214109,0.9076153348396722,-1.2782783684659713,-2.6121355379071978,-1.3939621419772834,-0.621252831837548,-0.5637031217315692,-2.589337481770189,-2.177893586304903,-1.8309384113455076,-1.1987406563749896,-3.7012004013749604
13,1.0631400634328438,0.6060629655827838,2.6444036668806126,0.42543931932853973,0.35908805541166955,1.658224418402581,0.46921303060174,0.8131193722898112,1.037148578606662,2.540937719851839,4.645823909413133,2.9368187633654292,4.60425729833414,3.7739669778883895
14,-0.5259937944977416,-2.4773482802780027,1.1638732762473036,-0.7009928058783317,1.3328739257262396,3.1059793708701124,1.5582666641689171,0.3366335025170242,0.07840684636342973,1.8701907431813862,1.6504501819124837,1.3904532651905037,0.8906578331956045,3.052605189778261
15,-0.8386550665806478,-0.21667522643601353,-2.9521601126411467,-0.4305446647291026,-0.6074661756552937,-2.507714337818577,-0.9568241830545008,-1.4315172880660803,-0.5677108683789757,-2.2022990822217525,-4.47774274951195,-3.4456040846546463,-4.924996650080278,-4.3792189643162285
16,0.8857918030358652,1.8398772410696786,-0.3000444311614047,0.579012516836693,-1.1939638625041424,-2.9775411219919263,-1.3648784324938363,0.46983587780246433,0.36788442079134437,-1.2494111578020748,-1.0697222657591188,-0.5575720119931776,-0.152603680162101,-2.1937373963897353
17,0.409919380976362,0.24349717308821286,3.0020059698668073,0.7107015298246969,0.8532073704408989,3.39088058373152,1.4145551634401283,1.8007288316681886,-0.11859288755685864,1.6637779448731858,4.191490523182882,3.7517789417329404,5.097277726786416,4.848151098365327
18,-1.1143140327410772,-1.3223184238427323,-0.6648401162358362,-0.7344744102221065,0.8848277037279826,2.179280316209375,0.8192026423960007,-1.6627782250164056,-0.5599878060389678,0.8375361998023159,0.4183149259558822,-0.5800679465292907,-0.9439883436788715,1.0883585793088515
19,0.1545253130202565,-0.6166794817409695,-2.773183012542061,-1.0819889174524233,-1.014620536107035,-3.9353276065979346,-1.6523915078625768,-1.678338834082026,0.7805784595695391,-1.141226697716322,-3.757911236190178,-3.729261671679152,-4.956952123532343,-5.101240139609086
20,1.0660697546362086,1.049098101385562,1.5967633449480583,1.2408966791111309,-0.4837326707822493,-0.903033850596881,-0.04321802675766925,2.936128804020725,0.4526794974494223,-0.6025451119153237,0.28156412629786237,1.8730506361381267,2.237888264185348,0.26910554928399516
21,-0.6858511131363664,1.2044545104662987,2.2972936823135703,1.2842907058348092,1.0595097942891347,3.867995054292676,1.5459224600115429,1.0089665410209994,-1.1359217358766442,0.8151820375819421,3.1190495043722026,3.323927028088695,4.407184814417936,4.981210338072313
22,-0.7055750805015657,-1.0909585471604188,-2.3796332832611427,-1.9964157558034297,0.0783177226091517,-0.48105121072293877,-0.7648522493089912,-3.9389643748850154,-0.21982980372472827,0.3831204109455944,-0.9362217555750296,-3.1564198888134576,-3.5167608158093784,-1.775391069038315
23,0.9838718077093401,-1.8403797762472638,-1.6475567810771097,-1.1082658882526162,-1.0132679638187276,-3.1350788341720035,-1.084680298354668,0.04105194383594561,1.035093191188717,-0.7395999827559134,-2.2621467586047816,-2.550097766641673,-3.443578564313528,-4.336178781478354
24,0.1372151348261358,1.4565996333655136,2.9387939825452145,2.756936378686274,0.28530011752042755,1.5690566581507541,1.4008061808272088,4.429455916938454,0.16356790643137192,0.030970276422183106,1.4122407320322423,4.281456163017493,4.561564268791859,3.200530709128717
25,-0.9053808957280114,2.3512179120997905,0.9176829121672446,0.5010588450540586,0.9242240320731727,1.9262811235975337,0.3771562844851383,-1.1584260590648048,-0.5668066201615075,0.8005224325751785,1.2676202823418001,1.4695044726949873,2.1629442180428504,3.126737946598942
26,0.4233399063186046,-2.0910879288369597,-3.2531019726900987,-3.2430094446326736,-0.6217062817552987,-2.0852466841602992,-1.7293832743465398,-4.377678808078712,-0.5376260387202522,-0.781051091396158,-1.609433987191634,-5.1240920488461565,-5.196429497197578,-4.252145404294589
27,0.43660759444379743,-2.5836863271052035,-0.19539744111039334,0.4029435169221469,-0.8103162308144417,-0.588380880335584,0.3933893548325461,2.0325092183164943,0.02896615425172227,-0.7549524964521054,-0.2947928114306666,-0.1765658344689196,-0.7493801413461879,-1.4895990441020894
28,-0.726748631680483,2.8789659566747106,3.350457692685471,3.267596630188373,0.9770051953944432,1.9834114829920455,1.7326178092310212,3.9615307943115905,1.3916832910287678,1.8407435535913768,1.524779692883867,5.584258286204948,5.339031611931583,4.691404870941782
29,0.279310147269701,2.4319484679779815,-0.46053137059877974,-1.3421390027022613,0.6277607029273861,-0.5289432841298711,-1.0473009694315931,-2.5016760946290684,0.21734369910397688,0.34213504632953007,-0.487215170010484,-1.2017425875589258,-0.5711236208639592,-0.28471977353762823
30,0.5920272280154307,-3.6544626456782687,-3.2867209025504347,-2.820664413844233,-1.3683939264418903,-1.4403215235013886,-1.5061297836519811,-3.4568838640209525,-2.5256694744547676,-2.9907167613783283,-1.263884641356913,-5.596530359938807,-5.032263778716393,-4.437192816768906
31,-0.9773644259705824,-1.866672939844151,1.029484641186125,2.048408841882586,-0.29051708516445324,1.2180620253258363,1.4855793070026104,2.6176492607175463,0.07311439702839023,0.5808788948365302,0.9805156293126438,2.504970519310029,1.6026017007467117,1.8514461807393272
32,0.004462115507033081,4.225474214237761,3.116939859392349,2.0676019607935485,1.73416494727916,0.7498021612035927,1.2002255368091805,3.0817855581963127,3.5741912348072264,3.8881749961936514,0.9906697443558469,5.156703964137022,4.433311460357409,3.602570194893135
33,1.3658796293034825,0.9597836509850604,-1.5195800552640786,-2.3668577201951497,-0.2643384512149355,-1.4806109990304646,-1.7243067495381952,-2.593540033477581,-0.9133734887429468,-1.9456252824478684,-1.202390800064188,-3.5578283448518695,-2.2509014012084463,-2.9367707758268717
34,-0.8953138761598171,-4.416979875217002,-2.8732313962368483,-1.2625575436871772,-1.9339702824921485,-0.17418330427909445,-0.9339005308174567,-2.8801507551265426,-4.168987996234089,-4.204562969001655,-0.8441580709074425,-4.346222035943595,-3.752214774753036,-2.4474353288194983
35,-1.2508663356411716,0.10999520888765325,1.9454757059114176,2.3129154885598657,1.0039305497434605,1.4906409718949087,1.8639752751016208,2.6660235378920962,2.0841832166608545,3.4702157001810967,1.2673420227400771,4.214358376098108,2.558372720151938,3.4283400932620163
36,1.7709263040681371,4.129309730722367,2.55978362072561,0.6229292682646373,1.8099283766859797,-0.17380704917643536,0.7300786024054738,2.7073858839767273,4.092206684705713,3.768883151229603,0.8696539707116746,3.327980696598579,3.1603713364470964,1.2748936441332654
37,0.6342827116133862,-1.0882567922715876,-2.3070387214726678,-2.0383451162061883,-1.7689994208444126,-1.4779495287371285,-2.0083091107518896,-2.94882103355019,-3.238624908567929,-4.755061396462533,-1.319497730371716,-4.409502369568876,-2.676895871946159,-3.3953486606637067
38,-2.3013422629352194,-3.390401161690729,-2.16496857334811,-0.23305393279168599,-1.279735110232576,0.36422328880755106,-0.5129624283717734,-2.323354145079874,-3.348661300290627,-2.6494862442560585,-1.001124724491181,-2.3021774388832457,-2.7111647562290546,-0.3208201932800185
39,0.2675802406445107,1.717374125687884,2.580704216327684,1.7278721448083654,2.3137115379751574,1.5915926775896592,2.180340119644584,3.357139296982796,4.049045316631548,5.434909226155216,1.4540022085062472,4.186487618716448,2.784050823281512,3.038941229934024
40,2.2800159966272173,2.371073030523824,1.6813235975070742,0.02959708642932841,0.4090016792787766,-0.5847661494836425,0.17364164559458573,1.54074500016631,2.135661878077234,1.136532711575705,1.101681942353526,1.4386440577318154,2.3157892669573354,-0.31963648185775617
41,-1.1040119670276303,-1.829203682187701,-2.725857652985419,-1.487955276641286,-2.4032644598168993,-1.812353600031367,-2.2900686297347694,-3.642168207086465,-4.322154194075294,-5.3188881168603865,-1.6680761516831089,-3.678099120125473,-2.9779137530797204,-2.599744063672476
42,-1.7196915419925372,-1.3416786833715715,-1.1220859691597729,0.12589095767755712,0.5818937346543371,1.0108131207574556,0.33295670932709476,-0.3497370349701143,-0.7425864620177732,0.3654705112544199,-1.0389505485814445,-0.8210911502079821,-1.7952385184724364,0.7063009490010528
43,1.535080998026721,1.415549142399347,2.7001205769541787,1.2944556529203315,1.922027714735639,1.9616809224383174,2.180951365420526,3.516402617296841,4.037016189754445,4.457796062163186,1.8637973021091192,3.04783571039193,3.2031916966186658,2.258756339059612
44,0.8512054960286557,0.5780097435444445,0.5277580743132185,-0.3343360405624401,-1.3859396758225955,-1.6786705391382803,-0.9213391003901986,-1.0456889205200475,-0.5600755060371502,-1.4850966072231355,0.757424023237937,0.4342124909105702,0.9927647911796328,-1.0086098988667058
45,-1.3738462991256861,-0.6364401939394766,-2.475741781387727,-1.0303653845908984,-0.9380716920585487,-1.8080642203566755,-1.7349460044894638,-2.805509398207062,-3.3086528110330544,-3.114702989404521,-1.8989959226140611,-2.423502632212007,-3.255219732099305,-2.0660859056933774
46,-0.02592926683051289,-0.25653833186141045,0.03740480802513071,0.5786846831339482,1.7223761277679195,2.434296984893168,1.3886002076357344,2.2984895312100466,1.591949597703267,2.007534201982647,-0.31438909642153795,-0.19893458415077084,0.1048281314758053,1.4172331997300371
47,0.6600705338263823,-0.24405304158700605,2.052383029775746,0.5877915245043182,-0.3069689986000006,1.2176336637431744,0.9749911227983241,1.5511739473954054,2.315669892558856,1.6598170185489034,1.6620521191055624,1.860642267403377,2.875603986740121,1.9238210115107117
48,-0.4292289757007614,0.3902163002693721,-0.49586766562492746,-0.72751888342673,-1.4432971819363172,-2.9946033045921108,-1.511767099890389,-3.0620573498987538,-2.2783291425648455,-1.9279812017268807,-0.13636948982285788,0.0315513635054001,-1.3049184463863617,-2.0431434397692465
49,0.36290370205490047,0.965628562108948,-1.4645734881926065,0.0332770289170982,1.476920472066835,-0.2638013239368222,-0.09671357637108839,-0.01498608688168888,-1.2346862436772958,-0.4395278994328172,-1.1369140005197866,-1.3520754320924542,-1.9037908536241266,-1.633733643841267
50,0.3371280726099258,-0.8363043034975292,0.7713394219822469,0.620231313666174,0.5895636137761242,3.0960625434184945,1.1795905803050406,3.1381783867833564,2.6268473585802528,1.4246203259169732,0.40666062156743277,0.11019969861325724,2.254677892157405,2.843614471266232
51,-1.3491273122000251,-1.3709917785854278,0.7832360899031434,-0.6944183982366163,-2.2537239095918693,-0.774041447622672,-0.6025778150449121,-1.4179786573550934,0.2032960051151612,-0.3287852321949856,0.42859774091677805,0.8689765717404175,0.40805521405690404,0.9971436341515065
52,0.27338188012637954,1.369573304310058,-0.8054961462137141,-0.17881888470496848,0.6226679073430981,-2.649801878770278,-0.4799667934114866,-2.5613407299382636,-2.6926395168322297,-0.7738264789947736,-0.3561413968077302,-0.2181853809208314,-2.5903547089714176,-3.6108946277302842
53,1.9790744524322557,1.450822451482136,-0.11097883499909772,1.1766282460260704,2.4387897479570873,1.5322927025177049,0.8679970048199557,2.390332654111926,0.6907381415356749,0.6042024403249546,0.2640986926572688,-0.4017302471443469,1.2836439379252098,0.06991503144042913
54,-1.1923373249659737,-1.7816451121680568,0.5755956056030094,-0.5240147432107647,-1.874043453085075,1.811058158019911,-0.3177069915128323,1.583295804101228,2.5487913772134565,0.24587983813815645,-0.04002568556975836,0.258848739062867,2.1243343980068885,4.038359347566799
55,-2.0646663956315976,-1.3195064602459672,-0.42948658738485745,-1.2911626392375786,-2.0083169665107925,-1.742768087242776,-0.6251346832013162,-2.71008273710452,-1.4056801285705725,-0.5059242885581944,-0.7192404818481399,-0.024141189626687085,-2.687708729680394,-1.4561734821554881
56,2.1127515062310733,1.9582345192395,-0.11141037219762585,1.2809373486900821,2.8416683919561256,-0.9166330859184145,0.8866346805444855,-0.5681735255314493,-2.2649128150665168,-0.017783772848865072,0.6672302186031569,-0.2090129630379117,-0.9718042116623266,-3.846952379852008
57,1.5980687956390618,1.142483041174042,0.7160036015079888,0.9783326743071656,1.1097543478464116,1.3694518520152603,0.02879346453370267,2.416483443271303,1.9344088504860022,0.24785541689611906,0.7781582089749111,0.3604261521363521,3.3669379629924023,2.8525114178059443
58,-2.7357049916115876,-1.9030236156127998,-0.49269500779626807,-1.8388747341186096,-3.2906107034946577,0.3212193748109773,-1.0083720186992995,-0.15307600321908876,1.8933962676780747,0.12865409935309016,-1.3022827755438706,0.0795779870537721,-0.45952666546304893,2.9247866406797582
59,-0.7384695465168308,-1.056819132447248,-0.6594099042331055,-0.34096201329821796,-0.009098415426391506,-0.6240843318294713,0.6125369688848652,-1.7499732425046586,-2.2873161275449303,-0.051069148639473774,-0.41450669431747156,-0.5637611268636129,-3.1356102052612314,-3.8433862441512106
60,2.8601851394725495,1.7076647920052666,1.0802487151015854,2.0097836950438115,3.1315657660561778,-0.22365725990612303,0.6848900767759135,0.4057279686946702,-1.4671497131815996,-0.48800515223453306,1.6892806245493637,0.08214789527372193,1.6259296656305013,-1.417764089347548
61,-0.24866872933852177,1.122340317592718,0.24440911333777326,-0.40056569829119093,-0.9879897048920423,-0.14730115101170857,-0.9973836003623385,1.0438345851534048,2.4743897652005464,0.06537663904999326,-0.24035889987186498,0.6219681696366606,2.162665780231075,4.0681190614924025
62,-2.434291516632828,-1.4934309867755062,-1.4624441646303274,-1.746083800227543,-2.4356313570173294,0.5791595385914619,-0.12976490585570793,-0.22224359034050617,1.011573959624149,0.9295368492145131,-1.635654200256863,-0.20875928456258253,-2.083352925550523,-0.2815725469759976
63,1.0756829741221732,-1.317167534659625,0.4379542276329624,1.003037875793995,1.617829086787357,0.6408978642851996,0.9847771330300913,-0.5866501462741023,-2.496573239226797,-0.3266802969955221,0.9290440343062264,-0.5680257016962157,-0.9133305647122572,-3.3886356615829376
64,1.5598743411937495,1.3573687121498441,1.4788386999765848,1.1482833803223031,1.410006475503849,-1.1414843444621305,-0.35629511786911894,-0.19491489512378313,-0.5634555439477175,-1.2862934660176966,1.095994902775374,0.2405696624664393,1.6911099227325743,1.6624809362860593
65,-1.5150155297294992,1.5662464484414895,-1.1931257671978637,-1.2950829785104645,-1.7267176976624985,-0.7367536005462871,-0.6517478090432202,0.5135518047614163,2.3530424500651135,0.7624146672970679,-1.3543292035769907,0.4750146682689899,-0.052896934829457884,1.981958806010765
66,-0.4552958200774699,-1.3436261612315452,-1.0697327350658974,-0.40990164631894094,-0.3426458403388187,1.60448791653608,0.549754901280423,0.5771013151081449,0.18148891894121283,1.4553809016610493,-0.2091666000430374,-0.15466425168359071,-0.6824144123983104,-2.300612977936971
67,1.4593079953737915,-1.7799639857285867,1.7789595359195505,1.2286618188687515,1.3138319885272454,0.5334505536073727,0.22614412905822026,-0.7683506453209195,-2.058846551517894,-1.2371492435531901,1.2972939132265182,-0.4297394481548183,0.33867916634327994,-0.2962216633892422
68,-0.6108864920153384,1.441168814327669,0.31977324102382515,-0.26588364182797153,-0.47571515071291803,-1.7610542373076001,-0.4109659090587232,-0.7129653631139112,0.06113129650211752,-1.4277200572055897,-0.7386791373122743,-0.020351756151271456,-0.44033726155829866,2.0468528956020715
69,-0.9462055462636522,1.885057186120688,-2.0011833065478943,-0.8716781710570474,-0.537105895526245,-0.26694354928518893,0.056939200249042525,1.1468713201649416,1.6590902461814425,1.6142082502440915,-0.7221087269729534,0.4931228709214721,0.10101909269167167,-1.1295773513628002
70,1.3980191755698779,-1.5971993261998667,0.5641029083721355,0.7356944623695917,0.8383697769610273,1.5953561969139651,0.07690101739685984,0.5403548270213556,-0.09700677789189924,1.276898336107675,1.4273609448437852,0.2181176910316054,1.145602708274605,-1.0981201517568244
71,0.14246127171039316,-1.8426852272838503,1.8008758583524087,0.35729490984129963,-0.32852633894064737,0.16615363657900617,-0.08448771198128002,-1.3993272683571827,-1.2309822696148036,-1.8059783497572226,-0.18897939126230281,-0.6693334428189194,-0.9321859679868852,1.9043318434255678
72,-1.763607378917564,1.7364028053166023,-1.3417516571160997,-0.9441206215454584,-0.6931112224755416,-1.2664722634496093,0.2429927062452737,-0.17103284622146803,-0.11431359173514714,-1.1195803812105691,-1.6519118948810227,-0.37440626538470634,-1.1385598264541206,-0.10176759820871494
73,0.7104619561030002,1.656965859237202,-1.2793215011770982,0.17651629499783536,0.9784049477395284,-0.32597063151513556,-0.09215856049818677,1.3487288292962396,0.876441826438667,1.7959356664418245,1.106914199131299,0.9077006759728428,1.6032665271261963,-1.9574365428143425
74,1.7055885698269635,-1.7830771389151239,1.8513400831389701,0.9096839402672884,0.16506084928267759,1.0005670270735123,-0.395054720418272,-0.16054300345614644,0.5692232032449651,1.0685207391246687,1.4310879532548961,0.4677964334936428,0.5201365803954888,1.0896718721583731
75,-1.3775214153747868,-1.3762505886141752,0.6383884185400811,-0.6269780744051509,-1.1857089454612049,0.6630465315774391,0.31427114752208485,-0.9777513474438279,-0.7099254012561297,-1.6312996594727263,-1.7143772495152114,-1.141234890911455,-1.626763039946893,1.5441177742418444
76,-1.3596715852582384,1.6864457399635062,-2.0778647420119047,-0.6895668118432648,0.4873168001209118,-0.9544998167104328,0.3563876565207127,0.2048707661691726,-1.203758365066254,-1.1965788614085222,-1.002833759236362,-0.5292377542177392,0.25135434622397274,-1.6161278695841734
77,1.714421000971544,1.0835666076686028,-0.06793728439167844,0.9351879781801667,0.8857590938161047,-0.9727657551657753,-0.42387703720075515,0.44727828716225404,0.8365475171210112,1.3974237437738548,1.8708261017156256,1.3356824279880075,0.8432974647897823,-1.0741349599509473
78,0.9452574373984024,-1.4449286722075074,2.136776876830922,0.3493797287005088,-0.9721564805251733,1.1251515764872755,-0.22163507411187844,0.18052962903781888,1.8813117607237402,1.5207099285930834,0.6932837250720006,0.6103860614600718,-0.5902601537280594,1.7488718612610006
79,-1.7230153017951508,-0.8714194935596621,-0.35295960062657894,-1.074044184845937,-0.1972379552123834,1.0517882171186443,0.3515994484547262,-0.033765475031072995,-1.3118266181510936,-1.189056850909431,-1.683846435776216,-1.5117602494394538,0.47262958684140116,0.861394981237911
80,-0.6725959762145941,1.1177220961348222,-2.1839735098148574,0.047591125554383475,1.0785939325177603,-1.351795442027066,0.12406003988755789,-0.9471611924986733,-2.4031298362058977,-2.004064121356701,-0.7281490488525736,-0.7344315816935201,0.0948710138231012,-1.7856408632301604
81,1.5490396562336564,0.8043645321836824,0.6834703144851687,1.0360691780970448,-0.6309390975566648,-0.8168166365223931,-0.13523240823729077,0.0056910037458563325,2.0911832362611142,1.0892818903760415,1.4364516529193812,1.7242085776784775,-1.7300672269552435,-0.9431002137455616
82,0.6457537936606198,-0.8112696702076766,2.308569822331637,-0.43617566347738,-0.7543594560001664,1.4074064576242227,-0.14975704737757614,1.8532044015860538,2.561112404293931,2.567102099853706,1.1008910912216312,0.8677499922570663,1.2227044607645186,2.030608795410325
83,-1.4137534292977896,-0.8849995267048512,-1.0658481905175952,-0.835368185329957,1.3213830622924998,0.35439240253735116,-0.13019124158570317,-0.491053237043699,-3.002531174963526,-1.1572134171615371,-1.4118886257444534,-2.0162506986984248,2.307847093470829,1.075850030859748
84,-0.8075591159660479,0.6390955890829082,-2.4715097104276293,0.7472701522061089,0.1144602687600683,-1.1262393447220855,0.29959289648761267,-2.5538275250201834,-2.2252208436336387,-3.0993764036489355,-1.5804311991785822,-0.9320733914574035,-2.912960184146578,-2.5720176340601584
85,1.5031513694294596,1.0436781932670054,1.62536909553465,0.5207453021635299,-1.6708270211382132,0.12365752150867769,0.3664593700141855,1.4004492736492826,3.778409118999363,1.4173757412771966,1.7256210585941916,2.384536551004731,-1.8614109374967132,-0.908232696601689
86,0.9612671517591994,-0.6701149785939078,2.520652599186726,-0.9225786747344125,0.6152514862528721,0.49654843984548697,-0.5147264754148142,2.749090664913453,1.4217074470704463,3.472200245481327,1.8502857207825754,0.8437611258335886,4.285730593579078,3.1964632035029634
87,-1.8662305472859222,-1.162783730083898,-2.382886521304181,-0.18199128858005845,1.6112054140736363,-0.3916094398152505,-0.5563376894090684,-2.449591711545156,-4.151155765070861,-1.845022220323377,-2.266812953388808,-2.775050945289009,0.49143065132041297,0.22345303447511822
88,-0.8681011954929916,0.8904709660268278,-2.2681782973852527,0.9446105606021429,-1.1860936189443376,0.33079462911028196,0.7364582764688458,-2.319444708038206,-0.3488859766861296,-3.56066779708811,-1.6868411374529684,-0.5504834826190983,-4.72243889707011,-3.491311637186838
89,2.378128294923336,1.1283420497671355,3.2223543541732886,-0.06921138847808,-1.2136974083217644,0.3248321417436718,0.7321838170264414,3.2758172129499137,3.9681676378204354,2.3530062160826235,2.7748169574632766,3.1032381896872665,1.3056380036915192,0.8939333355204571
90,0.37639557423796705,-1.199657869135727,1.5882857647374398,-0.8619716464019113,1.4058530691454698,-1.118655079730996,-0.9517309166473831,1.3800777314832677,-0.6909559596485364,3.2805613521682835,1.06749617950618,0.04722039085138401,3.9429189913548504,3.0746208831485626
91,-2.7953162687697297,-0.886957004765342,-3.923853946201346,0.14561217474078886,0.6494539460406957,0.043786860069323634,-0.92646533068864,-3.5919994255601924,-3.2633361441977384,-2.7964202933059195,-2.9882334477661483,-3.2787448992350074,-2.8659271229570455,-2.0648507185614737
92,0.4860907878476178,1.4466176885083817,-0.4917027409787197,0.7841527066156374,-1.185320199562046,1.659458721391561,1.193318975734155,-0.22719549571610295,1.413541886687078,-2.6306623373401385,-0.15697010916451454,0.624617437712589,-2.1017332204306096,-1.8195880574440113
93,2.8799973287553144,0.48196937882666674,4.245704022848745,-0.03583377607874705,-0.133983293668218,-0.5525634324612664,1.1264082068380998,3.3009028490598813,2.2434292927722694,3.0079003054290885,2.7680215400094466,3.2239315649059357,3.638248646030391,2.7902641515856255
94,-1.5104307957682082,-1.494250758972893,-0.8517590007856835,-0.8347895378213218,0.5519822884837036,-1.8662590565096087,-1.5007536310579466,-0.7921124723669926,-1.6654420084349109,1.717110367747288,-0.7956247607839456,-1.3823044433596594,-0.31117182933392196,-0.05137722415751082
95,-2.529054943768798,-0.049166471908775086,-4.024824166282871,-0.17458250938285969,-0.12565346680476935,1.0030577830048018,-1.2656552962308152,-2.5173294336675953,-1.1970891564151875,-2.857973713434586,-2.131316069299147,-2.8899537894514387,-3.378424848468614,-2.6930998772116994
96,2.400606488432035,1.2871712994894917,2.1531440805627975,1.0814834396491595,0.356606088197556,1.792907674683057,1.8741215454217293,1.4165273138894054,1.4714467731574403,-0.7384257294485941,1.5679691067809134,2.1075114637291708,2.689526321249133,2.0489984015897864
97,1.83721004558215,-0.2334487986396946,3.2586952535931255,0.3369901861973354,-0.02151545457008036,-1.2602325463233413,1.255389237744653,1.4984037296822748,0.37540043596960376,2.3150115334326036,1.2042428708796316,2.276903443211976,2.1847025754134854,1.696518488248124
98,-2.915471940226616,-0.8910483643989842,-3.098612653282772,-1.4843874099624657,-1.313777924790897,-1.580324333636827,-2.2517857152835257,-1.548921230044137,-0.9989380146932616,-0.0716493207174628,-2.020053861488239,-2.6614295140738906,-4.528219440961344,-3.623825098470564
99,-1.059185925867113,0.22726725533318679,-2.1331424870394184,-0.3190955343798133,0.6238355978604592,1.3057362560520902,-1.0327367445587177,-0.5296876533131947,0.09658001999679773,-1.4742243614527282,-0.1525444261722374,-1.4535368676870932,-0.3938839976168502,-0.05281145272086309
100,2.985205162945582,0.47773370870283016,3.468815604099512,1.9037800096808903,2.0472298667649054,1.367713975051731,2.523073930935793,1.252932489474225,0.46624533861219847,0.5243119645436854,2.089547781199529,2.9185119197585756,5.545846743825782,4.386090965916126
101,0.4898104290352089,0.08907041254844408,0.9737361983541409,0.0852758311297478,-1.5898620535853398,-1.2215245416210543,0.6003617351110939,-0.17156543173310443,-0.23989464495145305,0.538131491217166,-0.8564024368967788,0.5604727185314756,-1.5780498300058596,-1.776119430725477
102,-2.743950659715257,-0.2525419989251035,-3.2361364967635415,-2.1729061962072356,-2.3137363751446776,-1.2229622901650645,-2.567878064090104,-0.6911142827225755,-0.04697171974343481,-0.5476503448529239,-1.7710311331281108,-2.814079947573473,-5.691341714715754,-4.235478989032352
103,-0.32253546841488245,-0.5889668688699118,-0.12857712573405652,0.2764839677636651,2.68664692964024,1.1236974984756214,-0.041405131898577474,0.4982822565671076,0.1748692379984791,0.24774010571955496,1.6547842530279975,0.21834521705319734,3.363735043293066,3.3120448467728982
104,2.464033317169274,0.35237748488301923,2.5913353922873226,2.196084512032218,1.9913251348193417,1.1277946807396275,2.3073630938811047,0.05146188559156951,-0.1833971033927654,0.22119369538474337,1.1217156447704766,2.3839004853893346,5.078584942352072,3.357325040588679
105,0.5554713853561786,1.0410239826840213,-0.17384425692914499,-0.6053816349831872,-3.598256363975601,-1.0921165059611755,-0.49593438185266275,-0.4428429118597796,-0.042695007599504814,-0.6823684723674128,-2.0779329482548445,-0.7152033473347066,-4.700752739387161,-4.230506236354869
106,-2.4248722183627134,-0.7672077137297016,-1.8762339363229443,-2.008317153110427,-1.1462786499154871,-1.0156345722361144,-1.7487210087465621,0.5007324418101133,0.24215401085050656,0.24375126197387836,-0.2911248649704612,-1.7685106211279897,-3.9122609794570855,-2.1115187488984835
107,-0.9888310615926408,-1.2134646657447437,-0.0724112378973136,0.7683109106157144,4.038332832999811,1.1361063420646935,0.8438382414393596,0.06417623883036354,-0.05881189942819901,0.6894658740927233,2.0093601026952337,0.8469614794780683,5.433115329364173,4.44177312995703
108,2.779106022927448,1.3326479588289635,1.4427672743135302,1.7535867044627496,0.027707795329292493,0.8294526823683159,1.0049352549129147,-0.8386097464364086,-0.19341180353987167,-0.5773337029984488,-0.47253898262629945,1.1688572328020672,2.44153969564585,0.881265338076303
109,1.3131244187119053,0.9875177870149054,0.6400022652514603,-0.7453810311932818,-3.8691374977787247,-1.208296832741957,-0.8807429347317116,0.5368797810887821,0.09633755468707979,-0.3594966237440504,-1.4601348165804586,-0.6576280988170422,-5.500308375683008,-4.071876744695282
110,-3.477108313539691,-1.8042272756709652,-1.498021592830928,-1.5926398120881435,1.023799295761089,-0.5610170896417006,-0.2716231866425583,0.8756751551826247,0.09799261166039397,0.5585477346248764,0.8864883821299857,-0.7663111969921841,-0.9362968086724218,0.05255474228548281
111,-1.245779378518537,-0.41614548005375557,-1.1626197382005512,0.6434526452809638,3.1628609453752694,1.2482804210314669,0.5923675320376462,-1.2263044548969224,-0.08117545015633874,-0.07013358841206223,0.6234358395972718,0.3076560641527292,4.940587335293178,3.3763000088676116
112,4.280921873197769,1.9745712200409327,2.006950805571967,1.5985338533539981,-1.7148434465879656,0.25101429393480684,-0.24225232777598188,-0.5757471638673678,0.011156341451203073,-0.12013708722497322,-0.7629345532014815,0.643145182369457,-0.3414126342567579,-0.5754275076967265
113,0.6554600139146695,-0.3057785214387519,1.2975942809649252,-0.6276606785302965,-2.1676301224846006,-1.2233020033946844,-0.09228932018398442,1.8461254634979039,0.034367078471436156,0.3035582253659451,0.16314628580810672,-0.007202875369541807,-3.9003099338984364,-2.6322076592831998
114,-4.8568006478462555,-1.7669760333958437,-2.7016706906509924,-1.7058061853955437,1.9147191059828053,0.04306947598355544,0.4045250532009179,-0.026812861309429805,-0.12221083473947086,-0.5963580512255373,0.1334597690306405,-0.7445427527677404,1.1866766672273372,0.7378607082382094
115,0.3750073534984739,0.9399220915029248,-0.885617279230686,0.8130636262730003,1.194459844616713,1.1406058197480096,-0.4210104074234734,-2.244344567632758,0.0343302311221101,-0.12227529568145877,-0.5617155641009621,-0.07956900236140496,2.6205416679565112,2.045422994252233
116,4.905187565833886,1.2545977449532155,3.1992162433114935,1.7443206956217652,-1.6894399883077749,-0.2849219679143532,-0.22237325208206585,0.817895717461083,0.22347456436777036,1.27692571303531,0.7258918149926619,0.9059381394543318,-1.5081904893882305,-0.7030551882060174
117,-1.5661305615710224,-1.3110167452237709,0.03367164476704146,-1.1816640248909007,-0.485546892713839,-1.0284995259224137,0.7569758003168287,2.324729876068745,-0.12202878879235393,-0.4869207660125865,0.4166606471111605,-0.0867286464685665,-1.3831350998480207,-1.694263867120063
118,-4.280018142974679,-0.6036665424047711,-3.1795111878886604,-1.5378643467969382,1.2431054734875018,0.4764321190922564,-0.16463734510534342,-1.6303109754722134,-0.29207205887985443,-1.5707847419529852,-1.414224805547527,-0.9372629200118946,1.358510721296002,0.6646272250714852
119,2.5299408369005336,1.3625673291627387,0.9217987188932478,1.5734165767648585,0.13091026795219118,0.9052760450652532,-0.8246006373734741,-2.087912543982214,0.21424584368519262,1.286352611870746,0.140478077716629,0.40112299499481324,0.42980603058440153,1.5233303453527562
120,3.0591273964236665,-0.014664730990181703,2.5439243298462832,1.0119340279935425,-0.8060437505384884,-0.6447334982806955,0.5624920512385025,2.30661358803901,0.30411714071560275,1.2759752091645877,1.619450024946465,0.7239898235424473,-0.913428452851483,-0.761290218473538
121,-2.901653354997361,-1.143195422831047,-1.561854780217594,-1.7577041330596441,-0.06843552103888943,-0.7616561588751397,0.6654336682059115,1.6283340657358911,-0.2755822923688632,-1.875719161860623,-0.7486754039406707,-0.668829589796476,0.10844046964534518,-1.3901606874063768
122,-1.5416068535908696,0.48879651287260995,-1.4777043240381464,-0.25186038674766775,0.5332233560858745,0.8126654163111169,-0.824783106114226,-2.7642001121681594,-0.2572303090866545,-0.47543471735382564,-1.2989962797175707,-0.2916246345309373,0.405988512888341,1.0213132160457197
123,2.4765673842027303,0.7506014795015115,1.5795442670328235,1.5487999605396354,0.15380465040278385,0.569377979215746,-0.4069380891454381,-1.078110768740042,0.2643520136904722,1.8937266399875803,1.0215438203069036,0.7092627310164775,-0.23810956556534188,1.1479323700173332
124,0.16408061294027892,-0.7800177340508383,0.37963819387814324,-0.5205194322778398,-0.4626455497601882,-0.9763526647487201,0.9134787643404646,3.016791609358854,0.1831503598303029,-0.47216701457298793,0.70604820064004,-0.20368890663720318,-0.04701964651888615,-1.36335468784021
125,-1.3048438784331686,-0.27780675256688386,-0.9306618395669677,-0.9061223209568707,-0.25055129969656337,-0.30727779643357045,0.17103193636621697,0.5311219167656627,-0.16348058961154208,-1.2289897340239457,-0.7780168462605306,-0.4546620579962617,0.07992660390482274,-0.7250475316670701
126,0.6469103954920821,0.8960024575220767,0.3148237296978086,1.0413472373115913,0.5427621723102459,1.1053241057385719,-0.8822610868372187,-3.133059741522215,-0.13429297963526907,1.1062910076732781,-0.23378017698346315,0.5560199104589894,-0.0338776291688138,1.653836861351204
127,-0.3011118252902995,-0.2094859714728014,-0.1359951858734961,-0.03228806889977808,0.28679068939349656,-0.016070517915577943,-0.004669652130574603,-0.002088484918281559,0.002052116729617303,0.10688470443408724,0.15085725267871067,-0.011748228139870911,0.18462262253485287,0.15817756735284447
