,AF3,F7,F3,FC5,T7,P7,O1,O2,P8,T8,FC6,F4,F8,AF4
0,-0.13727026676834023,-0.03563897006114529,-0.0690106444456145,-0.00918904504254226,-0.06457327499339352,-0.039765460547832636,-0.06990317038758971,-0.019740773412537917,-0.15452627612811157,-0.1341841583748883,-0.1603654708326468,-0.1519632441179098,-0.18739867094791415,-0.12210985167143663
1,0.7543630765017156,-1.829914507425494,-1.3920371290926952,0.0026586221905155385,-0.6559135021319016,-2.025934896495546,-0.006345339973718232,-1.3263000932291558,0.0492764132535764,-0.1492663384319125,-2.3700707623873063,-1.1726028158126423,-1.76420437096039,0.6640811699453613
2,-0.37487423423558525,0.4029651235638013,0.29729907601744354,1.0456913086446307,0.24643062007086713,0.5969845237569505,-0.4517807482885845,0.5761262504297833,0.12204697637115756,-0.703138275032775,0.5100853059283172,0.3099494948177046,1.215656284320131,-0.8992691745149075
3,-0.1979601696477778,1.8232058293258677,1.4035447716907863,-0.3188811276243774,0.7532335305336625,2.099282853323796,0.4893063573301472,1.074368228656743,-0.009173521876288712,0.9394019261833474,2.234070554799389,1.3673557045294957,1.7956218344459953,0.04934776688980932
4,0.5402742881860672,-0.8620879594765734,-0.5837796749222616,-1.907929567558981,-0.5189375312047665,-1.2162999918182908,0.6927621805934804,-0.9708525150985677,-0.04845140088763566,1.0266937189302154,-0.7583584064823334,-0.6001958454380141,-2.3070663659669988,1.5078729641270046
5,-0.7142678579995203,-1.7083112708068164,-1.348961282844976,0.8646628441947725,-0.8763663155411692,-2.17496642247189,-1.2752493226351955,-0.6663878256706649,-0.18448299866670229,-2.1681098699875885,-2.0104245580813953,-1.66876196968543,-1.7723439708677233,-1.175386620917531
6,-0.11690256956376373,1.4153383595863311,0.9198164335291824,2.467359749466942,0.9321220003854878,1.925842956337441,-0.4716054187406287,1.1121808480488045,0.0066500606182553195,-0.5441194129828723,0.841163480963976,1.0993258332523037,3.4552204812392247,-1.47743525965186
7,1.5500692433306773,1.3226092585312177,1.1203197333057695,-1.5157199715711238,0.8941115404605181,2.1320324178446213,2.039107805685527,0.2556602203216983,0.4878983051439678,3.2195608265994373,1.728707657063142,1.8500092883012154,1.4783595286301658,2.2398616002037732
8,-0.8567360898711799,-1.9112370172343247,-1.1792069510593672,-2.6534383941499176,-1.4356862997921291,-2.6658828860598027,-0.18255704295699118,-1.008198083087147,-0.06352949215196697,-0.6096427331984742,-0.687927117844559,-1.7129364324733738,-4.459842732348112,0.9070590225791667
9,-1.8709016065089703,-0.5857249200777757,-0.6896804887382423,2.119137400464195,-0.6980185693700875,-1.8598685511648994,-2.4610634575371044,0.019331452880746038,-0.7816129955747132,-3.544940861144359,-1.4618460899113386,-1.7265838455780003,-0.7963404864829197,-2.831542611831686
10,2.0542153002528734,2.101869781363192,1.1822885792185367,2.47735218178775,1.8948450729441462,3.291046858556068,1.0344587581160811,0.753443349345141,0.22275060059331644,1.9202410352256065,0.2666982190013154,2.2121115844688215,5.004767000900114,-0.1682079130722486
11,1.4210226092753584,-0.4137224142057495,0.16220675428437037,-2.5357430117116184,0.26224662205052085,1.3249854066913918,2.36619115759427,-0.09111650828692566,0.9088793956348461,2.929253532945749,1.3147525951778765,1.2582081066820863,-0.1832803297465843,2.7953269368549427
12,-2.974799727482281,-1.770741149393301,-0.8089654012037979,-2.0322371911116752,-2.1479656731349523,-3.6195336142293413,-1.7404469672638996,-0.47833354479775214,-0.3834275468680239,-2.726459442344235,0.372869533162756,-2.3416681175042586,-4.8206927336515015,-0.28505005696237407
13,-0.2524186573936857,1.4222557458181022,0.25883757226367504,2.6861165155744353,0.3370101174178817,-0.6104436746822155,-1.802148142774566,-0.017610878250391204,-0.7583160271587337,-1.6000255870030067,-1.3695789914021788,-0.5731816483592349,1.177244330177298,-2.2915690005964553
14,3.1387249015402903,0.8606467622310737,0.08544585372035449,1.4596902709230883,2.0756517126449503,3.512907794583867,1.9976799135624403,0.288879682503468,0.35385313654780803,2.5256738819299795,-1.1045749200074229,1.9385541097413705,3.8318269215780987,0.1447824819527196
15,-1.2700617110438115,-2.118555008889118,-0.374625950858741,-2.5749101759591846,-0.9484728198534943,-0.09793577350557142,1.0176847318439854,0.21679772239449416,0.3501094413866759,0.12741046923429977,1.6281249276847813,-0.0880354723562372,-1.831685282273995,1.6901587780188958
16,-2.288129485373802,0.46860517332100743,0.8111329750881665,-0.8953255625328509,-1.649120118586901,-2.950591325757757,-1.6767994854235766,-0.22600228520202445,0.06882405928068248,-1.2056435424227265,1.787184257008412,-1.0020334102989445,-2.205204935536078,0.6066656348414992
17,2.592270134526618,2.255301385541175,0.09699561449821008,2.276942754374743,1.4025190766068938,0.5800890525643011,-0.35192197369763856,-0.3975956130741193,0.12745975482175198,0.8311353143240612,-2.00253174282823,0.47108060486711273,1.8739988019763818,-1.3607719833727039
18,0.5109854390622671,-1.885660485917229,-1.631924877092133,0.4232028911057653,0.9401567248190518,2.059943289562892,0.8777747930967796,0.25984635115327603,-0.9820695382229354,-0.9033421327228476,-2.3417762187861038,-0.30780444036442867,0.2875635157638951,-1.7150542281654597
19,-3.1773997935663054,-1.7731311902778002,0.5056917201787976,-1.8924678330930584,-1.5704794351017315,-0.6767719431444559,0.08681008985590985,0.4809829122197875,-0.3643172720050456,-0.8147737637186131,2.3717269069911495,-0.395809935586025,-1.211293980157366,1.4840862967323456
20,1.7649946054418209,3.0146918041986552,2.1695559124707664,-0.06460861132707904,-0.09521217007530759,-1.0815304837412105,0.11334684152452555,-0.3155462936091922,2.280009141919622,3.168885812983226,2.784550412671294,1.725717303051615,1.5198411070934033,2.8142716618695762
21,2.7142907175619464,0.8286885082918469,-1.2464732932164393,1.4995656323295814,1.4041348956919775,0.3660923454193249,-0.32924433422141164,-0.4454463251503214,0.05207611456512134,-0.2587019006699241,-2.6671678275825603,-0.19786373236349902,-0.06101163859467369,-1.993524417151433
22,-3.908640456826409,-3.579460426347032,-2.33883158586693,-0.1965267315169166,-0.7102184779977667,0.28082464682258024,-0.943129594871767,0.3138001656786327,-3.6295756515405544,-4.910765605919071,-3.1841814186228534,-2.9530352643380855,-2.874705522177132,-3.6183322850359216
23,-1.2456621495643443,0.27344006609935395,1.9120814819344074,-1.1327372319861093,-0.9469473525048712,0.21683312348431613,0.9705326815569301,0.325678731968941,0.9590669980786588,2.080934118079561,2.9207512834615557,1.244405301642624,1.715436629155528,2.665678986054315
24,5.300697557025135,3.494235811609056,2.1852060034414693,0.3741062525536997,1.3197795591946313,0.15554050985119516,1.3317518626629208,-0.2063778328118753,4.55194175351068,5.649052036831835,3.572632320690213,3.717252738514636,3.551155993296737,4.023590205487182
25,-0.8327269564792892,-1.2028781801191424,-2.3508878034385523,0.7974728812819322,0.3202441529814247,-0.8289925770811087,-1.7342224687204946,-0.18804154597538866,-2.538477316164245,-4.093483578651543,-3.230249112205225,-2.5649486130685406,-3.4580731759497705,-3.2749285750805024
26,-5.548774768646771,-2.867230207862089,-1.8303795720238156,-0.45727923277493066,-1.6365690928588201,-0.19251786058254444,-1.1800234382403207,-0.007877308374977913,-4.598195575176288,-5.248235123398171,-3.8813562486369295,-3.8186748928876075,-3.4509209620745964,-4.076336039358733
27,2.9021511313721917,1.7153332849700307,2.5100874393153396,-0.5044339249482505,0.30934376649964423,1.2174846549340854,2.2888226054091465,0.0979822875223391,4.258556612995206,5.702266407749657,3.6617581500049594,3.884253993674289,4.96923760566454,3.6943885557421328
28,4.624265922866233,1.9334977403246851,1.4006683706915932,0.4217509128058268,1.6497526284025565,-0.04479183568613783,0.6038357821924085,0.28974965343072534,3.5577582899168787,3.9207360713276675,3.9617384398202375,3.1797420312066103,2.60852596255838,3.8661795294990324
29,-4.334756420772274,-1.7100141080112066,-2.4171376679113874,0.2923401708130631,-0.7767377010197202,-1.2242460361255822,-2.381419442092107,-0.09594318801686992,-5.521791322228646,-6.474992635157698,-4.164366221227728,-4.86615124112859,-5.933240039298417,-3.8871599826472623
30,-2.8709644460685415,-0.96440321596498,-0.9830626689740596,-0.264832509567174,-1.4398735603360382,0.3320758670723263,0.11506163708246708,-0.580335082313881,-1.6003919438625764,-2.1145213490519947,-3.6840440470934834,-1.89812266866008,-1.211183349832087,-3.452362993121607
31,4.716002431087667,1.229998916282042,2.1373697235455773,-0.21697396863034818,0.9726416236755984,0.8511488428704993,1.9429662491783175,0.19035644688317294,5.802320807462404,6.257703851123832,4.570102251029002,5.193306476023608,6.096661968963389,3.833366431112452
32,0.8781708469361212,0.19314052084993266,0.6214473879102396,0.03346011352346694,1.1531791144153885,-0.45089635259894945,-0.644823191763943,0.821684252112361,-0.7410212366634691,0.3440889721839481,3.0430910704804894,0.2699350112863064,-0.39456089682028,2.8809859253636803
33,-3.993366939041763,-0.4303779779365743,-1.7443184460603403,0.31060661483191954,-0.8880748870272587,-0.25463415814773455,-1.1241662081711665,-0.36411311790329615,-4.897225056388153,-5.1883640952746015,-4.68856213917228,-4.690101519019072,-5.366390684286489,-3.4899203567345665
34,0.7403784384879777,0.2333012241787802,-0.3313402804465288,0.18328000412044118,-0.9431759892855562,0.29139997141396745,0.7449366007104805,-0.9684264724534488,2.771737907855044,0.9725812552808718,-2.187155941822411,1.2667728002356784,1.7620095654269723,-2.2532661358637576
35,2.4890333596428813,-0.4646681672478016,1.312781678469642,-0.5424690389589941,0.623656828385654,-0.33062771658869883,0.24191338479214708,0.5840366011499156,3.0499966682980144,3.621170809177178,4.430149214955454,3.43490430392859,3.8998641051256855,2.8372356462001185
36,-1.5796899441458547,-0.28442098731946663,0.1051057169637516,-0.2997385770679506,0.8977446848446428,0.09600638034686337,-0.3781400657455345,0.991706870577179,-3.9401087327661233,-1.625051045113953,1.3421289717759868,-2.2837573403036866,-2.488278778981835,1.7492246024599163
37,-0.7623336599576891,1.214643469048434,-0.9153157517352247,0.8153688017777679,-0.34620488569401914,0.7057002832188144,0.35114964186919917,-0.8066267896025755,-0.8581783924630145,-1.9963677842724599,-3.86656798472019,-1.7783587906516698,-2.108312027101295,-1.9712536568300754
38,1.5917735126923613,0.060968919478867706,0.09637943004828672,0.2886038981152872,-0.9895040173276062,-0.5278098283737465,-0.25930586150784546,-0.8823608130727225,4.0887495103378075,1.6460657093901678,-0.6825727516278354,2.5525728425946417,2.390295071860718,-1.5495506294591181
39,-0.6280011232391917,-1.6322827987753126,0.6003560925600414,-1.009959580301975,0.20366488529001756,-0.8039776768250521,-0.4252881194284927,0.9823767246428303,-1.0053568324200495,0.6980865408535122,3.1829875890019848,0.21942886147183036,0.5284591404902322,1.1393938359291604
40,-1.0785751723586527,0.22204384452411713,-0.3420046829702556,-0.20399498167490213,1.0854471743158713,0.7832013922128769,0.8135866955118323,0.6563902958840757,-3.506981077975739,-1.2698908561658744,0.24193012012515425,-2.162721089640707,-1.6103588950270176,1.6970763164815803
41,1.358841958851439,1.6603152111063428,-0.3574488653022431,1.0521690003318098,-0.2415203545807907,0.7200009121036707,-0.010805950866845796,-1.0649648087033265,2.1126004472422157,0.05870090983643031,-2.5569597436316287,0.8189161038527994,0.39744130247448467,-0.652877579455513
42,0.5261024591878481,-0.3037823282392049,0.6950723721066092,0.15033042372978989,-1.021169522887881,-0.7208836962385122,-0.9324841919050425,-0.35784191295220885,2.7470591625514853,0.8299479703047354,0.07537158410104416,1.479054710012301,0.5692947457849513,-2.009861502715132
43,-1.4627760686336455,-1.4190881131059065,0.10458772368559052,-0.9578894320528306,0.372999463046511,-0.6533340169008802,0.6997862982515592,1.0264484978595416,-2.462797194107517,-0.2792085079854551,2.053106909166612,-1.191363544401655,-0.5198854726649779,0.7099506321005471
44,-0.35610152489794983,-0.008233055992282572,-1.1537005279490107,-0.2128152777760086,0.7019554695192619,0.354700909640489,0.4382607679049177,0.05154269341930083,-2.3060485939550484,-0.6282004414168473,-0.3932771545702509,-0.9447920337966633,0.2287327422329403,2.1353585215652684
45,1.2710021600431562,1.18044604993172,0.2696090625336468,0.8202009544927454,-0.4280381748617696,0.7968748953682976,-1.24733078905427,-0.871240041596214,2.4233990268137755,0.16039425036976743,-1.6101937287077677,1.0831610995550411,0.04065497937792743,-1.2489143765261372
46,0.7206265307256992,0.7249646398485906,1.6138047903164237,0.39606343047812553,-0.16914234966648398,0.15329234326304791,0.57192890855221,0.19574199128528377,2.3574384403175705,0.8206710356600413,0.7542688280406491,0.8419358778279875,-0.4394254914084923,-1.7331796770494912
47,-1.2073685843299444,-1.252590441018839,-0.8179215084296783,-0.7428569731320124,0.25629581583731986,-1.231378971173346,1.3097887423165484,0.6391884756253702,-2.4681856596582645,0.010097560973981994,1.127565857244426,-0.876681096182327,0.610624066714503,1.9439031856483648
48,-1.4486893947396733,-1.6340804531913136,-1.9037527010575523,-0.6169112486800292,-0.413172632273623,-0.5770876172970985,-1.7558514217188796,-0.33818229459443166,-2.688076132106735,-1.3655710719095489,-1.0872666340052584,-1.1562619780964876,0.030327467435136563,0.673099732370045
49,1.545602795280778,1.8177202230291813,1.4601417239913432,0.7637203769379185,0.17832398422184878,1.884374365308205,-0.7669231170247547,-0.39408584066590163,2.8723801583059947,0.009624671475481548,-0.5812374827257358,0.9154281676150695,-1.013029892148899,-2.360773189788169
50,2.17325570675666,2.377006369579898,1.8923062833036686,0.7626643231561698,0.8465140429536825,0.7385602727346808,2.680507986781518,0.3668925237077558,2.872325598239495,2.062900980520276,1.2817724051359969,1.6275168683463783,0.7467105248044364,0.8839246658912572
51,-2.266609751259081,-2.8110718801441035,-1.9930278620085433,-0.8241524475876703,-0.771739411950892,-2.5724461473701234,-0.21041377862009789,0.20244943434628085,-3.5493102658085176,-0.3052777114986648,0.07304193866355384,-1.315758127108097,0.9627050621817539,2.1774869897436755
52,-2.562928365188179,-2.6247843282949717,-1.6048379488858122,-0.778267802075733,-1.007494873126343,-0.5832844070573592,-3.0288659740670507,-0.3126599695063299,-2.5709632463460013,-2.673751309864339,-1.3121438182064085,-1.9419689509141485,-1.5383290614591665,-2.574455748516328
53,3.0970458050071534,3.925322042224811,2.205487160097407,0.8126917155928296,1.3392686794616822,3.0958009073395907,1.2381289523006167,-0.11104622400404633,4.124760752439559,0.7819219022379468,0.2371119392603539,1.9398174487064446,-0.530252474581723,-1.328534965591828
54,2.518501840786984,2.2613239564026077,1.2541239117091265,0.7192077438463107,0.9096667762463563,0.18271009338407593,2.754409847401368,0.23570688453828795,1.7664149688238735,3.059811859426591,1.3081238141178102,1.9325988328511128,2.1043232244708294,4.0261463712213175
55,-3.702150613667519,-4.758102412859878,-2.037824467378343,-0.6589980448454705,-1.7223852645922477,-3.326149869680564,-1.9079593901580978,0.12938746462319808,-4.196890551370078,-1.2463323881790658,-0.2752420290496335,-2.5307333612192453,-0.05509318593008115,-0.010794841715733314
56,-2.214210373895934,-1.4610670123736422,-1.1363015802357284,-0.7242826837045275,-0.6800583811850194,0.3269645058536411,-2.1009779539980302,-0.20558966416279892,-0.7878337587997328,-3.2608011560094208,-1.4982560090617185,-1.6561333598013381,-2.424891154853537,-5.023569163916828
57,3.9101046554940835,5.028919552387921,1.67297994472207,0.4127869514712844,1.8742008701897965,3.240889129620096,1.992667765417176,-0.22099823631217694,3.614198969193031,1.5538540589404801,0.16456672916827356,2.9036709500548064,0.602326541573326,1.57056333420405
58,1.9594252892870614,0.6012810362893056,1.4368037930752433,0.9162385840252747,0.46856194114892696,-0.8223788392467293,1.4737857664580634,0.2739868935315764,0.114116794375233,3.454800529311851,2.04587832645422,1.3086334202461365,2.640371342044783,5.543557777731332
59,-3.823876586504049,-4.737004148362039,-1.4752779883218083,-0.2445257500345629,-1.8702781156020276,-2.897025353544436,-1.5598054403485289,0.3085863064518439,-2.596068996569365,-1.7287672272939,-0.2047771844477511,-3.057418448852558,-1.0956711468215075,-3.1465322979383554
60,-1.970504938560143,-0.0499303574095616,-2.067356475159023,-1.2926519919981039,-0.3512603815041216,1.2392545328477298,-1.2271161439748943,-0.4457745296305393,-0.08302978005064729,-3.8168887849182216,-2.88599577285396,-1.0537907798406962,-2.8806321166151045,-5.658672696903722
61,3.746347370341524,4.157158172788981,1.7880135418977037,0.3532433790214577,1.841054621524301,2.3761043815760425,0.9326892851092267,-0.29909354074531114,1.624612899116348,1.9725799560381716,0.7075978657558296,3.1355933962601554,1.6801712598976266,4.6608419987405165
62,2.2018438933508375,-0.04614699151704289,2.65330238826995,1.6846653890245324,0.29057061950122826,-1.5700894848865163,1.4804246073393135,0.6611818365005186,0.6883698435798863,4.3627270848173,3.6864579974049008,0.8932265706695237,3.1137226947399315,5.40301395565301
63,-3.963374335830761,-3.667514388436725,-2.7014028230096425,-0.8309539741600902,-1.8730555238661315,-1.7407653323147274,-0.519113459942277,0.12732609029886766,-1.1817333285979723,-2.540506080821833,-1.7815380091345394,-3.275254138433925,-2.513536345733227,-6.093599461742463
64,-2.350384787349877,-0.16000138962137642,-2.705016877192006,-1.8233473939385108,-0.1758414738954823,1.8309321919615602,-2.0596675895729146,-0.8060724100344072,-1.5826869958915528,-4.8848404126045,-3.9827443530516313,-0.6726953969425128,-3.123992554264167,-4.715336835193796
65,4.52224284907425,3.5111511401731974,3.9365746296416577,1.568777793229483,1.9447827696452973,1.0238717469327623,0.5997608477991673,0.1986206937786282,1.4946644960598976,3.554673252177157,3.2044237683112393,3.4588191986803767,3.593328585052864,7.357020169334913
66,2.039491072179771,0.3235951484158079,1.8914736763341458,1.4857142041538844,-0.08506338301896792,-2.0284304825102617,2.5918467821166846,0.7582681310565822,2.270144559133066,5.038680940414039,3.423005675180747,0.22042869802937637,2.6380566498826377,3.5089856390617653
67,-5.149816709600697,-3.6400074900230033,-4.932645115922384,-2.2710674970605336,-1.9384767566904093,-0.2436075355788767,-1.1875989757143215,-0.5788391043114359,-2.433694396925248,-4.873693559433421,-4.475920734525209,-3.4823449978354195,-4.682596602013595,-8.227725064900397
68,-1.0746354871656754,-0.13955978921417597,-0.26301802944204217,-0.6390809784418551,0.4844383398698372,2.14709133265319,-2.6981959780875413,-0.45519615794284846,-2.3643024939786925,-4.540513424224915,-1.9859083342351358,0.47953429535829584,-1.5181654321136748,-1.8174229010700989
69,5.370737849674634,3.7403667195630494,5.10692038206479,2.5814146050456768,1.7187115341812556,-0.5760503575753713,2.0266559797634485,0.8524776191519057,3.601721564986061,6.112899244006073,5.035839866343899,3.07319587936143,5.3904062001757245,8.4099425036513
70,-0.3834170778239072,-0.4446614051205317,-1.7094262285977255,-0.5017441503432531,-0.8956559068377588,-2.1562574839529294,2.183235431288848,-0.05373547979587436,1.764774518957185,3.3611670208177715,0.044981456902947185,-1.2039105387852378,-0.10017875037291793,-0.09869512837308123
71,-4.765194806787263,-3.4259934223253405,-4.155272698654959,-2.2578353711491124,-1.2272851433444762,1.395250364531183,-2.7218156847663333,-0.8733150865779628,-4.5432384973202895,-6.819406535819225,-4.537431686912392,-2.086819590633384,-5.365065418930323,-7.705377986536258
72,1.8347873823769267,1.1640665615368981,3.311602800529732,1.5424771592736986,1.1269351044074976,2.0239415340092983,-1.1276861721209217,0.6081919899828587,-0.6733984303433761,-1.793056992295036,1.7621790873342793,1.565152235059549,1.8142973518370396,1.7782385766778273
73,3.2240538070155167,2.483910706169738,2.233979703268508,1.3049785405785237,0.5375117448084973,-2.160280855803794,2.9272350908049125,0.5925503645383282,4.949344859854057,6.708591688979597,3.035216310569924,0.6550597739008898,4.49049239351205,6.1838035361311325
74,-2.6446078960355766,-1.5566379873975464,-3.8944097295622133,-2.071963918839833,-1.015040377048932,-1.7264192344631986,-0.15053480306445816,-1.0025764463627234,-0.5314845024053833,0.3399843230916034,-2.798354903083349,-1.210120589679551,-3.1065814944753054,-2.729600876880487
75,-1.0627444853798744,-1.0322385974692339,0.07115090302405425,0.0052346318996672695,0.16025941329406762,2.809044908793995,-2.501946168087054,-0.09772088857645286,-4.762259255237858,-5.8273452954594,-0.9940517194069697,0.8142776749558425,-2.977149056653569,-4.2376993640077165
76,2.3329351252589707,1.2015943371662534,3.162602573428128,1.8402032809684512,0.5080885256309502,1.2529345947575152,1.2386961415764597,1.0857667936955524,1.4779246161198718,0.5163844788748871,2.6997013871079014,0.027554447573253964,3.564794985725803,2.6598751397769735
77,-1.06648491431121,-0.49428865532954447,-1.9713307310410788,-1.2342389875846775,-0.6302784238597066,-3.2723771014857155,1.5670724790211092,-0.42254403549773656,4.152326808582194,4.549983193024749,-0.8845171718235779,-1.795094113465256,1.3000793636845,2.469045600351115
78,-0.8096833310097593,0.0493353776864157,-1.3114714911087326,-0.8690706352843882,0.3001322024000468,-0.6134774455314727,-1.8060964020484267,-0.8371727141890833,-1.9487784638600434,-0.5490390271146477,-1.5347617457763891,1.7547691311153262,-3.0619659229825626,-1.6381973603396809
79,2.423417197936005,1.522837033947148,2.788996015523907,1.950299970623009,0.6839875000584883,3.4743220964096286,-0.4470140268978677,0.7725952473037025,-3.40277024591963,-3.406461722160837,1.9406369918926416,1.8743226329745477,-0.01572700963099253,-1.4520136461961486
80,-1.5529461667740638,-1.960549149925962,-1.0400933569245976,-0.5502109870339004,-1.1938691137603143,-0.14439570128193427,1.7397227624732645,0.37147778994190356,1.940325859117947,-0.10426786407253924,-0.21653693622389947,-3.6341298411185394,1.815650776439952,0.10064233215501299
81,-2.4785910270060594,-1.6009147413325409,-2.224444045413818,-1.8981571946466036,-0.25645929470953654,-3.3444208328595106,-0.4762443924904448,-0.8475833607051392,2.7657233395973493,2.8315517589109414,-1.8212878888819692,-0.9396858970437328,-0.45832448561408695,1.483850572111706
82,4.04140711579406,3.9751499293612116,3.0818329260409034,1.966955983054605,1.9039526961365252,0.9171839198980818,-1.1831997416526794,0.1316242546319134,-1.6221931213234875,1.007351273171707,1.8529074934566874,5.021527394274413,-0.30657491938587106,1.315693156028374
83,1.1347919312459984,0.6184833070034231,0.4738436676936477,1.0964319784902141,-0.5577666399105802,2.8517897084288837,0.9332499274804712,0.6756240007518265,-2.351560213897709,-2.9606371180305393,0.6240918843631301,-0.7587790518537032,0.009611757161276711,-2.4442206068175034
84,-5.864607790078978,-5.431171587863901,-4.11385750423038,-2.940822102266636,-2.197965498577229,-1.5473239017028557,0.46144295590425227,-0.528188520668176,1.2257569157456034,-1.6327882432558223,-2.733745895312252,-5.465928850045376,-0.9065484135355198,-2.0393785860862734
85,1.2205781808200102,1.1093989912079678,1.8388228580799697,0.1727354499520115,1.520594737925485,-2.051380002221512,-0.8865984189175096,-0.38073785882303096,2.0961281509908822,3.5702043851124903,1.1398835645019811,2.6899573520847366,1.1199083653899142,3.83389866813279
86,6.453135104077206,5.844345010863083,3.8069681428814195,3.2048701219869313,1.9656752718417783,1.865400205613098,0.07878740262888918,0.778115510458082,-0.9121721069981635,1.6082676624275951,2.540231573882883,4.824454486683351,1.4051516523998773,1.8140852707471533
87,-3.8552177138260415,-2.9495496192491837,-3.88922706584228,-1.4760137536809095,-2.317908494451362,1.11032206656118,0.5410241820704917,0.09446221537010979,-1.8215320903053072,-4.18842650053132,-2.7543753872097256,-4.226838018528078,-2.4214222333186353,-4.9835249438726095
88,-5.671370197089908,-5.130992683005509,-2.3276260266093476,-2.758898225595525,-1.2711848606165586,-1.7672846119875976,-0.23955159171754664,-0.9409925942830905,0.6830575215527717,-0.8854973292147533,-1.4060719668594766,-3.3201776144572057,-1.08060582250692,-0.816108028149221
89,5.967668517080317,4.214751646221772,4.960123764398518,2.3992619569782607,2.6639846394965647,-0.2792998986143553,-0.23232975631625483,0.12436117509806431,1.3649705980286944,4.31987871530287,3.596325632786471,4.868030085093791,3.3173695282399893,5.345338213234817
90,3.854308038216763,3.6567874616152802,0.27547584178251555,1.8549109377197173,0.34594370887258835,1.2865107325471332,0.0667647985053241,1.1088309831476242,-0.385936286484323,-0.2450445478676512,-0.14459460050009168,1.4690452019142488,0.1856096540184179,-0.42015660645569874
91,-6.983830583809213,-4.469094811771216,-4.7145708509862905,-2.7070801443440216,-2.40908873061492,-0.19709125793384905,0.24579138259952996,-0.31104184062127366,-0.7089531126229931,-3.675925670277314,-3.3973424526196476,-4.4195733596130085,-3.3999577874145523,-4.737873966391302
92,-1.6561004140699063,-2.0722286060777724,1.552896839394698,-0.879143567528576,0.4864647883535534,-0.6093140476109571,0.18535671016859206,-1.3253584541547339,-0.17704892543775796,1.2949626016472227,1.4329381073412832,0.10187383702786587,0.765993837100447,1.2419269289197579
93,6.748977115758446,3.7221894664236697,3.320617610230163,2.422771714806361,1.6041335438175226,0.19135513688138786,-0.6591217075689286,0.5489070828686973,0.03253865504860573,2.3030761854126096,2.3472048474798486,3.0692552831854747,2.6114707201488567,3.4290992979661974
94,-0.21825126000373202,1.0069488342860877,-2.4840193270967634,0.18211633003713878,-0.9316897064383972,0.0071961817808305325,-0.20633131775099794,1.5473806450439498,1.0910035005225287,-1.8015589366002676,-1.9306096313461676,-0.8829400126886646,-1.2226008099827237,-1.1757448246741942
95,-5.539408549505786,-2.4058541219673892,-1.365426083341139,-1.7926401726572256,-0.4859263808557634,0.24026754759005217,1.2994016342780903,-0.8921623245660945,0.3619902984400962,-0.5549282521182717,-0.9865469355878542,-1.317616146167582,-1.2769320603116572,-2.016281196981
96,1.2765171037544898,-0.7790400315845382,2.2318440799213306,0.06438747145675476,0.840497263941605,0.2845989062633065,-0.1852004772606707,-1.672460049841923,-2.2163112262075693,1.5258455308688221,1.4887390003863785,0.6697997329946381,0.8484651154459713,0.14564174681042888
97,3.9036371246695314,1.141843893666998,-0.4072458599759121,1.1537363370292175,-0.6180409971520404,-0.8814953721349296,-1.8421778984820267,1.3132432752508285,-0.21989918824616686,-1.0686437813155463,-0.05984886634531839,-0.21418422251090186,-0.04110822654256868,1.157141648112139
98,-1.3879797166461094,1.2735707383984298,-0.9841249089741118,0.08325925235184324,-0.26231675679099986,-0.17451085507529981,0.9299329440830949,1.61089372396071,3.203274620637409,-0.5372749025939879,-0.37952428914616243,0.3682228768810373,0.31481941101587824,1.487741604199229
99,-2.418574726416924,-0.42729326384830063,1.411223969436958,-0.772896482573338,1.422602021502995,1.460426052447898,1.9969465494850551,-1.7109407445293465,-0.49205236260730284,2.130243052491295,0.3737792669641028,1.022147234211569,0.8063297840142164,-1.276160593858336
100,0.770187817177228,-2.049615563745564,-0.7230832231661611,-0.40232624118613713,-0.5913549960292263,-0.25397685481585125,-1.7559464085354992,-1.350286731429424,-3.6424851249593306,-0.8401291771416836,-0.8628754720947533,-1.7690677313725778,-1.866990185165497,-3.08130521902954
101,1.4726774828832845,0.40981032483956636,-1.4330309013279152,0.7373131689660896,-1.7900929064244362,-1.774216611813027,-1.6702852011491534,1.9722403614841075,1.5160082545530449,-2.4138985553489936,0.08760742138744573,-0.9014174179681916,-0.7614071979730697,2.377351654019976
102,0.15728619650544695,2.6041397634308576,2.266542047994046,0.6362240106037594,1.452834696937857,0.8003209790716258,2.3280414849594173,0.9677893581626562,3.2753302708847025,2.178163392819479,1.7096791378954492,2.970651905280556,3.2458894949865047,3.9839662172208814
103,-1.1593610904981557,-0.865889177592481,0.6580634035417627,-0.9448393846608911,1.7576847987076687,1.7647278958303048,1.012934425706302,-2.0436875525730973,-2.3893396281315296,1.9737773708685513,-1.018914182471992,-0.001843883107759365,0.03768658661863897,-4.041425320910259
104,-0.9727569047319043,-2.636646504450975,-3.1941013276547436,-0.6242107773563834,-2.1153563940945577,-1.2527008737545968,-2.4275845474343933,-0.5826212377605613,-2.147150331803929,-3.112263400740984,-1.870485467102139,-3.528599389917237,-4.002162953346503,-3.809851887582347
105,1.3050258557209273,1.3728541002503274,0.47522602427337524,1.1859713287744584,-1.4821441975543872,-1.513014793711649,-0.33076473653138216,1.9628095312562843,2.646899440557833,-1.0727606457896803,1.9538106403614603,1.2798575702076687,0.9356476532877077,5.60191355269905
106,1.418179074501138,2.171811773738537,3.363355881186944,0.364490054183556,2.501995558262884,1.4780450249048525,2.059009463956078,0.2826497924632827,0.6158763090097478,3.455179360972388,1.3821854127139706,3.2673520040548123,4.005711410024073,2.5948954225831318
107,-1.5989519388122886,-1.5564778203484666,-1.4940833394361415,-1.2632302481538797,1.1423189429791907,1.1734296694024324,-0.07872144827559813,-1.8290296531044232,-2.0317403040574793,0.05892102478470875,-2.4978406685441055,-2.4419369860593263,-1.6691509954710706,-6.420224668929767
108,-1.4694170424734783,-1.494025997391251,-2.925298094003724,0.010070933991967092,-2.660467244302246,-1.4550912927057065,-1.4313337428110697,-0.07508254429526598,0.7879603192122185,-3.224630260797037,-0.5332647746647784,-2.311591496820381,-3.475997156153009,-0.7746904531111621
109,1.7573592901885757,1.269695962362698,2.0711728937614824,1.0827312770466253,-0.8560555492768694,-0.8977433439589189,0.06665002803775938,1.7348669310813654,0.6059833185438176,0.7580925874235901,2.486323659462066,3.099099340410585,1.8628431697743537,6.141633541667733
110,1.2946969199394884,0.960275078164896,2.1992312146356863,-0.3160615221318575,2.7013695722650484,1.2535789913096766,0.8408731146227576,-0.10653907822807666,-1.5729984077488173,2.5973059581584845,-0.3101575474639787,1.002732734061338,2.8298764861698014,-1.0020348274980624
111,-1.647748152012609,-0.6200146207015971,-2.101090248740917,-0.6786596837832406,0.6496953985457985,0.7886204968632433,0.32045615010468165,-1.7038774404645378,1.2847113011845894,-1.1869595357576677,-2.0067196440630064,-3.0818437491848663,-1.532532552134962,-4.8248552442940795
112,-1.1320828723965852,-0.8143441962633903,-1.5209691431351196,0.4104575417496684,-2.723119974419896,-0.9926212998465688,-0.5317399033060748,0.34491825103520374,1.4644728176337563,-1.8268179346543991,0.8743794684272724,0.24816905180820434,-2.443076987392026,2.1400216337767013
113,1.3219010642992366,-0.13653941187861812,1.6751239230557777,0.17385500005321736,-0.48237884975418166,-0.8863461792318551,-0.8935600670097736,1.6766307153809503,-3.1594835659863585,1.1793782162446194,1.3044259588768436,2.459365508278928,0.9550930156043974,2.893750121047573
114,1.1508757904524693,1.0992529652846226,1.130779688942203,-0.24341380432092466,2.7636887540764654,0.8067342357307086,0.6072041766923487,-0.6701624022684999,-0.4734012643061494,1.1625253350445555,-1.0665023436277041,-1.1044149203230804,2.4625723463586273,-2.3255262644306507
115,-0.9501868899339476,0.7471737413740063,-0.9987614603409858,0.28855943469557094,0.2991196989449653,1.1675984893519213,1.4254244139116472,-1.554796046984491,4.580722006069664,-0.813377629415337,-0.6430207947053271,-1.4750837250229878,-0.48099212267690317,-0.9403251062244987
116,-1.3678039877880792,-1.6875571581697977,-1.1263636748078574,-0.14150621606594155,-2.796526677323817,-0.8209294643699091,-1.0213321537471203,1.0265795706009953,-1.152448315051216,-0.7887261169946376,0.9612031761508832,1.3950813588472637,-2.7660466103972206,1.6169703656607868
117,0.6996052826589783,-1.069501624548189,0.3022008436820993,-0.6026938498727498,-0.07920096281373423,-1.5415817620315648,-1.744001953796256,1.2754472388145182,-5.2823296764290015,0.25541363862125693,0.19407873667487316,0.4416895438908039,0.3312412574761681,-0.522740833202814
118,1.6590791240879998,2.37972302067609,1.470068588220763,0.6439314893007712,2.763248021224392,1.1185029827339856,1.6321349750128142,-1.3001859735116834,3.0509860323314557,0.7861399162630227,-0.7192992906141487,-1.1381327207977285,3.072849760014659,-0.36833120524161955
119,-0.6281179754989249,1.0942239676016916,0.22636156145958017,0.7246907920076919,-0.143589519653316,1.8549402537343735,1.7762936267296583,-0.8660618803283889,5.207151470126417,0.28820581965347963,0.0018670092678095486,0.3606663872084214,-0.49135964642684005,1.24167161629865
120,-1.8547128268085513,-2.9998890602920967,-2.0256106229857784,-1.1520042290302082,-2.6206440754486513,-1.6970001647636734,-2.2735747624687597,1.3923976008416008,-4.875177756522304,-1.1133507412261878,0.49490341479903693,0.5075357823905006,-3.127153290443357,-0.9601356660816981
121,0.6572753914298678,-0.901501966612748,-0.47933398747199246,-0.6663546348570416,0.2954625278198351,-1.9296583312064743,-1.5407043563344482,0.4402981228154621,-4.461043945517654,-0.630226548915906,-0.006652767548325788,-0.7574368572982829,0.7484899276489877,-1.2579997384482853
122,1.852496472579816,3.444448267533083,2.6061409351202585,1.5748695452052837,2.3768647823710545,2.43701946317449,2.8099418311897857,-1.2922465577444913,6.375074183255095,1.6148537948497084,-0.377173122374408,0.23340754330532434,2.844634663282449,1.9968592509989869
123,-0.6356511922893208,0.5974494483834158,0.4459816275714943,0.47293485762185555,-0.30239893262006,1.637745484114866,1.1107955253995077,-0.13231383649415482,3.2256777953671585,0.6668147785539419,-0.07714604251581891,0.715988610016584,-0.8348454524277122,0.8093191288670014
124,-1.6786062213445612,-3.68079166325866,-3.0273908520821444,-1.8552883677022693,-2.098664901050637,-3.121134637935096,-3.1584884073659127,1.0958441233314855,-7.411289169016839,-2.0686799275228953,0.3814708802764655,-0.8135584072027408,-2.3473240484881064,-2.5636573324406355
125,0.4469775793151188,-0.2688649545665208,-0.20803970879909953,-0.2010812099356142,0.13476905655571603,-0.9779401972785118,-0.5772056057481847,0.010400166172661046,-1.682954288828405,-0.42421642216051575,0.16102012428665233,-0.34382665727319556,0.5882033651080022,-0.17409572439747636
126,1.459499788425338,3.7205176586322635,3.1617994853311533,1.967152981577688,1.8854783426816548,3.5151291804757845,3.286517256832225,-0.9540669768187507,7.91694461957533,2.272592473453642,-0.47485096928789583,1.0344897714313466,1.8803217959305756,2.66042500583005
127,-0.08915257092526668,-0.03184910981768858,-0.09007227565822344,-0.09407161577482745,0.16612402704391155,0.10043744783210551,0.023389217575259413,-0.028870451610407244,-0.011638970125525812,0.053898797946333114,-0.195832130912882,-0.1516414469786553,-0.041070167367605694,-0.4425548321511154
