,AF3,F7,F3,FC5,T7,P7,O1,O2,P8,T8,FC6,F4,F8,AF4
0,-0.028008903016574632,-0.11423271057482395,-0.07945462776556075,-0.04639751369126466,-0.03721973611435381,-0.02055069530498249,0.035511173811061,0.004053246310317575,-0.0247022030475957,0.05060316067166172,0.006259276475780415,0.023305207623338854,-0.028694886270812372,-0.013430897965140156
1,2.1690928059110184,2.507114705791901,2.8482738234506315,1.5175833538014558,0.8995761151313986,-3.679483469037504,1.368114041188324,0.43916283494658354,2.8008907681533,2.0114603989764603,0.7730598314932697,1.0192172906237347,-0.31724255311911176,6.943748810472059
2,-0.05087136303609486,0.8584587193660403,-0.12133390825553826,0.7596906912107504,-0.7201892155221112,0.23126295530229213,-0.3531635482391411,-0.4316850439221263,-0.7533911010802338,0.7356310163509421,0.8677465134060433,0.12734644445840237,0.2181597180282457,-0.23537956817083353
3,-2.308258236259432,-3.0525971915032772,-2.8335792948979126,-1.917854121589092,-0.643408423754676,3.4025051826163546,-1.2397481402149082,-0.2818963445328821,-2.434983316894277,-2.372576309841422,-1.3229933812629604,-1.0692940540483071,0.07390303429947549,-6.8724863643756215
4,0.3209348340654211,-1.1625643644562151,0.37646829743083676,-1.2263264591463983,1.3596807897396006,-0.319219596241826,0.5069128904061456,0.7222104554974937,1.2726292311922296,-1.4123594668780384,-1.330255112664967,-0.307684533019931,-0.33098833295811064,0.5120319688654729
5,2.3947481847211347,3.8030233335854935,2.7247252640398893,2.5408863062969544,0.19192296757894686,-2.9017221462833143,1.14826092597601,0.0741309445939205,1.8711286930699673,3.126983586806619,2.132366293540899,1.2529832066345508,0.34931952976117264,6.664909885468012
6,-0.8128972502817726,0.8341129855583979,-0.671207210053669,1.3132024195122074,-1.7866929883128984,0.19190775324922593,-0.4795038904931109,-0.8131928669594626,-1.3703277901175455,1.8028358752493434,1.1804421441263837,0.45989202629849557,0.3252202199203583,-0.7983386621568395
7,-2.2039296122221503,-4.295610621326699,-2.4443692845220975,-3.130729784932363,0.3538398505895896,2.2913328225403378,-1.2527155794046494,0.058275445740990126,-1.3679420508906832,-4.192087897461243,-2.746917782350406,-1.5931621267294418,-0.8940467772488077,-6.287218674796057
8,1.355348900377197,-0.012022543352170342,0.9168820700810727,-1.0550362457316518,1.9576199536709147,0.1876703629973339,0.4117558219866202,0.7325987190782439,1.0511924048175285,-1.7256030020023825,-0.5549025246733894,-0.4676412376603478,-0.17905697296654524,1.0268158676726222
9,1.6356563721683217,4.167174825412976,1.9687519824691733,3.4601822042088233,-0.868448219021298,-1.7091343586964205,1.6004597396452562,-0.012449590257496493,1.1908818406645945,5.37180377105153,2.822330730710048,2.0202642982900483,1.4992656642374511,5.754164429602245
10,-1.6728273426934503,-0.9080966209012772,-0.9864441982643457,0.6300797957832964,-1.899170577059486,-0.7857050307803791,-0.5233573813437171,-0.581650816359863,-0.5045083694669626,1.070562745838254,-0.16915550547058655,0.22476148309311303,-0.11735408928051627,-1.1119028810688236
11,-0.805004156861949,-3.3358059114452585,-1.369727510344675,-3.42910769730369,1.2431240613770111,1.2773973310200895,-2.051210611744718,-0.24690455077534984,-1.4919140560874844,-6.372647862196184,-2.2960113737433345,-2.3601405670064635,-2.107206232126777,-5.155064691351814
12,1.563048303162351,1.4775315125804094,0.7886672399165234,-0.26854976622741156,1.7044712654698164,1.504815451058433,0.9637942343764067,0.48911357974298075,0.04450790747899541,0.12225788060457819,0.5970988537275405,0.2744554932842941,0.5763121369244689,1.0096062555030347
13,-0.010708910084747444,2.0334725446725983,0.8009910373209085,3.097049036837255,-1.430735652746442,-1.0663155160343065,2.3191806133102904,0.673966821221988,2.216439175488758,6.8843735356659215,1.383661242350172,2.3992235115721354,2.651540149053163,4.631579358406044
14,-1.0332855450974594,-1.4162097516556604,-0.3383982328746964,0.14164363145955866,-1.4967435086436325,-2.2148429140982238,-1.685428008060114,-0.5593960669134483,0.01817118583983542,-1.634613852196894,-0.5214031698388384,-0.8873169739913536,-1.2150086717576387,-0.7680205711036212
15,0.5343625306737037,-0.6815058610963527,-0.4278032282180228,-2.639114941545511,1.4694563012986006,1.0766947725674827,-2.1207474693589377,-1.1613251947049184,-3.091278926542505,-6.692416841145237,-0.42563587093516164,-1.997694762483602,-3.035699701711372,-4.311815830640864
16,0.30380328741272605,0.7395315660237095,-0.22396311953643905,-0.2852039612832473,1.3705061480556295,2.794321252385471,2.423117586107907,0.8350590112307061,0.472998525101972,3.117007522812989,-0.009713543952725119,1.358078631171986,2.0291279885012603,0.5324248247019954
17,-0.6519490061560049,-0.3181203479159627,0.3362466789484187,2.2515543017752213,-1.4636429686185877,-1.249108230372468,1.3475705575006878,1.581816173062058,3.719718774644217,5.769891405027188,-0.3015627525265442,1.1867884792144365,3.1283734319551497,4.232603185108111
18,0.3218531680764419,0.26649691339157505,0.6842923694480716,0.5915521548831282,-1.3407765610559033,-3.163633449347102,-2.8051445236769132,-1.2860227589806033,-1.4214891803309708,-4.195163505381259,0.7741855126110593,-1.428410381987693,-2.945532442615392,-0.4908048166961392
19,0.4698936236265454,0.7662668451506573,-0.4754918364442766,-2.0541552981170197,1.5238081146544404,1.4916307494183971,-0.1633716067516271,-1.8352503369554638,-3.755433131557924,-4.308161776827982,0.6915051183252033,-0.19027035822312263,-2.8019621324530792,-4.294094579002219
20,-0.6310336877121946,-1.198560785832741,-0.855731379907532,-0.8696276564052569,1.3344768434630696,3.2980187973580795,2.543296437850631,1.827732708284901,2.4934886765318356,4.596615420013316,-1.525487369907288,0.9701546378818575,3.7920886247837244,0.7788803517028485
21,-0.23643512826546392,-0.7364581857656639,0.6713205784981482,2.0349340899269825,-1.69681739584108,-1.7104259100705224,-1.039577816070907,1.8814082416047992,3.074997408605515,2.670079527708313,-0.7925474308947099,-0.6520572359686442,2.008707436366504,4.28022492166888
22,0.609359321985109,1.732734152052468,0.6749257877664089,0.9430329695695181,-1.236153620869435,-3.2220274761300036,-1.5999353265635694,-2.360088850851625,-3.2578055059016497,-4.253095358070803,2.1040516454645006,-0.07034633990001785,-4.3256205872091344,-1.390896318954266
23,0.1867122819007506,0.505168640849728,-0.7092692414944552,-2.0623735869703648,1.9297593804792803,1.832138925867161,1.8115342378446742,-1.7452582464385857,-1.8548279298646513,-1.2744209955729817,0.7201040512741176,1.0295496270124551,-0.8501479743191316,-3.9466374990160054
24,-0.4237264806849202,-1.7639805423843293,-0.23961373351578144,-0.7386905527781418,0.964192601361428,2.994495489537772,0.2364979493238836,2.809528358316205,3.387765279080057,3.3381190556660214,-2.4614437089072823,-0.9829445004578536,4.3232205952456555,2.146200563644898
25,-0.4116497221878476,-0.38806879691949214,0.44573024962519775,1.9592154088010458,-2.093222029878639,-1.8164405184514154,-1.858343176682677,1.4920463834900548,0.5018905718321642,0.44537482903287057,-0.5758446724714135,-0.8052949293533264,-0.415126201101895,3.1405295805557163
26,0.30664416075725065,1.422626595617107,-0.23514963840164066,0.32202563132731404,-0.5307017377998197,-2.6904571813821643,1.0901255763794278,-3.153160884348897,-2.8197349733214803,-2.212258678326624,2.6225080100456517,1.8173137016120107,-3.6933493770442376,-2.7376596882122035
27,0.8217721797374493,0.5737836785615744,0.11091739577985749,-1.60067864614467,2.0521102456261655,1.6606121260313276,1.183846896472663,-1.1860225805062894,0.5311103473821949,-0.28698382796032584,0.4161948831215001,0.08397925994592237,1.447578132764111,-1.8962870081095005
28,-0.42048371430649195,-0.9692171019536643,0.5221191303001105,0.1402724453931877,0.0472393797273024,2.3814734581144577,-1.9333806159239837,3.4118837708466345,1.7819625021701864,1.2826429447308882,-2.640263064248366,-2.1427388141459462,2.541505825714153,2.8493554025747
29,-1.2107583038614047,-1.0443140473539265,-0.792171772376156,0.9844560426364934,-1.7417125929469106,-1.3952719428141283,-0.08520542416475217,0.8574264812688258,-0.9480440975864024,0.6491295671974745,-0.2573853870019589,0.837445819320116,-1.955391213419014,0.45763772103668965
30,0.7759689980784532,0.6352503628958486,-0.49731536731212456,-0.47014470526869895,0.32652700048367334,-2.117100659904989,2.058152820258236,-3.618014845329125,-0.6812193412476293,-0.8339087564317904,2.572706836054993,1.883637271991271,-1.1488693824370084,-2.2975417111121694
31,1.3696897213522339,1.6196201135439232,1.3417951958867214,-0.2326106424345994,1.2053346198470474,1.069730188137434,-0.9953660064398419,-0.4979009056268837,0.7238748143544541,-1.2148090536321265,0.08419457380397977,-1.6137557835106433,1.8109985981351944,0.7940675855108986
32,-1.2349258404180192,-0.5050643642447925,0.20921824498218689,0.5695003115676411,-0.45924993753592336,1.9149242618841549,-1.5331493199170316,3.780878656048939,-0.08480209688979554,0.9202842780244747,-2.4708340510124103,-1.2062711446596777,-0.12680181582529967,1.1338670944923284
33,-1.189365446159663,-2.0897731768235857,-1.538020557513505,-0.4755558616021579,-0.5762622804732636,-0.731725974481569,1.6815388998871357,0.08488146802751965,-0.08222937989787912,1.666636018782104,0.14836101781019434,2.0140742249583172,-1.0996669670659904,-1.4869364399469542
34,1.5799658852723812,0.5045939731391854,0.13449394671261025,-0.45985325263420646,0.3060868823505248,-1.7651176716072843,0.6708632499253521,-3.8757678811225174,0.2874420382301924,-1.3836591499153097,2.357010014181485,0.4281057083565034,0.9773717669651256,0.34212891192826816
35,0.709013934638109,2.3462201382478893,1.3097295276292915,0.9976556626240052,0.020205932286344666,0.41287579859233015,-1.8246814609016218,0.38604489113250506,-0.6336906296889613,-1.8332790224627675,-0.5027230088224685,-2.0178102713961192,0.08450827200803855,1.4253518210679372
36,-1.6098258375766532,-0.49249023542175646,-0.26177452977972115,0.24991279342040423,0.07847451214916507,1.6456807327479848,0.14591362457728688,3.8631522126664724,0.07297335182681403,1.983086467651954,-2.1971781161056585,0.13946158494652583,-1.2408457972277558,-1.682835026004929
37,-0.10229943558582115,-2.4291791615290363,-0.7896729154564285,-1.290836147070206,0.327042078248007,-0.12816423348195624,1.5355972741923534,-0.8877430183276722,1.1155525747315511,1.725512480816034,1.0186189561287227,1.7988234379524135,0.8859484780178729,-0.7004898551438722
38,1.2210189778107456,0.38347219490298534,-0.027293011050826706,-0.05813200522370244,-0.5710293277906231,-1.5360797942671796,-0.6533081241562593,-3.719924897008526,-0.8144239246304787,-2.543241021730669,1.8964887271583357,-0.33069312023004005,0.9377430194617622,2.476732209737323
39,-0.3838943514846836,2.4683981434228524,0.27357202683648535,1.4082084278753741,-0.39649382487657336,-0.11429860120230563,-1.078684779010885,1.3773087707319869,-1.192567702165699,-1.4498370330181989,-1.6574137077593118,-1.6155859695117538,-1.4832872806937765,-0.318981949821167
40,-0.45155293598566015,-0.2167545015757927,0.7457680218389994,-0.05477273095852329,1.0281361608524924,1.4200899449575453,0.8094267053718154,3.4548954953096995,1.679553670043774,3.017775171686154,-1.3432579362622878,0.1799929280661426,-0.2512511589520559,-2.5402369558083495
41,0.5126278039952229,-2.5674452533054457,-0.09677608429365352,-1.441615333168944,0.18834179543566776,0.3059427402579139,0.69652145216328,-1.82478652201369,0.8514240637291072,1.0785859060293566,2.272340469601871,1.672667733768471,1.4842034785203662,1.1302971504065165
42,-0.5215644547099667,0.12536175720914106,-1.6845451969059118,0.1011336122302805,-1.325021153435995,-1.2809690552781168,-0.7605478180300088,-3.0959648359617393,-2.4371407651626877,-3.4324790031621695,0.4904531699315586,0.12451841779785554,-0.526716529591923,2.0222464815506194
43,-0.13752145745453187,2.716508061812123,0.48015481055807224,1.4577860059188759,0.24632253240171534,-0.4411587297462433,-0.46993644712838645,2.2263733718037404,-0.19367083327199905,-0.5859233125670028,-2.643559481051795,-2.0260668846407253,-0.8245893322603055,-1.3214494521001643
44,1.4277337573122721,-0.23374663293728803,2.47933226649666,-0.12983043081807308,1.370552294725467,1.1006235953084968,0.6990863987035791,2.6633056708500003,2.9386830839854636,3.7702451571424516,0.573546947568922,-0.35112566352437286,1.066214587446954,-1.3571937699730656
45,-0.7396406905658005,-2.7931117771980305,-1.414355371702756,-1.4716979967833606,-0.8214114432544731,0.5264870513366203,0.2962966154803937,-2.5880322371759985,-0.6249703569741825,-0.09813788741432444,2.578610920419552,2.572299373026104,-0.37571440922977556,0.77538347513946
46,-1.9803297153993005,0.5592211615257703,-2.756145417463741,0.17509545430198112,-1.1077740916313092,-0.8696395250738315,-0.7067167539605734,-2.156917705170788,-3.129256111031518,-3.907287412450062,-1.6205746317179863,0.3354045163217678,-1.0829995568713577,1.0724406040729078
47,1.9507545208585442,2.645460644681815,2.637464847138084,1.4662284707066853,1.4176420744145444,-0.5823024761889117,0.00327827264999748,2.894095089335596,1.4402108502515705,0.9641750729538978,-2.0299989564613963,-3.112189878051502,1.823735123864658,0.2505070566885506
48,1.9690521730420916,-0.9846670502977958,2.2954516585228317,-0.23107343250623533,0.5217977997588322,0.6015463724122231,0.686697010120601,1.5743699963663038,3.036392246079984,3.667937821415492,2.3671832565660633,-0.04019782452609305,0.4315506935384971,-1.5311795779650237
49,-3.193466809130862,-2.1972651679663424,-3.721811740953371,-1.431658832844596,-1.8818834999917196,0.6292589875353699,-0.5196693224379119,-3.0922754089013207,-2.1065614485860245,-1.841139578675255,1.158131377922827,3.4449947692491265,-3.116994859937313,-1.221428233504655
50,-1.3418137075074268,1.3166870747294885,-1.1443850309864945,0.26579817960339125,0.33401244018067355,-0.3361766739428305,-0.43361450783597183,-0.9456131434004066,-2.7568208796072655,-2.9658965918028497,-2.614830017480726,-0.450501615818333,0.8176073388778148,2.733574056564701
51,4.113673439244985,1.5046029276005093,4.238869775129798,1.3896379782819999,2.0501675277486657,-0.6664961823759609,1.147872913412669,3.115242656273296,2.522562569497576,2.4388572370725936,-0.28962865050401954,-3.4443053307041054,3.8664188663088037,1.5663308895078658
52,0.2454867970672427,-1.3868058350968366,-0.37506431877502583,-0.2572777482040372,-1.310730405823001,0.12227592652295993,-0.20337920169178358,0.35228926886615464,2.439139815523696,1.9232326638351689,2.370483263518084,0.9827801973999576,-2.3627585434925185,-4.281036277748171
53,-4.421379419723161,-0.7348923382516875,-3.936572069467943,-1.3849246852555477,-1.807927227917155,0.6594295663087313,-1.616391235919786,-2.9279676401305172,-2.6620034746058527,-2.5025517064330742,-0.22162011213178393,3.0899252564427226,-3.8477468297933806,-0.9546400831657862
54,1.0000527694603434,1.1324899512795674,1.7727721752755823,0.2221434441277435,2.1726705651290943,0.014927876539660923,1.1756737718408832,0.09246764833439734,-2.246917315360933,-0.8669959403764916,-1.8745821757160503,-1.3943966664010232,3.7548903401573948,5.533819969702323
55,4.003001698688254,0.09042082853331068,2.854562778086248,1.4538488333602908,1.16535290702831,-0.5520693572373632,1.6435960306129744,2.5657950760123343,2.596153312375477,1.9788735695322153,0.16509086691164973,-2.458934740381573,3.113263384790411,-0.5267029878108517
56,-1.9995354922016195,-0.6178238605336525,-2.57439648676777,-0.21712125801436716,-2.667273379333757,-0.10131833301312677,-2.2137290164486334,-0.29689102578603527,2.2986800991343332,0.18932632714126144,1.5110655696678823,1.5628097016153397,-4.569250473508067,-5.895290543500725
57,-2.982623281041082,0.274076415096317,-1.3249637475119822,-1.5917084869328404,-0.2958940183791347,0.3034049225093199,-1.1217313185998226,-2.131989396205356,-2.4814148743309024,-1.0809368333685399,0.4111102252377437,1.6935497534616832,-1.994215430882355,2.38860735135062
58,2.4250577164720895,-0.0037883760369228575,2.508866537208221,0.3125650142426001,2.637803831864844,0.21487395245288124,2.953322519134839,0.24181085156670395,-2.607602931657138,-0.15149068588407938,-1.6376177020762732,-1.4340688773984256,4.594751761816463,5.088679783088137
59,1.6957162794611538,-0.2999422288540218,-0.1472508233107602,1.7391046528662595,-0.5068887331197519,0.0704461187812938,0.20651510875301432,1.7526607451566574,2.5029226143971317,0.20752088895717907,-1.1995426513619913,-0.9590589669075135,0.970875623623622,-3.9462199555156108
60,-2.149803611102344,0.5534378785270921,-1.6198325835170821,-0.5519213541380447,-2.1178336763084635,-0.4516166056285153,-3.1346977261144,0.00483809345298763,3.055740244058121,0.7460361457812816,2.4147595728057234,1.0345170661817038,-3.944839044864497,-3.291957320933447
61,-0.5725093294022873,0.028541939435051705,1.0777267370490502,-1.7968419024304776,0.9512034335920219,-0.475185754123964,0.7493962090272721,-1.5172233223883274,-2.793821112604251,0.237637035532442,1.7499916949666223,0.3967349217680672,-0.45751777641203245,4.619256645097314
62,1.3119168696055301,-0.8841672193453388,0.2512932546033851,0.9171693999374487,1.341822981063153,0.8694007007162018,2.7515865271692053,-0.319512460091066,-3.4220852927243404,-1.689732183220947,-3.7107703735726107,-0.4618487427272983,3.0213590313531284,1.0652246027664978
63,-0.029181544013508066,0.426327048401313,-1.1892115822788545,1.6666779223743762,-0.8881683620453903,0.7577674461237076,-1.3810618872330198,1.4401525119483463,3.3661315143952297,-0.02977305191894223,-1.6545063846957433,-0.07956442764077204,0.6019431719463051,-4.183421852521524
64,-0.2708304762904285,0.9156331011234957,1.08780323676214,-1.3195004282985971,-0.6503904583001024,-1.4386597557544647,-2.059769501256605,0.579819613156932,3.456241550290492,2.5440484653525255,5.124524992703485,-0.1511278239674242,-2.333189696103458,0.8935636971545179
65,-0.028405216054606604,-0.9184272949336677,0.5116546274836584,-1.302918813915908,0.3904251244202753,-0.7646669263644423,1.5045072548375835,-1.4623956889342113,-4.082157757858141,-0.7763407096237065,0.725961204812587,-0.01004214232275662,-1.203043964107056,2.8558699712707476
66,-0.5355005857545678,-0.6454931117042703,-1.921055043191356,1.6265608433605805,0.33441492445802506,2.0301824632737544,1.4413809609148744,-0.7143873643556513,-2.9722532326716693,-2.9008475243866183,-6.121421403204152,0.6935039261923157,2.2474547443548816,-2.0473005878185186
67,0.6044916417284476,1.3088578665687316,0.6449251736316748,0.750172755253734,0.2817153721783221,0.414283763217964,-1.207962473348718,1.4859781501651825,4.6785440286856925,1.8675945261024687,0.902808629878603,-0.03957114132670482,1.8000543747245017,-1.1790335974259438
68,0.7750400970897995,0.1424394409438816,1.978252403257794,-1.7214363014549419,-0.503218753532303,-2.4538026940353204,-1.204139375053673,0.7241628283417086,1.9338388634761299,2.551518882143502,6.234212037371698,-1.1250682169116182,-2.794474547543278,2.233130020915796
69,-1.343791080968236,-1.4998264296129182,-1.8272800566368692,-0.14182356757946546,-0.8098517704857757,0.252684000371367,0.7935997769736132,-1.4211286571752786,-4.84234732491798,-2.8006069761851844,-2.80469461282798,0.12977025494334268,-1.9034179857325912,-0.23649390834597142
70,-0.3639728822323725,0.4762567782750227,-1.273072203545792,1.5684361509177849,1.049438259952236,2.535803774156215,1.427057134712144,-0.6717368201954437,-0.5021645768518447,-1.5719897305987125,-5.2512153095909495,1.4813068575359558,3.6331524989762642,-1.6951771807940357
71,1.838244123859265,1.456983935314552,2.618726086374605,-0.35170777639074224,0.9689115235108781,-1.0738426149861398,-0.60753718649729,1.225347363179325,4.325998616032246,3.1820752144575644,4.4059634246011905,-0.21895587749563422,1.2581092770031879,0.9837468003653823
72,-0.5025164394446804,-1.0800958750558176,0.060841866648882276,-1.2480504729014943,-1.7248428947404197,-2.2003695556733027,-1.9331507567000903,0.6478905708737565,-0.9822973606128235,0.2910698732172221,3.312554654097113,-1.82372594801551,-4.209446497654698,0.9298021692069374
73,-1.8108612391711407,-1.2121802772862382,-2.7804924118427548,0.6080225731316354,-0.7164413138972036,1.8226862823860563,0.8547466038498291,-0.9212081974297079,-3.0669676247814195,-2.827805856299886,-5.1994725834253055,0.34893997928236914,-0.0003487041438190565,-1.0162873528654643
74,1.4475242047544752,1.564723258001731,1.289992775609746,0.9308836794391864,2.276034488662224,1.514413436052528,2.396895694815146,-0.729295123861378,2.098775994721911,0.8441827618887571,-0.8697254754176402,2.1657065134898916,4.03730657229518,-0.4271463794509986
75,1.2319999767929983,0.8411662583631989,2.2999243002271657,-0.6273408080284937,0.17791153065204343,-2.30105422626598,-1.4983892805470898,0.5880385464183572,1.2574052325105805,1.834643157098263,4.934350771924675,-0.6053363244543533,-1.3853658720994306,0.6213769928621525
76,-2.0893988344529104,-1.8785930697146762,-2.44298604969588,-0.7912740996655737,-2.558778881685794,-0.6699036273314295,-2.5212094837257633,0.9420533198339528,-2.5053706058571557,-1.4487785644711069,-1.476737400555971,-2.428230046357513,-2.956586356001747,0.44022310802720976
77,-0.3119231844416162,-0.4229124277186784,-1.3424184179498586,0.5470909221701977,0.4491752193549192,2.424654434891716,2.2916540736995294,-0.3306669451820329,0.6871088533193707,-0.5361499599581421,-3.7013789018567267,1.0337401158594413,2.2961358773258773,-0.23427375049833768
78,2.2091511904294,2.021237247430203,3.189809287199064,0.9018790537361163,2.571961085817022,-0.09302196885485937,2.1855769763055743,-1.2439886743238011,2.0945588675050244,1.3484674826285097,3.192697432461082,2.4652588039403898,1.2275621611217813,-0.8923865842555163
79,-0.6217727309129603,0.0022180098250804553,0.15030123891839817,-0.5741597398438673,-1.0055510652598676,-2.2594943542073214,-2.9153558864079203,0.23585797350131824,-2.270058861055687,-0.6354386142722339,1.8799999656338513,-1.5695909115580755,-2.308609593191064,0.19615454037826568
80,-1.8256474609806612,-2.0128775607052254,-3.4694382673090134,-1.1736094947143765,-2.408171349134999,0.5887874767413116,-1.4902933693024238,1.5330668786582842,-1.0632964851304327,-0.636547027249392,-3.9886142855761735,-2.1526975296622424,0.5895016742664092,1.4583408977325296
81,1.2929312415207954,0.4193020269533887,1.0525294068370126,0.8630457001395406,1.4309098352783705,1.9886040057011298,3.139914798594525,-0.3315654391880972,3.117207521759264,1.3190378227858508,0.026201806934791173,2.03737859272974,1.3872363479322067,-0.5796907555627198
82,1.1470215329610511,1.856935898355045,3.327099773307323,1.3884114990053622,2.1675717603742513,-0.7659033039288492,0.6849387636780618,-1.6808218737924236,-0.15417990270365578,-0.37669571116877143,3.8883217218170953,1.4878211777947077,-1.9022308760744824,-1.7659673537224834
83,-1.6011395573027805,-0.8561165431795779,-2.1108275890580943,-1.4108895422275993,-1.752954240627514,-1.8229140035900098,-2.9259230641989453,0.5637506030034131,-3.145083754166083,-1.3575831662744147,-1.591495626313647,-2.233334684869214,0.10157268159278167,1.1644256187023971
84,-0.4342697150089006,-1.5266317870645207,-2.8543513726676246,-1.3180265950582821,-1.8935885204686964,0.7232103818600142,-0.032269106519389676,1.5814674340590742,1.0744181387544325,1.2924822086429868,-3.1639159882359777,-0.6303055853928382,2.358124155808286,1.6113860049232067
85,1.6399073259702428,1.2969596706347128,2.939622523576235,2.041176708773637,2.029678982024805,1.899845554089843,2.420934113836798,-0.8010258579610101,2.602899688161344,0.8484021651216278,2.6176296765597673,2.0496472977105986,-1.5646781116662776,-1.5663324222403021
86,-0.14169473499702684,0.9904754022865835,2.146357822310505,0.8619991567563112,1.5623348011878455,-0.6543221065718784,-0.31508889310390514,-1.2020069876901525,-1.388083892810503,-1.77758788686133,2.171222711600615,-0.1544859348596114,-1.9867475620809936,-1.0799567021072138
87,-1.6092390803194572,-1.6859442279484003,-3.5001429017556305,-2.4973562256119934,-2.290782729541754,-2.220715161237193,-1.8700488845029324,0.8706529849423134,-1.9546646062415267,-0.0992722391521448,-3.163419229763124,-1.5634033568747991,2.446509977019919,1.4530835393703128
88,0.5715452277298755,-0.2569475730640288,-1.2878421482557663,-0.11565281347562942,-1.117925110846401,0.7495673746932346,0.36824215211138744,0.616070999054659,1.1052419766302097,1.6914080714946216,-1.1676996014624463,0.6295848877062361,1.1585845352050081,0.5147492838664992
89,1.6812397555481309,1.9482319979880725,3.775964786575773,2.594199639684808,2.51206262164336,2.6574060857008197,1.4973448068439332,-0.6206215071678998,1.6533803538869576,-0.49304024813505526,3.442359404767422,1.0257592839670118,-2.4520187438588446,-0.7388045580907456
90,-0.9772882186578343,-0.6042434741722655,0.35719667837908015,-0.6833937952871754,0.5212386399853101,-1.1067673500358852,-0.2752545843233211,-0.004341054689674911,-0.5438313887951393,-1.1438426171837357,0.20671135343843458,-0.724319574601579,-0.40315989457949497,-0.34634040263720467
91,-1.8975933208529343,-2.0416727416543825,-3.7611578504691976,-2.329303829475004,-2.6280007086571957,-3.020825112215819,-1.416187464926866,-0.008820269547512524,-1.9211611853742734,0.6029436115711647,-3.644712640740787,-0.7430840181583187,1.6386178764014732,-0.33881047442070295
92,1.5097067227861465,1.4918198683923278,0.5660289940662022,1.3018162299352,0.21859236410136929,1.694903763235514,0.24262860505028933,-0.38985959414313504,0.16408392899721763,0.45755339273577117,0.8340978237489828,0.5913555229790558,0.1854639647668915,0.8635620944430247
93,2.1513208765254785,1.9863468654852336,3.4585327106091643,1.8769491579202655,2.564685111728204,3.151090726380122,1.5984077087742488,0.9319965232914782,2.6486924048256446,-0.11798462757910715,3.7860964669451644,0.9087052667980595,-0.36290389713603355,1.3039599272662896
94,-2.2383982243168385,-2.3350314042869185,-1.3958548561478914,-1.6541229377632896,-1.041069271070808,-2.382919729995932,-0.44673295382579814,0.34608879163893824,-0.33445708834588667,-0.036696673469997235,-2.105585313948738,-0.5394954754479243,-0.735151167766846,-2.0372997254882006
95,-2.2532997405197923,-1.8370337235665422,-2.884773138657252,-1.4645214253812537,-2.270291559071297,-2.9817388371155182,-1.9000995519405643,-1.9142398895697674,-3.463139510049441,-0.8002434627673748,-3.6765636491609843,-1.4796194539542162,-0.8704177911334785,-1.6593895973657218
96,3.094356815996801,3.1335361551995713,2.0366811532422413,1.843855159892765,1.8506530627697124,3.009783624287824,0.9671805377607519,0.23302899811788075,1.1500987689376987,0.18698945136527953,3.609029886499508,0.8700818269205882,1.9776254524583927,3.491542404698975
97,2.0403579278191373,1.6140189360907584,2.084854287582006,1.2155162674517377,1.7317499151115325,2.550251452432976,2.1241437067227937,2.636195159432511,3.92348257801708,1.7764154275445827,3.039264436421051,2.1737543154290746,1.5899533216930737,1.13534146787394
98,-3.890222510774753,-3.931177242241175,-2.3882680405598733,-2.072989253953792,-2.5370368428978463,-3.453561517893127,-1.758139576735034,-1.2522145064497283,-2.393185416143843,-0.9682123126840211,-5.103214649825256,-1.7039919957358316,-3.5688889601907787,-4.649782243636388
99,-1.4678298323000183,-1.25196428107211,-1.1550625269586887,-1.0697401911781812,-0.9811574180606063,-1.9600795109551723,-2.0966595423962175,-2.813664089707397,-3.7385969527501457,-2.388266185648631,-1.717236411133453,-2.598422591976527,-1.5149506552579886,0.15230815332345188
100,4.403044841819343,4.7335611052682465,2.371782689457652,2.484302727868214,2.9924909582480885,3.6656026487481137,2.6629290734210107,2.428531872936164,3.64686536926375,2.158400607209039,6.172037481383781,2.8969955474429234,5.011650330010499,4.998129653196279
101,0.6440171444646627,0.6220997972680101,0.2577436923147037,0.836902199497275,0.09987481015668931,1.324206740827963,1.7352011760912809,2.3253388093850775,2.8991977983640687,2.363428124715235,-0.1574413617990642,2.4452532880597917,0.6514374154617402,-1.7220071844095006
102,-4.478464205176551,-5.431925337574657,-1.9795047298728288,-3.049244521184371,-3.131662413130034,-3.6621048456312417,-3.46989985565704,-3.38544179406285,-4.496789605406559,-3.357055884003068,-6.43408773399576,-4.094689351476745,-5.822425328522269,-4.342483125152146
103,0.20735758265144022,0.37112536666989404,0.40067611067072045,-0.34356897410299897,0.7811680826121464,-0.7237844236829287,-1.0849967851114615,-1.2837961302901795,-1.66588690206832,-1.703631918384303,2.1515235402582467,-1.6460144451465952,0.7025424049397064,2.929118119975276
104,4.109220551462196,5.801594252605228,1.3235537956972039,3.5788608342782786,2.920022733563069,3.490458935110581,3.994757990693691,3.8030735076465763,4.7167858820380495,4.177955352276248,5.779692771804091,4.899435846452759,5.706694571118455,2.930799756544721
105,-0.8409992931819483,-1.6790985232097941,-0.6416112003979637,-0.4316509310686605,-1.4975980251820395,0.19863251868058604,0.3031898905497815,0.004351389278143726,0.4294110548541496,0.6675686131596387,-3.7105312674039244,0.4043551880986485,-2.0597912120348263,-3.2646080959653654
106,-3.451265446336343,-5.595038389637248,-0.6395569166128611,-3.8457265420678426,-2.4033690416498854,-3.197007720114347,-4.1566184430342625,-3.5540876925349125,-4.351287029684721,-4.428194384855026,-4.484261835620231,-5.057321283347139,-4.678659954488707,-1.3691731674325025
107,1.1010281219144915,3.0640035753305384,0.4094784161652842,1.3268598644014067,1.893647390191078,0.23683366818046742,0.4099934221524238,1.1222135271352272,0.48173627865404844,0.3780508816719995,4.445805790170058,0.9102770144790334,2.933893143878484,2.6091269007836297
108,2.7640152996933263,4.682779504401792,0.21628517872155423,3.7291233023295383,1.7166270409308317,2.814100351050581,4.007660305153078,2.753987514214752,3.661538428408613,4.17495144475608,3.1036731340676433,4.563441947989895,3.061350264376189,0.3567233323438613
109,-0.9982782239465293,-4.16306451475884,0.16951117798930296,-2.0853372440022855,-1.879976596409741,-0.5724756631076449,-0.9036279288901561,-1.7922446508802319,-0.9509042324230178,-1.1539796188799687,-4.3616886077704855,-1.9423838988299542,-3.0409782534834426,-1.3133189902772209
110,-2.294276580393595,-3.158211822756343,-0.2705671194676286,-3.2868150191270606,-1.0537033326421303,-2.3668871316510507,-3.695061477627448,-1.6981509962384669,-2.967618184927506,-3.665089990019837,-2.185952795385546,-3.634948114871402,-1.3491148294694002,-0.3553933734622254
111,0.7109531402648007,4.637727612414924,-0.8169551055417018,2.4989874859099515,1.4776580519874831,0.7937262296582647,1.1416700742982686,1.9043637841264431,1.1075689312759338,1.5978121726461936,3.872012910838736,2.50290039830903,2.4115640471694797,0.0510839974504913
112,2.155511438033317,1.339364864168701,0.8335961913271872,2.713788999972376,0.6033130116970282,1.8867295111544733,3.3738462900672705,0.7209058364101089,2.467800342346304,3.1493014678474998,1.9574611323762448,2.5791917409062504,-0.006907505133910606,1.3528149749627314
113,-0.49779065135167977,-4.330237430741574,1.2215227644007398,-2.5127635391480094,-0.8193961708932628,-0.8891383346798084,-1.202108519316286,-1.5718772401411178,-1.229318087693202,-1.8532627044457521,-3.5724131107159205,-2.6175864436352527,-1.3494150553541149,0.4986147855030694
114,-2.266238145242707,0.3412964412247966,-1.720513457063079,-2.2245712909485165,-0.4806098042552537,-1.4161558726527301,-3.1225287857487807,-0.05372317481424976,-2.13039595177109,-2.7206003298496237,-2.1757054646860263,-1.6393474698745363,0.77645338968183,-2.843795297450528
115,0.5598154689201129,3.3442242705087617,-1.1889528976630763,2.2310414795933236,0.10269593476407243,0.8643625817938598,1.2106967982119778,1.0367804875775026,1.5609574074306138,2.130020765297469,3.8868157424584706,2.4600071901703693,0.26411163956090616,0.00619320597917862
116,2.3885625632706726,-1.5062297878211623,2.6103743963549104,1.9388141731668762,0.6898718938860501,0.9994104361585182,2.9127627632322763,-0.24689951051264847,1.720183694108577,2.2687988175246487,2.2519732899924048,0.9019190067083431,-0.9984182391310533,4.055675407928062
117,-0.922391210340865,-2.0078146245796913,0.7383182212467786,-1.8344961971036984,0.4815968939630682,-0.7483161732479277,-1.252362768183057,-0.5420413216468171,-2.1476632280521164,-2.525910296544754,-4.794052683021315,-2.2220719288823867,0.5197781213740545,-1.3776579474175679
118,-2.2556318616162443,1.978968215887623,-3.1976672364546066,-1.837556325406314,-1.134822563896815,-0.6652994054763365,-2.648625091773057,0.2783669731751937,-0.9513409604064694,-1.5794266249157765,-1.5858052064758221,-0.30552471586729724,0.892768960284894,-4.318473601524067
119,1.4066475168923573,0.7390733965853918,-0.08878024275602547,1.468740632521026,-0.8098628099922317,0.5840659181269721,1.315744408203905,0.23174179722579005,2.778715721171347,2.927770988212307,5.801117845498254,2.0016521827040616,-0.8712860389694974,2.963167342093909
120,1.723738710111889,-1.840245720935931,3.333982735810661,1.8059400184757164,1.665532246364608,0.4158591153369048,2.2470404489187623,-0.20732360183883683,-0.3143266313737365,0.5124279451920979,-0.07665226656542445,-0.27001933820552343,-0.7122968708990405,3.397807275588221
121,-1.7136344445802323,0.12090405944637976,-0.455529171097264,-1.174030258537768,0.8508527315349805,-0.4092312306705381,-1.3021115746894663,-0.12006441612943834,-3.08191392620541,-3.0567493160675645,-6.185237081195699,-1.7661599048072378,0.8429487862500442,-3.9471964652606726
122,-0.8653538717395032,1.3741597638165466,-3.085646866370184,-1.7244470801615148,-2.1343904514182745,-0.2304984005771738,-1.708510631517174,0.17685403814816758,1.9372581599054102,0.8553137131868545,2.4630702562518927,0.8960021642747616,0.6286931756772123,-1.6192875340589084
123,1.580741404120236,-0.43268129340127076,0.658658088137706,0.8909470841074938,-0.6534802147656666,0.23921920710692562,1.089451209670052,0.12560966531076342,2.723566756668377,2.63091211643364,5.371082296510636,1.4013320100041573,-0.5852430416528785,3.742541943490837
124,-0.051219297002546224,-0.9351665255250555,2.6822103643797863,1.5474139093815453,2.436579567611898,0.08390384150381863,1.1375161825247582,-0.2505847345800287,-3.5185349941845656,-2.2150573251298296,-4.870671039005964,-1.5319579260142475,-0.698237594275086,-0.2813822196122414
125,-0.9268591301135695,0.29190955546597747,-0.46398185795107283,-0.5268555567319352,0.3128666760255993,-0.06505259729047505,-0.6128247726173249,-0.13699220442808155,-1.60552230628271,-1.5462090153025885,-3.239209365713274,-0.8066166445142373,0.2571794448155638,-2.2743459519021587
126,0.6877367637883154,0.7974510917347636,-2.3891207875739107,-1.3242034796108277,-2.525503875017958,0.034031701630794754,-0.7029337268511953,0.4078829513328824,4.564908541626161,3.15004674148596,6.4798316613001115,2.03822274617879,0.8892287834061892,1.5059268600520244
127,-0.0929346820638495,0.03445301642190268,0.011102224532349231,0.03413842426099756,0.06585723570123592,-0.13245279698609505,-0.08270786453978637,0.07175815293160083,-0.05104414357898221,-0.029999054092408918,0.2107713016983926,-0.022134669430105204,0.02456970318291781,0.01708880610875769
