,AF3,F7,F3,FC5,T7,P7,O1,O2,P8,T8,FC6,F4,F8,AF4
0,-0.0009159053110869429,-0.03895146676903477,0.03147108974896979,-0.054768966272348264,0.010164363661888502,0.018761945890881957,-0.022766211334308506,-0.03315395564684813,0.02533504603050825,-0.07197678274406194,0.026174567708291126,-0.07415823342072568,0.05135754079318757,-0.025661854432797983
1,-1.2123311377268196,-0.9971222862856957,4.215922956465177,0.6521661212148182,0.8727901704568259,-1.5603615104008306,-0.4795302028496039,-0.45826345590987544,0.14174813716618073,-2.711682798428051,-3.6756761231190067,-1.8630157593352257,-5.069475339492465,-0.9878867827208239
2,1.4639226756705883,0.7633442620290585,-0.26887728593509175,0.23132276482767594,0.06315654332907818,0.29967401840659674,0.2877945706929399,-0.1859356705725152,0.7932777839514151,1.072352008102275,2.7851924565526107,0.877071541588442,1.608437462259678,0.4478712505702506
3,0.7143807095159738,0.7326907977602269,-4.004017512723141,-0.5877236270829812,-0.8505308353432204,1.2935451883378193,0.3128523256130311,0.576909224167673,-0.3361227547085225,2.259563293459429,2.2348386445559125,1.6717122981380252,4.452665885699797,1.0418712220832618
4,-2.623971235686992,-1.3103421903366932,0.47988278225184355,-0.4950221673483257,-0.21717714571460917,-0.4732257275277325,-0.45881989211915714,0.32537992498262003,-1.45362467810985,-1.7686460529547456,-4.726630198255203,-1.5819500026969362,-2.9803597400117323,-0.9421121126816001
5,0.09611093599654148,-0.33687403453807957,3.5760367466072354,0.5277392804075051,0.8967316591638902,-0.8739031882706547,-0.08917112454572626,-0.7703825578593374,0.6495002751940154,-1.5461733261623636,0.07335704161667966,-1.3405314532116874,-3.2383548825236383,-1.044250193678532
6,3.2943513683781487,1.5960456152002631,-0.6217033182180689,0.8794868666137203,0.43065726495795636,0.41965388960388206,0.5200435917331122,-0.33153449189466233,1.8669148541173537,2.016951520642418,5.289219870488762,2.123009618681941,3.746362454589186,1.5178908358999534
7,-0.949815936017901,-0.005066777280374109,-2.9136937459945496,-0.5926815831104081,-1.1008476578366335,0.4597505539377636,-0.10502505976592934,0.9577837476742429,-0.9328207719239442,0.8813594273989552,-2.3416195386964125,0.9589884648026955,1.7118194468561168,0.8909933196306806
8,-3.4607400945002453,-1.659912539007302,0.613077309169101,-1.3078154586122483,-0.5739184085669952,-0.1512277600007039,-0.517001951663504,0.20559540940356477,-2.0592554946932697,-1.901027709482791,-4.554447939124299,-2.4815852286927598,-3.7022881625538306,-2.0855524883752525
9,1.5829881638855126,0.1296852392213894,2.041515570690155,0.8529833012142559,1.4379965178713976,-0.20900893000657597,0.21874024596627206,-1.0661030855130755,1.070160462637677,-0.49332448444949195,3.7227609106589656,-0.6237111944487244,-0.3115546826562107,-0.5302105219560829
10,3.2773034201577165,1.6536358135970122,-0.362093610563319,1.6280801338336468,0.5039794064770908,-0.2261844195772455,0.5266807057650347,0.003814103761159282,2.1474647826518036,1.6577467770950798,3.154394114028054,2.6905042740938185,2.874860845329989,2.4890159507340237
11,-1.8403254285440083,0.025025313534757333,-1.0438698832973672,-1.2663875671150258,-1.7403067608395595,0.22087669343159588,-0.2617997456353968,1.0594346092605578,-1.0457778530760398,0.41844411413648047,-3.804292576740351,0.40554743307723595,-0.48516783151044135,0.02110472505659805
12,-2.994742433509985,-1.7751796676485159,-0.19140741349357454,-1.6996435935650689,-0.19457749597985538,0.5478658084986779,-0.606950766576993,-0.22708499443657765,-2.2621843911657575,-1.519135630383349,-1.9776971453059222,-2.8173449595637754,-1.5876932715634366,-2.5873942185728613
13,1.7331102220137296,-0.3791452400033386,0.050936696845430014,1.6827270262203269,1.7853560334638374,-0.4970098154754178,0.29139223795172386,-0.946109285224157,0.953337850789779,-0.5182335937316783,2.7865143514302853,-0.32523721069618616,0.35550750603154935,0.4674177236895254
14,2.8475377396457757,2.1696025342733285,1.0438218603241913,1.4755803680978434,-0.20138193415086184,-0.6477223436990162,0.7553518315960888,0.4023637027821458,2.462445348235737,1.5767749764115946,1.7491332702734432,2.9299077601483114,0.3990821391173719,2.340784940941785
15,-1.4243485945633618,0.7381811054839149,0.7975262785102404,-1.9107082666621522,-1.4473537006187804,0.9366935740635499,-0.3627219769088787,0.7656870124058627,-0.9383638939164273,0.6004792106774605,-1.3694512261110934,0.3530279560139927,0.6863840375956659,-0.7223316833891127
16,-2.9488692022515997,-2.843362682027229,-2.122726412953196,-1.0341711644576823,0.41493859838191494,0.41947374339904675,-0.9080722309612999,-0.4926667148497117,-2.695019064902514,-1.7521953206150118,-2.6853817736105383,-3.0613860253371605,0.09965682600894757,-1.8541800728497664
17,1.1433202160565403,-0.8854866405726741,-1.3891583680107515,1.8058871595833643,0.8049602905126871,-1.370119383111458,0.4733163398938714,-0.5683144853784419,1.1080969864243475,-0.5544390770808598,0.39742860901973515,-0.4341357948138985,-2.2277642749377464,0.5887212400966225
18,3.243917909560357,3.6428743945389654,3.306960763146617,0.5479852784159907,-0.21842384255587458,0.14060899876407745,0.9884530653400492,0.4880127027596487,2.8246299951459677,1.8785674248591353,4.4021360439641475,3.1957806177760695,0.4503019907246127,1.3520474218015677
19,-1.0668222427963578,0.6970872949717335,1.659302928301056,-1.333757403653406,-0.1235551693844346,1.6204878831857845,-0.5431267068613632,0.3990292782395017,-1.4657847472881345,0.4109463210212829,-0.4393848323505554,0.5257967394694617,3.578495082100759,-0.06150525581832156
20,-3.5490086933362135,-4.319548841351567,-4.455963482622062,-0.2142473994596758,-0.42486080031770385,-0.9284281375328003,-0.9793251098919608,-0.3991190410287197,-2.713826705137921,-1.8247846417339906,-6.1207462279538705,-3.2827913771836097,-1.9738335267610971,-1.0866375160829742
21,1.2262619944291555,-0.21466019203940379,-1.5931252166001366,0.5838450248906232,-0.2863268799275073,-1.5718512732173755,0.4559378271142154,-0.2913405322033711,1.9086203787431495,-0.30147087634905695,1.5196611499222026,-0.6250337618769078,-4.045473315611473,-0.6821846833125788
22,3.661283099852862,4.653731273694187,5.43291477387834,0.18259397031081553,1.3215067276840489,1.7708998107324776,0.9687120368902737,0.25147440869659593,2.300031228687027,1.5772465000051286,7.064024724036534,3.274986768181937,3.9386190081272363,1.2167593135584593
23,-1.492910294853119,-0.3709738955209984,1.2207590977440708,0.2610515211224877,0.24641177026004019,1.211755839950545,-0.14713485086016287,0.26552062995236764,-2.2835497161433613,0.3610554778960322,-3.1321918734177983,0.7713077040785988,3.2438051025481043,1.3369747781482155
24,-3.48211153227423,-4.569537005237528,-6.118384238996799,-0.5055282698720011,-2.150569130377545,-2.494497193203964,-1.1258018014771634,-0.08271210652673062,-1.6256045233666792,-1.240207965275705,-6.832753597656137,-3.1686482576635067,-5.546624012304191,-1.7155796388239117
25,1.654737036204915,0.8226939886100864,-0.6157993141005427,-0.9817363317381534,0.19156618150619467,-0.625286166491849,-0.31572520328589215,-0.32479494361283656,2.459659431799143,-0.6443158624150581,4.5173436059524,-1.0199378214260968,-1.2926541421631834,-1.5951607164576682
26,3.0838931518548485,4.171581650229912,6.4224275367375245,1.1199630191580092,2.6431640025603067,2.9893363005623295,1.6049098570926623,-0.061645530210233876,0.8138272528415186,0.9755782987803997,5.573032649356146,3.0265557273339727,6.068182099786528,2.359282828338417
27,-1.545049216924515,-0.9878296855116795,-0.10382251424134331,1.3884759589808202,-0.7905182127953114,-0.05717483807042248,0.7210667622751846,0.44866579995287653,-2.375134657655301,1.0944932825809033,-5.044200918812601,1.3959082388224289,-1.213053929550344,1.2896371734909802
28,-2.678150643915333,-3.679252469997099,-6.303186884687227,-1.8605300790768864,-2.7220801099396423,-3.2328085088907805,-2.425984005734138,0.1407310078877917,-0.016568843503538277,-0.9282011662545157,-3.865304856823096,-2.9657268327389845,-5.162601442021074,-2.81108600441673
29,1.1487165152786498,0.8769134029336079,0.7833778146083606,-1.3831799275678034,1.2806879818146648,0.7258172284569465,-0.7979493774528532,-0.591145666311632,2.043570085441251,-1.5620700159389873,4.49724805335338,-1.850044060361825,3.4537392052482976,-0.4848445226090878
30,2.499910399679984,3.2983505642157,5.7897868989127925,2.5056460351984766,2.5136377092530933,3.2610699535587675,3.407111351065622,-0.1383940698030378,-0.6343003903735692,1.1663294561428688,2.415210163440447,3.106315076005854,3.023589084971076,2.766640445501156
31,-0.6218110772126801,-0.6416782638938637,-1.2577037317892075,1.0014853293470434,-1.5141302034998312,-1.327293780627142,0.3658432570534168,0.6935981138385477,-1.5313375011088173,1.8521472310486746,-3.132836043809297,2.2453601271388925,-4.737203266890515,-0.5308734504959345
32,-2.674250708085364,-3.110428743172721,-4.996039638801281,-2.8523598386135145,-2.233980106221588,-3.1137058723645117,-4.205729156998235,0.07909101411419495,1.054677437471204,-1.6433719612719138,-1.7201973143581766,-3.4984680762068483,-0.27521621751005865,-2.0950488567950565
33,0.21129305249924413,0.46871083958809734,1.3959512008970445,-0.4125201512617596,1.5193375554207376,1.8487194143352619,0.5305144583152317,-0.7129955463735802,0.9257156041836385,-1.7905974895873011,1.5019545289866336,-2.3941739535257685,4.771881995148302,1.3519032028694302
34,3.1423311052936054,3.047768682198703,4.108827173383563,2.799193990574314,2.0373352752829392,2.797435567736383,4.466979951675834,-0.02391368523459696,-1.2143000521100318,2.187207557154182,1.879402177373551,4.064139317661928,-2.3199820829091133,0.9110947396693069
35,-0.12044256507494598,-0.45940406926539845,-1.1495388312797286,-0.1373367752244685,-1.4299688189659037,-2.2687204628664217,-1.5861029849683743,0.6521553636721134,-0.3063045412564571,1.306292675455829,-0.1550775421901393,2.143600235070286,-3.7272898025379897,-1.6156912836917643
36,-3.6889911605372343,-2.964560207190708,-3.344680621790683,-2.3994848058862086,-1.9335654195357683,-2.2989114053561805,-4.012111836785157,0.0402827804064782,1.1261079996228267,-2.5392834585412274,-2.6224860119796194,-4.596631221411752,4.177212709577221,0.4540356378511804
37,0.39606367442319196,0.572962069935291,0.579308278367898,0.42292097775976933,1.3516202422120551,2.521998214607484,2.3386206867718755,-0.570306849083755,-0.2744765861647423,-0.5065814857406806,-0.6088213103981195,-1.4745198107382818,2.07284120885046,1.1478100345512379
38,4.055386876910115,2.7522811787115735,2.8856270771778965,1.8512572486743069,1.8250695820279323,1.6347499925114266,2.966549884538643,-0.15733187739410456,-0.8238381190258406,2.460842270902975,3.513548299116161,4.839862721792909,-5.063930610548685,-1.5712743659376862
39,-0.8992649785975555,-0.6651893053275154,0.15675531608183552,-0.3383091711616271,-1.2701753012904935,-2.513901832770984,-2.373615852833074,0.5588897277465389,0.7955301808791794,-0.3073518967535956,0.8282551108872155,0.5545083648856493,-0.3134405335170282,-0.031210411066929566
40,-4.0738139929273265,-2.4216636414575516,-2.8201712573344007,-1.4192238454630814,-1.6235769139078084,-0.8932832012031778,-1.7489352228715058,0.3343960541834365,0.33627876021717173,-1.8792297278826606,-4.202818339176334,-4.623424567452301,5.065227662115651,2.0718355570938587
41,1.37456290089063,0.5933663905568622,-0.8548191756256577,-0.054486316351705366,1.0682731370029492,2.1802989006784714,1.5358394169300509,-0.6881978261526354,-1.2505733124061909,0.7347823835413699,-0.7767583186068083,0.3077696020610547,-1.212206740971194,-1.4260998638829223
42,3.7522585588565454,2.0995874839436963,3.116471058091215,1.3222228592763456,1.3514788799357165,0.22605809364045132,0.910139803026259,-0.469268771163297,0.3264682527303822,0.9925085995978772,4.58854192179222,3.9812735039249567,-4.406526267436039,-1.7811926803106932
43,-1.5792144848743268,-0.31723859580134983,1.3342462570418243,0.551632360149022,-0.6326441508636841,-1.5485679853255985,-0.038615555847896124,0.9540845563269308,1.6177364796152482,-0.46834178901081785,0.7482128715139692,-0.8085826965988903,2.366778197142223,2.8082677501842355
44,-3.265157716464972,-1.9463729235181602,-3.6397776071442647,-1.6389140436992213,-1.1486534206686305,0.2142160252401808,-0.8893059302833893,0.4514965850758346,-1.1604156147765747,-0.24169296572443164,-4.811191617840188,-3.168829145445687,3.2798964123697893,0.7774237783496086
45,1.4029510917405346,-0.06866133885436543,-1.494947330801994,-0.8965169421360231,-0.032940254528962695,0.7504031178360431,-1.5933596241032897,-1.263036559015897,-1.838598666899869,-0.5080378567589603,-0.8602103718567174,0.8246590675447157,-3.1060796391242267,-3.746106615251193
46,2.857716205308038,2.049161611423267,4.204594068467395,2.274254328992955,1.1793694658379843,-0.349911991265342,1.8010845219420395,-0.23383692004889808,2.1319244939086683,0.12536413718933487,5.097576379674868,2.540800760078793,-1.7941417627072325,0.6471467085782439
47,-0.9139210637587332,0.39103359869950194,1.3423080976733928,0.8913584127519151,0.7773252402037961,0.02880054687982288,2.7329924506085916,1.4758839428003796,1.8315099578925556,1.8443436893975054,0.9901881691050579,-0.5050211862115567,3.3506226275309805,4.0497873390066665
48,-2.7181531183167285,-2.3603093380234053,-4.638286442683848,-2.999485113739556,-1.5094764234181388,0.21675907454691815,-3.359888786932722,-0.12573726960069442,-3.145746287515281,-0.9367095128387227,-5.55657389842739,-2.343380319711997,0.05861108746780581,-2.106379317015697
49,0.30836446777108706,-0.5058729100227176,-0.9755911298346703,-0.4836238639757371,-1.3798735702204101,-0.6328434961868707,-2.919907947208735,-1.4907909702899267,-1.540336484787786,-2.945720233752693,-0.8813838380921918,0.19959545387862843,-2.9616004131014364,-3.7670405406616343
50,2.889745653261212,2.72016828456088,4.833535423506349,3.547597502251883,2.046263821061744,0.061413112594941116,4.985408243425949,0.4878005234541083,4.050402445815709,2.571236837317696,6.058245758844243,2.548116292006607,1.7002528791333211,3.2760153369793876
51,0.20231711988733295,0.38993876547771544,0.5482215441803575,-0.20897554452839387,1.6816515329635922,0.9965327971448183,2.0628862843298332,1.3118670393316527,0.9869504993783796,3.245723580937906,0.3530356789352008,-0.24703572803946194,1.8497234778586915,3.138456163938458
52,-3.2696071208903845,-2.9506299629184327,-4.776016983347916,-3.725510739187399,-2.586503745534205,-0.3423278285680676,-6.046108309268806,-0.7143878167996535,-4.690285872533823,-4.527611157773794,-6.282439507252919,-2.8474687244172436,-3.1174418973929456,-4.0172681536218695
53,-0.4969371487616124,-0.15765905833097904,-0.2129975629536695,0.948067862386792,-1.6763582071633152,-1.151126632067652,-0.47656314326316185,-1.0513154411810424,-0.2848515790747029,-2.489376808008099,0.521930828654493,0.7474694910863813,-0.1279467828015308,-2.4643428644280676
54,3.6864616210856,2.9618052483762165,4.54168851154358,3.495939861514062,2.9382257146930857,0.5320794203538348,6.126669625917335,0.7584826373654237,4.975398032763429,6.116120319850777,5.918671732209855,2.8347887331822603,3.813057361699911,4.4059335215101045
55,0.5808543592366101,-0.00796926224034326,0.06694828518475457,-1.4821577019581116,1.4987140244977044,1.1800606022707876,-1.265722070597737,0.8563251260915989,-0.4033256532085679,0.8721966313153556,-1.3991409938434607,-1.4713662037535578,-1.8266900034496976,1.946942554836629
56,-4.000825443576778,-2.8059596838201304,-4.2633214345796215,-2.989038610709376,-3.0293956222957292,-0.6107384626743163,-5.190999797185905,-0.6962513034265089,-4.921504255328196,-6.770791201151618,-4.894549418740256,-2.266388423021468,-3.5912578330537,-4.646568041764852
57,-0.541001606805426,-0.03148503202710901,-0.11322903728800526,1.665565223763518,-1.3237889936983993,-1.163019824894293,2.5877968173319985,-0.8072021932903958,0.9396337894451998,1.0388091168046252,1.8363609237341505,1.9762922412690909,3.47519246163132,-1.5963545771670047
58,4.162279516805531,2.6452310824269465,4.073613048758628,2.4314124772429215,2.9302575923814755,0.6138094295249774,3.566750783974229,0.6752799018747522,4.633868129426748,6.306560875405235,3.476448822007579,1.240114811207,2.578054213992795,4.917645275518485
59,0.46182303001634384,0.2817476440741708,0.25721718241546715,-1.527769663376655,1.2525683082396397,1.1441794759259143,-3.1467795896222577,0.8572047526862545,-1.2689730335097287,-2.559995866375327,-1.561308169902519,-1.8693421586930201,-4.336732220921782,1.259343257986222
60,-4.195035491302548,-2.6526214316641283,-4.043855649741758,-2.023271079391467,-2.782125907093042,-0.5969098046001714,-1.7713652304244667,-0.8116068660873399,-4.2482180548756565,-4.997433502450476,-2.15707579608754,-0.17150903618952706,-1.198870828271601,-5.242495978759768
61,-0.36478116408104366,-0.6058774156127213,-0.3440598817108265,1.2505430040646786,-1.262016099415229,-1.1314858395154146,2.9387743046197206,-0.8569125365385083,1.4298848177595391,3.1956719647544047,0.6618059710248346,1.0564471866012324,4.197481894514542,-0.7545898372607829
62,4.1354573882375885,2.906132176714316,4.144843587412276,1.8298510801282575,2.6910271963414276,0.61166980119064,0.27849840565534384,1.104844637495581,3.867411068149232,3.44457826960149,1.381973694536039,-0.42524909558097657,0.00438132255034431,5.470363280465994
63,0.20917012278123423,0.7975981042350886,0.22615703955698477,-1.0602561648011293,1.2450521717477032,1.1077632851308534,-2.2401051126427163,0.6473453449099235,-1.5214030492165969,-2.8513821783411077,0.4366957127796008,0.17423121666371286,-3.190329658736905,0.02575314938259389
64,-3.9744255045867667,-3.338562092154138,-4.250730135219037,-1.7518771319109603,-2.661611602210528,-0.6967798163151998,0.6576943361219721,-1.4268788192052801,-3.5247299608888163,-2.3006103079962457,-1.2805120627159923,0.22372016157883845,0.5536031888660562,-5.381234330826972
65,0.05503314695842558,-0.6936142913641221,0.16764647583127573,1.0956798603248687,-1.101615552555149,-1.0352474405125465,1.4372579198873516,-0.16077892306425592,1.652024360916293,1.8630971018676898,-1.209631907458464,-1.2857955600015918,1.71565988439957,0.7904098315634762
66,3.646360310473416,3.7703575441396158,4.187398892349118,1.5951081541638334,2.609019143877221,0.8679356994983105,-1.0494604028513699,1.588139051859301,3.1802440995092205,1.975996074437862,1.576391134503042,0.7274243697284324,-0.27889627316970295,4.845366299111301
67,-0.42516281335399164,0.260183027513311,-0.7924240767471912,-1.329891531099276,0.8134075414906419,0.8578505948913084,-0.8453745250873593,-0.5321006230809274,-1.8939065179719068,-0.8317770827804334,1.349025097083246,1.765017592402421,-0.26640514212911326,-1.4273816190373718
68,-3.0700409481096274,-4.004295573596324,-3.8060906495487883,-1.198027882696116,-2.428988658536546,-1.0969044158220191,1.0992078343515623,-1.4364705606508168,-2.74097526946789,-2.458776280951523,-1.746592288018516,-2.019916785947629,-0.7380114333822173,-3.932603662944274
69,0.8185130199260032,0.39259297018736405,1.4958043060718336,1.593210557236016,-0.4561527541860336,-0.52115414104904,0.6009114560570775,1.2502930409227482,2.2514176424454586,0.3371090478636077,-0.9591832480854878,-1.3792523464174693,-0.7441678992535881,1.6438633876569617
70,2.2124721409829315,3.928252955404678,3.0518921944660944,0.5403973234141045,2.0721980796394286,1.295693668144127,-1.064451324997638,0.9309047047384705,2.0965373607911264,3.330669755629147,1.3412148291067778,3.0891637823210427,2.19485164270382,2.900427174393087
71,-1.0979544016829528,-1.0735166463852266,-2.07325997988223,-1.6825954207340854,0.15096937203305588,0.016736277050460806,-0.6579306918837787,-1.7810212462796489,-2.6474481902516955,-0.6609106560098608,0.5026169585223043,0.2800144951512586,1.0847434004168917,-1.3731492590699077
72,-1.1348671326418704,-3.5707981540923575,-1.9982176362296495,0.23304134115700456,-1.5756453019056158,-1.3358174864741132,1.1400591136532334,-0.15778938015120758,-1.165916664953328,-3.9756813681641394,-0.26966622297109544,-3.4874261598116805,-3.696573802323142,-2.066621123685348
73,1.1366838762786782,1.6146535338945205,2.3495454564894396,1.4910671576859527,0.005898506447203061,0.5749576568871355,0.859525168816672,1.9628813875090734,2.934498213987652,1.6528733700464202,-0.5206460020200652,1.0921306140507328,-0.7287058854622173,0.7754743964981307
74,-0.008846993951823801,3.080090260514637,0.8299300493466331,-0.888504965746095,1.0388316893459062,1.1128045222514575,-1.4030158813384976,-0.7060718518025014,-0.054674103997669796,3.88451116859487,-1.1270437283863735,3.0791338435994025,4.8650185646127175,1.641717257941439
75,-0.8866870221769247,-1.9616260399233842,-2.2537123600126936,-1.0793332700423208,0.010056902980566709,-1.0861707157562381,-1.0290338523241327,-1.7384073051550546,-2.936280415917089,-2.8080168749203853,1.296951066449767,-2.236177006304313,-0.17526807685627632,-0.16219785088328986
76,1.024695682899862,-2.6356421825659377,0.22345891951873934,1.2344028855311049,-0.5679763550008261,-0.6247744717947479,1.819721141236921,1.4564017682223618,1.4629911997860308,-2.905981118583944,2.266946413037307,-2.064284825154762,-5.418676754865721,-1.6177878670034944
77,0.41292061167975774,2.200637484621207,1.8534835465563912,0.6463705645291455,-0.1505112988262839,1.3288906190763883,1.0369831060889023,1.1653047191049872,2.5115430134746424,3.5199268720137167,-2.67089646811649,2.8219601732801456,1.3568606536415375,-0.16427971061303234
78,-1.758664309505385,2.337929742406041,-0.9807372687546739,-1.230482501117881,0.2258189156602434,0.008506191781675467,-2.286871643502214,-1.923676636647255,-2.8602770454046413,1.3195366036251017,-2.664751971431274,0.836448841383888,5.224116326244045,1.774732671816496
79,0.1279253499355853,-2.5036483779609666,-1.327537491469503,-0.41594602217564947,0.3300277308559441,-1.199853828825155,-0.8307843895562456,-0.39347917116218534,-1.6152166529568448,-3.382061540692179,4.113274226557572,-2.8053237498401074,-2.491437368951955,0.06524585515358083
80,2.164282907379741,-2.1358612044254404,1.3871506569020005,1.0101907776087065,-0.013401690239266276,0.5059501385051232,2.6768529285089637,2.018791509129062,4.001706502661427,0.30618119215037787,2.211034388983988,0.2309929217887362,-4.319573335246206,-1.7968796330875245
81,-0.5566210410621165,3.015995938659887,0.8812060815072179,0.5066356854095263,-0.4703773348827914,0.7595139033171274,0.43833919137727395,-0.3796845366515386,0.3291470844111018,2.385193233913429,-5.013068437906659,2.3840906654616565,3.2785113837732354,0.36668477139779077
82,-2.322340438340308,1.8366588760708107,-1.5365080643681666,-0.8032698832898013,-0.11455080750398046,-0.7091303131677605,-2.8766889052924705,-1.7552438077362162,-4.669166955624053,-1.393932000227557,-1.231260680958702,-0.9503150214782093,2.9016263910664826,1.433625588229593
83,0.755332621975285,-3.744858038499289,-0.641972844244424,-0.8627347544459989,0.5275924563942981,-0.22776470427942494,0.041139374698703816,0.963958903916027,1.150912192378579,-0.9159961918315107,5.000129490841728,-1.8418838414922003,-3.5185594535032747,-0.8558592629674417
84,2.400552698915801,-1.2016095338265878,1.6184461489111477,0.8052013704396346,0.2191153612193199,0.5324796406562924,2.824162885364669,1.2445034280720333,4.737334792702512,1.6351458573799769,0.30419305381448813,1.3584567384557817,-1.2690601004019633,-0.6218503128376035
85,-0.7243898428432952,4.512091770536217,0.5886065187729023,1.28597097298122,-0.49414362007397644,-0.11312994441164696,-0.45922529304332277,-1.2287206805802247,-2.5651818199950185,-0.4354463065204179,-4.121895572097176,1.3796694105485845,3.161840191221719,1.074738548838148
86,-2.5714794577135147,0.08459801137321449,-1.8103305723757124,-1.070724982698163,-0.3529923947532768,-0.10227995997039176,-2.5417182692821885,-0.6645501952637521,-4.2098164166684215,-1.1293573066306468,0.04073859049329994,-1.62992825007443,-0.26214721158476806,-0.48217863214940315
87,0.5830525800912941,-5.005888516353913,-0.5578147471907572,-1.5471023793288592,0.38697426826292625,0.060904510408815705,0.6625044747785509,1.1396932958020283,3.6567751154558157,1.1597083243111077,2.7934762217425058,-1.0267799523671464,-2.3072965173490587,-0.7915478095129721
88,2.9286868718154078,1.4571154864966849,2.168224829359194,1.4922783105034727,0.5515270907226894,-0.3105786769131635,2.1533628970128267,0.2083704149284664,3.2175653362946313,0.32452444594221413,0.42570967489166384,1.931722014780019,1.4398461593205973,1.5650389499425919
89,-0.5133870824413017,4.916115445294186,0.33440191367073185,1.5103277104507353,-0.23679189148652063,0.39673044350938086,-0.5583156362616372,-0.7680403901498103,-4.234444756974177,-1.0663905821614474,-1.5729613975297334,0.666984030258722,1.1553256607172688,-0.02579660467713373
90,-3.4424960905122393,-3.1434776322243323,-2.580813233579054,-1.8726370169330773,-0.8327705243112997,0.4235153863032914,-1.8614267093585224,-0.027260275485959672,-1.9860016507730602,0.20634845609679786,-1.5553021779495642,-2.3102108826440557,-2.1224276480476894,-2.280360936961958
91,0.6752314505757538,-4.092018393095733,0.2182325933047022,-1.1984151333540762,0.08423214443653483,-1.0674403270751696,0.17808797188481384,0.26743202084967427,4.216805752899141,0.36711054384737796,0.896883550105599,-0.14709132090956217,0.05610140836770927,1.1827024365536691
92,3.9761683813080078,4.56643594192745,2.821967638928775,2.04589468724591,1.196475712726958,-0.08800401381959663,1.8739760712377447,0.18737134804310557,0.7833556958580364,-0.0428890813100332,2.9328325891551645,2.669569878409384,2.285882668800409,2.389814327998183
93,-1.1349945409712878,2.6409988029371636,-1.0620510885879368,0.7631129300693481,0.023454376591588454,1.6464656451257509,0.3009867483423411,0.17364770351727518,-3.6521196960046933,0.4315736588311936,-0.90954332683174,-0.6062819360976875,-1.1017547243804726,-2.3156320846120604
94,-4.3511862957747605,-5.363335998127065,-2.681013802879277,-1.973576610382588,-1.6204737370689106,-0.631432054226011,-2.305357295499355,-0.6532497327638597,0.139007108664199,-0.881402519674351,-4.092939318828476,-2.8410105788360056,-2.010606264058931,-1.8745340053402602
95,1.8422534669944037,-0.9076359057273368,1.986297223136482,-0.38174445522291883,-0.042534546045134826,-1.8675488488134877,-0.6041180228006897,-0.3879893828333006,2.71161864665765,-0.7725047963047812,1.452246004353893,1.5308939246663187,1.800434894090172,3.021779035120447
96,4.424724840190425,5.384998006999767,2.096593054233799,1.7582172132375788,2.0622237420860237,1.4889456029921548,3.0990192500959637,1.3012135670884661,-0.6066214584587061,2.247749465127802,4.723642118300012,2.689638049420245,1.4671208894643704,0.9729066584705108
97,-2.6596302789532515,-0.6695197788703633,-2.714859222991279,0.14538293326200516,-0.05326880708889407,1.6305160308277926,0.46892929461266813,0.27703429280986647,-1.6532684015320847,0.3140429083208331,-2.1902533970369102,-2.4578804846772297,-2.044407228470903,-3.0230271739217933
98,-4.139724195646254,-4.766293158414543,-1.2088347689241146,-1.567231395746941,-2.4712832301238863,-2.181621808723133,-4.020876866984656,-1.955365306125134,0.5716006260109818,-3.5044998416737814,-4.763645565431047,-2.1915234109308623,-0.8959374586393672,-0.11484809312383894
99,3.4214435849674545,1.7557067347978628,3.0572601852262165,-0.01025463780649593,0.26669062682130085,-1.0364072767750911,0.23018177813998345,0.1612051099875184,0.7545902617520842,0.9082246587453736,2.7919304205819873,3.19568334619672,1.837380184749761,2.299997175858434
100,3.529542665986052,3.852729714284781,0.29142385471864085,1.517068958649516,2.806229732640735,2.495279707887654,4.738845326157883,2.4355275040911533,-0.1328666503452273,4.129651806996621,4.36782717969965,1.442134914921842,0.5589508384810826,-0.23915896763544964
101,-3.985541073744137,-2.265088828663271,-3.0078058106064405,-0.15520068413463056,-0.5854626716541781,0.3152510046642345,-1.406887278896395,-0.8279216920923473,-0.2260706291960324,-2.50170441864462,-3.063119093245679,-3.611831020590842,-1.3207444750106863,-1.12669444243424
102,-2.6886477894302208,-3.017488700843763,0.3961207215322803,-1.5955527898279809,-3.04144969514333,-2.3903407835729564,-4.95773185858676,-2.6077797061672556,-0.4933739907458713,-3.8749274591251845,-3.7852866655526594,-0.6048952071066914,-0.6554061673247276,-0.2064170316079919
103,4.256458873366677,2.369205976605958,2.729022902291319,0.4590958397398127,0.9973638589552517,0.3053814490314393,2.7802179196163403,1.545038249525401,0.13694236642056212,3.907670437298155,2.9802379673062287,3.66897800495847,0.7500484085018719,-0.027090698559219976
104,1.7371267505171768,2.471643221610348,-0.7405955490756622,1.6771009794776208,3.1567183187590566,1.9856771034258487,4.5463239712428525,2.4280962566901994,1.0550253477053746,2.8712215889240746,3.2314801167640326,-0.15831128330316407,1.2355235792173063,1.4451280194969152
105,-4.183571485850225,-2.3636223845425595,-2.4341430208237504,-0.889081502923693,-1.494801856240944,-0.7109713404924272,-3.9810988896977686,-2.1031848162844975,-0.39418551286914716,-4.665335932791185,-2.6314389701593583,-3.4098858552654674,-0.4077225704967594,0.6901550299833179
106,-0.8007335237415877,-2.17846537293517,0.8077313104007227,-1.622242310077535,-3.1202222110550903,-1.461991942824996,-3.59487360860183,-1.9654380540991305,-1.3669698439175866,-1.546929828950814,-2.8229712425052345,0.7333150129075433,-2.167791326306753,-3.1639392144660854
107,3.7548274173020597,2.474557710787833,2.2521468794455335,1.3019688022982037,2.0604642441733856,0.9291667095074555,4.699053071679119,2.3294599808854946,0.7961418287878578,4.615141030422425,2.1259766271701483,2.918305329465699,0.48875882351913613,-0.5874262369660985
108,0.007398512085408506,1.9200867243916335,-0.7623853896901018,1.391533936698384,2.885566530738755,0.95190754470458,2.3755333613283818,1.3886701784750386,1.3821891262522559,0.40855606837264,2.5914474192673427,-1.0621208038952956,3.1906255458294788,4.877007957001754
109,-3.0032182657206237,-2.7242400178162085,-2.1663819947805876,-1.5129090636436686,-2.645139639796817,-1.0728905984173234,-4.800481905734177,-2.15441494251283,-1.1390823556939522,-3.9427813852275757,-1.537227477590932,-2.2879416058729056,-1.025209811500576,-0.25863984557339476
110,0.5171747687888056,-1.469773111454548,0.7409682505114162,-1.0900212287590827,-2.4134034212099778,-0.4829270736090592,-1.2259752421189756,-0.9107415362900166,-1.188271508827626,0.1979412059021503,-2.539147068072388,1.1285096818966107,-4.021633854802192,-6.127417687200765
111,2.0234133690844067,2.934695852148469,2.059724326056991,1.4242339028372697,3.1605645451785196,1.2459887287373297,4.365956540533227,1.647111864553843,1.3177008939942896,3.0532358672261353,0.9052720679472612,1.6121828591691618,1.8914143810250983,1.5673733991937857
112,-0.6731099253933605,0.7582789452723524,-0.767495399255336,0.9052273871092819,1.7057477974497395,-0.0031272425674236616,0.4117051838706864,0.7047673417006192,0.9297233929714689,-0.22470382988288895,2.6787365112868056,-0.9454887497599297,4.458704598554617,6.6517250513937665
113,-0.9764982085300214,-2.860514341210414,-1.8216687646780307,-1.1015738200232608,-3.5012820528376656,-1.47486918837612,-3.6343697906284596,-0.9929400971147958,-1.3594197469748297,-2.3528808873510605,-0.2739362045314562,-0.9835111735947342,-2.8742946691310625,-2.9437531415528717
114,0.42845184989645824,0.06925882871525799,0.7640729015568656,-0.9779472910550631,-0.8260574829482855,0.5816898895445832,-0.02912157287644059,-0.8285330795032229,-0.7048208677357756,-0.09946236849362018,-3.027171558246506,0.5561000132235259,-4.420993917460008,-6.4320241388218236
115,0.05962864731521867,2.3614768098100094,1.4344046977489822,0.7389217223884689,3.586180195250827,1.7015956059917206,2.884710221454797,0.415055389879098,1.3726603556974935,2.0581565327574483,-0.2848872347402432,0.4844302302754975,3.753287030312675,4.0372955473003485
116,0.1461614412251095,-0.7359164138236942,-0.6337194531513138,1.296321701388157,-0.11452624837686583,-1.280243396421933,-0.01057120228256113,1.1989310010651506,0.5041132562583096,0.42030302406754166,3.5689782243762433,-0.03807673654934234,3.9292858042856325,5.6333260975716914
117,0.5593943229573966,-1.5067909268042707,-0.9808282201705494,-0.5322513594734425,-3.3924890219016413,-1.8288675868117366,-2.3123148911440214,-0.074243135477493,-1.4449198795761404,-2.122866507948585,0.6863573020912496,-0.1655500820135155,-4.344077763731782,-4.633897274687276
118,-0.8845858024125107,0.9971041428907047,0.3449102438203426,-1.6916127479970748,0.9994007146338693,2.0552050187366464,-0.08560304961207302,-1.636071853270186,-0.23116158067268033,-0.44760829432923,-4.2301912450057655,-0.5056125475626695,-3.06679114298731,-4.489885272837309
119,-0.8100487720436648,0.5517564527907597,0.5814574957987032,0.5478432089703654,2.958438429362993,1.7781797959056287,1.9563857501129758,0.00045681038359860447,1.5598841180373957,2.3037118333144635,-0.8741228330619891,0.025823782766822515,4.503466614692305,4.65611109901818
120,1.585650188987334,-0.7834200986571667,0.0432040895207166,1.9445113224680572,-1.7496702906293995,-2.8147228556640282,0.1067848987292678,1.95698501202036,-0.20883010246754904,0.08445980812543935,4.89125890831405,0.9760679967295914,1.9601928843664527,3.2191902950627704
121,0.743349590237693,0.19197308958898243,-0.3170403777874449,-0.6786944320083853,-2.353477423264591,-1.5245727850288684,-1.7101495559700184,-0.0954496661422336,-1.5910460682739405,-2.309941682608525,0.8516657913971827,-0.014939982938471805,-4.127300702213012,-4.110183082124402
122,-2.0970100088745536,0.24171957275752234,-0.42210963820279696,-1.9308240312160276,2.3398798556544644,3.4620784532913045,0.05782905348702462,-2.0662614856371486,0.8134929638525908,0.5566084444658316,-5.431529307813632,-1.3121166918486917,-0.7851594416789563,-2.001972853559554
123,-0.49013273302549687,-0.5125303934673366,0.19360882480809866,0.7228168589736916,1.6385490889099956,1.0957578162193236,1.403859991121196,0.20445997517068962,1.3791020892375185,1.949429761382959,-0.6772917684636491,0.0626480202039506,3.1718392984862573,3.0423849299624366
124,2.367106798669274,0.3395452085048775,0.6980928589732639,1.7030625066676643,-2.77864894185595,-3.9288458837214635,-0.3779134241858137,1.9906068215577937,-1.448348214746675,-1.2367444461505828,5.77234632651879,1.5037730268770415,-0.23301232686620996,1.0069912846145306
125,0.17973647432671394,0.39529845870564034,-0.16342193027698174,-0.5300011130438843,-0.8446045626659338,-0.5483568709752342,-0.9121975407927937,-0.21182852478617864,-0.8437093954251739,-1.2028867542173949,0.42753962840169574,-0.11720867704046685,-1.697358668871306,-1.5411744215907146
126,-2.429401339480378,-0.6710730369299874,-0.827998091957024,-1.4477331090069152,3.0715434481487285,4.182591030713953,0.7208754245132374,-1.8397034654397417,1.900682811757256,1.7129775447870337,-5.889999913002029,-1.5745781529724558,0.8551665884988225,-0.4073387288198905
127,0.12103306154037814,-0.018772867935713828,0.16911907932831555,0.11153061863695099,-0.017637653001443293,-0.05660747956503547,0.22456496569273532,0.10101955545608349,0.05503174449794699,0.20911283281765314,-0.15820618919568277,0.16537336981384987,-0.09928195464373821,-0.22815834623294484
