,AF3,F7,F3,FC5,T7,P7,O1,O2,P8,T8,FC6,F4,F8,AF4
0,4197.94873,4214.358887,4219.487305,4205.641113,4216.410156,4200.512695,4204.615234,4204.615234,4185.128418,4209.230957,4230.256348,4201.538574,4192.307617,4270.256348
1,4197.94873,4214.358887,4219.487305,4212.820313,4223.077148,4199.487305,4202.563965,4200.512695,4193.333496,4209.743652,4237.436035,4200.512695,4202.05127,4265.641113
2,4201.538574,4215.897461,4221.538574,4217.94873,4227.692383,4210.256348,4210.256348,4203.589844,4206.666504,4217.436035,4250.769043,4206.153809,4218.461426,4272.307617
3,4193.333496,4206.666504,4215.897461,4211.794922,4227.179688,4215.384766,4209.230957,4206.666504,4204.102539,4220.0,4244.102539,4194.871582,4210.256348,4266.153809
4,4183.077148,4194.871582,4211.794922,4207.692383,4228.205078,4215.897461,4201.025879,4205.128418,4198.974121,4214.358887,4225.128418,4180.0,4197.94873,4247.692383
5,4181.538574,4192.820313,4209.743652,4206.153809,4222.563965,4210.769043,4197.94873,4203.589844,4197.94873,4202.563965,4218.461426,4182.05127,4196.922852,4241.538574
6,4183.077148,4195.384766,4208.717773,4204.102539,4214.871582,4207.179688,4198.461426,4205.128418,4196.410156,4196.922852,4224.615234,4189.230957,4198.974121,4253.333496
7,4189.743652,4201.025879,4218.974121,4211.794922,4223.077148,4213.333496,4206.153809,4208.717773,4198.461426,4208.717773,4231.794922,4192.307617,4203.589844,4268.205078
8,4205.128418,4206.666504,4235.384766,4218.461426,4233.333496,4217.94873,4215.897461,4206.153809,4201.025879,4215.897461,4238.461426,4201.025879,4214.871582,4275.384766
9,4216.410156,4212.307617,4241.538574,4217.436035,4229.743652,4214.871582,4218.974121,4202.05127,4199.487305,4213.846191,4243.077148,4214.871582,4222.563965,4275.384766
10,4218.461426,4213.846191,4242.563965,4216.410156,4229.743652,4213.846191,4215.384766,4204.615234,4199.487305,4216.922852,4242.563965,4218.461426,4218.461426,4279.487305
11,4214.358887,4210.256348,4243.077148,4218.461426,4235.384766,4218.974121,4211.282227,4209.230957,4201.538574,4220.0,4237.94873,4210.769043,4216.410156,4282.563965
12,4207.179688,4206.153809,4239.487305,4215.897461,4231.794922,4217.94873,4202.563965,4208.717773,4201.538574,4217.94873,4235.384766,4201.538574,4212.307617,4270.256348
13,4203.077148,4203.077148,4235.384766,4212.820313,4227.692383,4212.307617,4196.410156,4207.179688,4205.128418,4215.384766,4233.333496,4199.487305,4206.153809,4254.358887
14,4203.589844,4202.563965,4236.922852,4214.358887,4229.743652,4215.897461,4204.102539,4206.666504,4212.820313,4212.820313,4231.794922,4198.974121,4211.282227,4252.820313
15,4201.538574,4198.461426,4236.410156,4213.333496,4230.769043,4223.589844,4214.358887,4204.102539,4220.0,4214.871582,4235.384766,4197.94873,4216.410156,4255.384766
16,4193.846191,4188.717773,4234.358887,4208.205078,4229.230957,4221.538574,4212.307617,4204.615234,4223.077148,4223.077148,4232.307617,4194.358887,4207.692383,4244.102539
17,4191.282227,4184.615234,4233.846191,4208.717773,4227.179688,4216.922852,4203.077148,4206.153809,4219.487305,4215.384766,4224.615234,4186.666504,4200.0,4234.871582
18,4198.974121,4192.307617,4234.871582,4215.897461,4223.077148,4213.333496,4199.487305,4206.153809,4209.743652,4201.538574,4225.641113,4187.692383,4202.563965,4235.897461
19,4203.589844,4200.512695,4240.0,4215.384766,4221.025879,4203.589844,4199.487305,4206.153809,4202.563965,4209.230957,4231.794922,4201.025879,4207.692383,4235.897461
20,4202.563965,4200.512695,4249.230957,4211.794922,4226.153809,4198.461426,4200.512695,4207.179688,4200.512695,4217.94873,4233.846191,4206.666504,4214.871582,4239.487305
21,4204.102539,4201.025879,4253.846191,4214.358887,4230.769043,4201.538574,4205.128418,4207.692383,4198.461426,4207.179688,4234.871582,4203.589844,4216.410156,4245.128418
22,4206.666504,4202.563965,4253.333496,4213.846191,4228.205078,4200.512695,4209.743652,4206.666504,4195.897461,4201.538574,4234.358887,4204.615234,4206.153809,4241.025879
23,4196.922852,4195.384766,4247.692383,4208.717773,4220.512695,4204.102539,4209.743652,4205.128418,4199.487305,4203.589844,4225.128418,4199.487305,4200.512695,4229.743652
24,4182.563965,4184.615234,4235.384766,4207.692383,4217.94873,4216.410156,4205.641113,4205.128418,4210.769043,4201.538574,4215.384766,4185.128418,4199.487305,4222.05127
25,4179.487305,4181.025879,4225.641113,4207.692383,4221.025879,4218.974121,4202.05127,4204.615234,4217.436035,4203.589844,4212.307617,4180.512695,4193.846191,4216.410156
26,4181.538574,4182.563965,4227.179688,4203.077148,4221.538574,4216.410156,4203.077148,4205.641113,4217.436035,4207.179688,4216.410156,4183.589844,4193.846191,4214.358887
27,4182.563965,4188.205078,4234.358887,4203.589844,4218.461426,4217.436035,4203.589844,4206.666504,4215.384766,4205.641113,4223.589844,4185.128418,4198.461426,4221.025879
28,4192.820313,4197.436035,4241.025879,4210.769043,4217.436035,4212.820313,4202.05127,4207.179688,4211.794922,4208.205078,4224.102539,4189.743652,4205.641113,4230.256348
29,4210.769043,4204.615234,4249.743652,4212.307617,4223.077148,4197.94873,4201.538574,4205.128418,4199.487305,4211.794922,4227.692383,4199.487305,4214.358887,4242.05127
30,4218.974121,4211.794922,4258.974121,4209.230957,4226.666504,4187.692383,4203.077148,4205.128418,4181.538574,4211.794922,4244.102539,4212.307617,4225.641113,4249.230957
31,4219.487305,4217.94873,4260.512695,4212.307617,4222.563965,4184.615234,4200.512695,4207.179688,4175.384766,4215.897461,4246.666504,4220.0,4235.897461,4251.282227
32,4218.974121,4212.820313,4255.384766,4212.307617,4216.410156,4185.128418,4193.333496,4205.641113,4183.589844,4215.897461,4230.769043,4214.871582,4232.820313,4248.717773
33,4211.282227,4202.563965,4251.282227,4204.615234,4215.897461,4190.256348,4187.692383,4204.615234,4194.871582,4207.179688,4229.230957,4205.128418,4216.922852,4235.384766
34,4200.0,4200.512695,4244.102539,4205.128418,4217.94873,4200.0,4193.846191,4204.615234,4201.538574,4204.102539,4233.846191,4197.436035,4204.102539,4221.025879
35,4195.384766,4195.384766,4235.384766,4209.743652,4215.384766,4210.256348,4200.0,4204.615234,4209.743652,4203.589844,4221.538574,4189.230957,4200.512695,4215.384766
36,4197.436035,4188.205078,4234.358887,4210.769043,4218.461426,4217.94873,4197.94873,4204.615234,4218.461426,4205.128418,4211.282227,4190.256348,4203.077148,4215.897461
37,4199.487305,4191.282227,4240.0,4216.410156,4224.615234,4219.487305,4200.512695,4205.128418,4218.461426,4210.769043,4213.846191,4201.538574,4205.128418,4215.384766
38,4200.0,4197.94873,4243.077148,4214.871582,4221.538574,4212.820313,4205.641113,4204.615234,4208.717773,4209.230957,4215.384766,4205.641113,4202.05127,4215.897461
39,4201.538574,4198.461426,4242.563965,4203.077148,4215.384766,4202.563965,4198.974121,4206.153809,4193.846191,4195.897461,4213.846191,4202.563965,4202.05127,4215.384766
40,4209.230957,4200.0,4243.589844,4204.102539,4217.436035,4195.897461,4187.179688,4207.692383,4184.615234,4189.230957,4209.230957,4201.538574,4207.179688,4213.333496
41,4217.436035,4203.589844,4247.692383,4213.333496,4218.974121,4187.179688,4187.179688,4206.666504,4182.05127,4196.922852,4207.692383,4206.666504,4210.256348,4217.94873
42,4216.922852,4202.563965,4247.179688,4210.769043,4215.384766,4182.05127,4195.384766,4205.641113,4183.077148,4207.692383,4216.410156,4216.410156,4214.358887,4228.717773
43,4216.922852,4204.615234,4245.128418,4211.282227,4220.0,4187.692383,4202.05127,4206.666504,4192.820313,4214.871582,4221.538574,4222.05127,4219.487305,4233.846191
44,4220.0,4211.794922,4247.179688,4218.461426,4228.717773,4198.974121,4209.743652,4205.128418,4209.743652,4218.461426,4219.487305,4217.94873,4219.487305,4232.820313
45,4212.307617,4204.102539,4241.538574,4211.794922,4224.615234,4203.589844,4213.846191,4203.589844,4216.410156,4216.922852,4215.897461,4210.256348,4211.282227,4222.563965
46,4194.358887,4181.538574,4222.563965,4198.974121,4211.282227,4203.077148,4204.615234,4204.615234,4206.666504,4206.153809,4202.05127,4198.974121,4193.333496,4200.512695
47,4183.589844,4173.333496,4207.692383,4196.410156,4208.717773,4207.692383,4192.307617,4205.641113,4198.974121,4188.717773,4185.128418,4185.641113,4186.153809,4190.256348
48,4185.128418,4182.563965,4204.102539,4202.563965,4215.384766,4217.436035,4188.205078,4206.666504,4201.025879,4183.589844,4180.512695,4180.0,4194.358887,4195.897461
49,4189.743652,4186.153809,4207.179688,4209.230957,4218.974121,4214.871582,4185.641113,4206.666504,4203.077148,4192.307617,4184.102539,4187.179688,4195.897461,4198.974121
50,4197.436035,4184.102539,4216.922852,4213.333496,4217.436035,4202.563965,4184.615234,4206.666504,4200.512695,4201.538574,4192.307617,4195.897461,4193.846191,4202.05127
51,4209.743652,4191.282227,4223.589844,4215.384766,4217.94873,4198.461426,4193.333496,4206.153809,4196.922852,4201.538574,4200.512695,4200.0,4200.512695,4216.922852
52,4215.384766,4198.974121,4225.128418,4215.384766,4218.974121,4198.974121,4202.563965,4205.641113,4195.384766,4201.025879,4202.05127,4202.05127,4207.692383,4226.153809
53,4217.94873,4203.589844,4225.128418,4215.384766,4219.487305,4198.461426,4202.563965,4204.102539,4199.487305,4207.692383,4201.538574,4205.641113,4212.820313,4225.128418
54,4225.641113,4210.256348,4223.589844,4215.897461,4225.128418,4201.025879,4201.538574,4205.128418,4202.563965,4211.282227,4201.025879,4208.717773,4216.922852,4225.128418
55,4226.153809,4213.333496,4222.563965,4216.922852,4231.794922,4201.538574,4205.128418,4206.666504,4202.05127,4213.846191,4203.077148,4212.820313,4215.384766,4225.128418
56,4219.487305,4209.743652,4223.589844,4216.922852,4233.333496,4207.179688,4206.666504,4205.641113,4207.692383,4215.384766,4202.05127,4215.897461,4217.94873,4222.05127
57,4213.333496,4204.102539,4216.922852,4215.897461,4232.820313,4215.384766,4205.128418,4205.128418,4216.410156,4208.205078,4189.743652,4207.179688,4218.461426,4211.282227
58,4207.692383,4200.512695,4206.153809,4213.846191,4228.717773,4215.897461,4202.563965,4205.641113,4215.897461,4204.615234,4180.0,4195.897461,4207.692383,4197.436035
59,4202.563965,4195.897461,4206.666504,4210.256348,4221.538574,4212.307617,4198.461426,4205.128418,4213.333496,4212.820313,4186.666504,4197.436035,4205.641113,4200.0
60,4204.102539,4194.358887,4211.282227,4209.743652,4218.461426,4207.692383,4201.025879,4205.641113,4216.922852,4221.025879,4192.820313,4200.512695,4215.897461,4209.743652
61,4202.05127,4193.846191,4205.128418,4211.794922,4220.0,4201.025879,4203.589844,4205.641113,4215.897461,4212.820313,4186.666504,4197.436035,4213.846191,4204.615234
62,4198.974121,4192.307617,4201.538574,4211.282227,4219.487305,4198.461426,4195.897461,4205.641113,4207.179688,4203.589844,4184.102539,4197.436035,4201.025879,4195.897461
63,4201.025879,4190.769043,4202.563965,4210.256348,4218.461426,4198.974121,4190.769043,4206.666504,4200.512695,4200.0,4180.512695,4200.0,4198.461426,4193.333496
64,4200.0,4186.666504,4199.487305,4210.769043,4217.94873,4198.461426,4197.436035,4207.179688,4197.94873,4197.94873,4170.769043,4197.436035,4200.512695,4189.743652
65,4201.025879,4187.692383,4204.615234,4212.307617,4218.461426,4201.025879,4204.102539,4206.666504,4197.94873,4196.922852,4165.641113,4197.94873,4207.179688,4193.333496
66,4205.128418,4197.436035,4214.358887,4214.358887,4218.974121,4201.025879,4204.102539,4208.205078,4199.487305,4199.487305,4174.871582,4208.717773,4217.94873,4206.666504
67,4204.615234,4199.487305,4209.743652,4214.871582,4219.487305,4200.512695,4209.230957,4209.743652,4203.589844,4206.666504,4183.589844,4215.384766,4220.0,4211.282227
68,4200.512695,4188.205078,4204.102539,4211.282227,4221.025879,4206.153809,4213.846191,4205.128418,4212.820313,4212.307617,4185.641113,4212.307617,4214.871582,4206.153809
69,4200.512695,4185.128418,4207.179688,4211.794922,4223.077148,4209.743652,4208.205078,4204.102539,4217.94873,4216.410156,4183.589844,4208.205078,4215.897461,4204.615234
70,4201.025879,4187.179688,4201.538574,4213.846191,4222.563965,4209.743652,4202.563965,4208.205078,4208.717773,4210.256348,4175.384766,4202.563965,4212.820313,4201.538574
71,4198.461426,4182.563965,4193.846191,4208.717773,4216.922852,4208.717773,4201.025879,4207.179688,4203.589844,4198.461426,4167.692383,4189.230957,4197.94873,4188.205078
72,4199.487305,4183.077148,4195.897461,4207.179688,4216.922852,4209.743652,4198.974121,4205.128418,4210.769043,4199.487305,4163.589844,4186.153809,4197.436035,4184.615234
73,4204.102539,4188.205078,4200.0,4215.384766,4224.615234,4213.333496,4200.0,4206.666504,4210.256348,4204.615234,4158.974121,4195.897461,4210.256348,4194.358887
74,4207.692383,4188.205078,4197.94873,4217.94873,4226.153809,4213.333496,4203.589844,4204.102539,4200.512695,4196.410156,4156.922852,4192.820313,4207.692383,4194.358887
75,4206.666504,4186.666504,4194.358887,4210.256348,4217.94873,4205.641113,4201.025879,4200.512695,4197.94873,4184.102539,4157.94873,4183.077148,4197.436035,4183.589844
76,4203.589844,4186.153809,4194.871582,4207.692383,4215.384766,4201.025879,4197.436035,4204.102539,4199.487305,4184.102539,4155.897461,4186.153809,4202.05127,4179.487305
77,4205.641113,4184.615234,4195.897461,4214.871582,4218.461426,4205.128418,4200.0,4206.666504,4199.487305,4187.179688,4151.282227,4189.230957,4203.589844,4180.0
78,4213.846191,4185.128418,4195.384766,4214.871582,4216.922852,4206.666504,4200.512695,4203.589844,4200.512695,4186.153809,4149.230957,4185.641113,4197.94873,4185.641113
79,4216.922852,4192.307617,4196.922852,4206.153809,4214.358887,4202.563965,4200.512695,4206.153809,4201.025879,4186.666504,4149.743652,4189.743652,4204.615234,4191.282227
80,4215.384766,4197.436035,4197.94873,4201.538574,4214.871582,4199.487305,4198.974121,4207.692383,4201.538574,4187.692383,4146.666504,4194.871582,4211.282227,4188.205078
81,4215.384766,4194.871582,4197.436035,4202.05127,4215.897461,4200.512695,4197.436035,4205.128418,4202.05127,4186.666504,4146.153809,4189.230957,4205.641113,4186.153809
82,4211.794922,4191.282227,4190.769043,4204.102539,4216.922852,4201.025879,4197.436035,4205.641113,4203.589844,4185.128418,4153.333496,4184.102539,4200.512695,4183.077148
83,4204.615234,4190.256348,4182.563965,4209.230957,4216.410156,4202.05127,4195.384766,4207.692383,4205.128418,4185.641113,4151.794922,4178.461426,4201.025879,4173.846191
84,4202.05127,4188.717773,4183.077148,4208.205078,4217.436035,4203.589844,4193.333496,4205.641113,4200.0,4181.025879,4137.436035,4172.307617,4200.512695,4170.769043
85,4198.974121,4186.666504,4182.563965,4200.0,4217.94873,4203.077148,4193.333496,4205.128418,4194.871582,4174.871582,4132.820313,4173.333496,4200.512695,4171.282227
86,4190.769043,4184.615234,4173.846191,4200.0,4217.436035,4204.615234,4195.384766,4206.666504,4207.692383,4179.487305,4136.922852,4172.820313,4197.94873,4165.641113
87,4192.820313,4190.769043,4177.94873,4209.743652,4219.487305,4211.282227,4198.461426,4205.641113,4189.743652,4187.179688,4138.461426,4169.743652,4200.512695,4168.205078
88,4201.538574,4200.0,4189.230957,4214.871582,4221.025879,4217.94873,4202.563965,4205.128418,4115.897461,4187.179688,4135.384766,4178.461426,4209.743652,4181.025879
89,4200.512695,4195.384766,4185.641113,4211.794922,4219.487305,4216.410156,4202.05127,4205.641113,4072.820557,4183.589844,4134.871582,4186.666504,4206.666504,4181.538574
90,4197.436035,4190.256348,4181.025879,4210.256348,4217.436035,4207.692383,4201.538574,4204.102539,4102.05127,4184.102539,4142.563965,4183.589844,4195.897461,4171.794922
91,4202.05127,4198.974121,4186.153809,4213.333496,4216.410156,4201.538574,4206.153809,4204.615234,4126.666504,4187.692383,4149.743652,4183.589844,4199.487305,4173.846191
92,4206.153809,4204.615234,4189.230957,4216.410156,4217.94873,4202.05127,4206.666504,4208.205078,4116.922852,4189.743652,4148.205078,4189.743652,4210.256348,4184.615234
93,4208.205078,4198.974121,4186.153809,4215.897461,4218.974121,4203.589844,4202.05127,4209.230957,4123.077148,4187.692383,4144.615234,4188.717773,4207.692383,4183.589844
94,4209.230957,4197.436035,4183.077148,4213.846191,4217.436035,4198.974121,4199.487305,4206.666504,4139.487305,4191.282227,4142.563965,4184.615234,4202.05127,4174.358887
95,4207.692383,4202.05127,4183.077148,4214.358887,4223.589844,4199.487305,4201.025879,4206.666504,4142.05127,4195.897461,4143.589844,4189.230957,4203.589844,4170.769043
96,4203.077148,4201.025879,4182.05127,4215.897461,4227.179688,4204.102539,4201.025879,4208.717773,4140.0,4188.205078,4142.563965,4190.769043,4203.589844,4169.743652
97,4200.0,4197.436035,4178.974121,4214.358887,4218.974121,4200.0,4198.461426,4206.153809,4139.487305,4180.0,4137.94873,4183.077148,4201.025879,4167.692383
98,4203.077148,4200.0,4181.025879,4214.358887,4220.0,4197.94873,4201.538574,4205.641113,4137.436035,4186.153809,4140.512695,4182.563965,4204.102539,4173.333496
99,4206.666504,4204.102539,4185.641113,4217.436035,4229.230957,4201.538574,4205.128418,4208.717773,4136.922852,4187.692383,4144.102539,4189.743652,4203.589844,4177.94873
100,4204.102539,4200.0,4180.0,4214.358887,4222.05127,4194.358887,4198.461426,4207.692383,4140.0,4173.846191,4131.794922,4185.641113,4200.0,4168.717773
101,4201.538574,4195.897461,4175.897461,4209.230957,4212.820313,4185.128418,4192.307617,4204.615234,4142.05127,4171.794922,4128.205078,4180.512695,4203.589844,4165.128418
102,4202.05127,4198.974121,4178.974121,4211.794922,4223.077148,4194.358887,4197.94873,4205.128418,4147.179688,4185.128418,4136.922852,4185.128418,4204.102539,4171.794922
103,4202.563965,4201.025879,4180.512695,4214.358887,4229.743652,4205.128418,4204.102539,4205.641113,4153.333496,4187.692383,4134.871582,4183.077148,4198.461426,4173.846191
104,4205.128418,4201.538574,4179.487305,4213.846191,4223.077148,4201.538574,4201.538574,4204.615234,4153.846191,4182.05127,4130.769043,4178.974121,4200.0,4171.794922
105,4203.589844,4200.0,4180.512695,4214.871582,4216.410156,4199.487305,4199.487305,4205.641113,4152.307617,4184.615234,4135.384766,4184.615234,4200.0,4167.692383
106,4202.05127,4200.0,4182.05127,4216.410156,4217.94873,4199.487305,4200.512695,4206.153809,4150.769043,4189.230957,4141.538574,4190.256348,4202.563965,4171.794922
107,4207.692383,4206.666504,4187.692383,4215.384766,4222.05127,4192.307617,4200.512695,4205.641113,4150.256348,4190.256348,4145.128418,4194.871582,4216.410156,4187.692383
108,4209.743652,4208.717773,4185.128418,4212.820313,4220.512695,4185.128418,4196.410156,4207.692383,4151.794922,4188.717773,4138.974121,4194.358887,4216.410156,4188.205078
109,4201.538574,4199.487305,4172.820313,4211.282227,4217.436035,4189.743652,4194.358887,4207.692383,4152.307617,4181.025879,4130.256348,4183.589844,4196.922852,4168.205078
110,4192.820313,4189.743652,4166.666504,4207.692383,4217.436035,4200.512695,4198.461426,4205.128418,4158.974121,4180.0,4127.179688,4178.461426,4193.333496,4163.077148
111,4185.641113,4184.102539,4166.153809,4202.05127,4217.436035,4203.589844,4200.512695,4205.128418,4169.230957,4187.692383,4126.153809,4184.102539,4199.487305,4169.743652
112,4188.717773,4184.615234,4169.230957,4205.128418,4217.94873,4201.025879,4198.461426,4205.641113,4171.282227,4188.205078,4132.307617,4185.128418,4196.410156,4165.128418
113,4203.077148,4195.897461,4178.974121,4215.384766,4222.05127,4201.538574,4198.974121,4204.102539,4165.641113,4188.717773,4144.102539,4190.256348,4202.05127,4169.230957
114,4213.846191,4204.615234,4185.128418,4217.94873,4225.641113,4197.436035,4200.0,4203.589844,4161.025879,4198.461426,4143.589844,4198.974121,4211.282227,4184.102539
115,4216.410156,4203.589844,4185.641113,4214.358887,4228.717773,4191.282227,4201.538574,4204.615234,4157.94873,4204.102539,4144.615234,4201.025879,4213.333496,4189.743652
116,4212.820313,4203.589844,4185.641113,4215.897461,4233.846191,4194.358887,4202.563965,4203.589844,4154.871582,4202.563965,4149.743652,4201.538574,4213.846191,4190.256348
117,4202.563965,4204.102539,4180.0,4217.94873,4233.846191,4202.563965,4203.589844,4203.589844,4157.436035,4200.0,4135.384766,4196.922852,4208.205078,4188.205078
118,4196.922852,4200.0,4174.358887,4215.897461,4232.307617,4209.743652,4207.179688,4205.641113,4166.153809,4197.94873,4125.641113,4186.153809,4198.461426,4180.0
119,4200.512695,4197.436035,4178.461426,4214.358887,4232.820313,4212.307617,4207.179688,4207.179688,4173.846191,4198.461426,4139.487305,4184.615234,4197.94873,4176.410156
120,4208.717773,4201.025879,4179.487305,4214.358887,4231.794922,4206.666504,4204.102539,4206.153809,4172.820313,4196.410156,4142.05127,4192.307617,4202.05127,4182.05127
121,4213.333496,4204.102539,4181.025879,4214.358887,4229.743652,4202.563965,4206.666504,4204.102539,4171.794922,4191.282227,4127.179688,4198.974121,4203.077148,4185.128418
122,4207.692383,4205.128418,4187.692383,4215.384766,4229.743652,4204.615234,4214.358887,4205.641113,4172.307617,4193.846191,4125.641113,4196.922852,4202.05127,4176.922852
123,4204.615234,4208.717773,4188.205078,4216.410156,4228.717773,4196.410156,4212.307617,4207.692383,4166.153809,4202.05127,4136.922852,4191.282227,4200.0,4173.333496
124,4214.358887,4215.897461,4188.717773,4216.410156,4232.307617,4185.128418,4204.615234,4205.641113,4160.0,4201.025879,4138.461426,4192.820313,4203.589844,4183.077148
125,4216.410156,4214.871582,4194.871582,4214.871582,4231.794922,4185.641113,4203.589844,4203.077148,4151.794922,4191.282227,4132.307617,4195.384766,4211.282227,4185.641113
126,4204.102539,4204.615234,4194.358887,4213.333496,4220.0,4186.153809,4203.077148,4206.153809,4140.0,4180.0,4127.179688,4188.205078,4201.538574,4172.307617
127,4196.410156,4198.974121,4182.563965,4211.794922,4216.922852,4188.205078,4197.94873,4207.179688,4141.025879,4170.256348,4123.589844,4177.436035,4185.128418,4165.128418
