,AF3,F7,F3,FC5,T7,P7,O1,O2,P8,T8,FC6,F4,F8,AF4
0,4194.871582,4191.794922,4182.05127,4188.717773,4187.179688,4201.025879,4202.05127,4194.358887,4208.717773,4210.769043,4198.461426,4199.487305,4196.922852,4181.025879
1,4201.025879,4192.820313,4184.615234,4187.179688,4185.128418,4200.512695,4202.563965,4194.358887,4211.794922,4206.666504,4203.077148,4202.563965,4200.512695,4184.615234
2,4197.94873,4197.436035,4184.102539,4185.128418,4190.256348,4203.077148,4202.563965,4191.794922,4206.153809,4200.0,4199.487305,4196.922852,4200.0,4188.205078
3,4197.436035,4200.0,4182.563965,4188.717773,4188.717773,4203.077148,4198.974121,4186.666504,4201.538574,4196.922852,4196.410156,4192.820313,4196.410156,4184.615234
4,4203.077148,4198.461426,4184.102539,4189.743652,4184.615234,4198.974121,4196.410156,4186.153809,4204.102539,4198.974121,4201.538574,4198.461426,4205.128418,4185.641113
5,4204.102539,4198.974121,4186.666504,4186.153809,4187.692383,4197.94873,4195.897461,4194.871582,4210.256348,4202.05127,4209.230957,4203.589844,4216.410156,4194.358887
6,4202.563965,4198.974121,4187.692383,4187.692383,4190.769043,4200.0,4197.94873,4198.461426,4211.794922,4204.102539,4208.205078,4201.025879,4214.871582,4201.025879
7,4203.589844,4198.974121,4187.692383,4189.230957,4187.179688,4201.025879,4197.94873,4189.230957,4201.538574,4201.538574,4201.025879,4200.512695,4205.128418,4197.436035
8,4198.974121,4197.436035,4185.128418,4185.641113,4184.615234,4197.436035,4195.384766,4181.538574,4185.641113,4189.230957,4196.410156,4195.384766,4194.358887,4188.205078
9,4187.179688,4195.897461,4175.384766,4184.102539,4186.153809,4196.922852,4196.922852,4184.102539,4180.0,4178.974121,4191.282227,4184.102539,4186.666504,4184.102539
10,4184.615234,4197.436035,4170.256348,4187.692383,4188.205078,4200.512695,4201.538574,4185.641113,4190.256348,4186.153809,4185.641113,4180.0,4184.615234,4183.077148
11,4191.794922,4198.461426,4177.436035,4187.179688,4185.128418,4198.974121,4194.871582,4186.153809,4201.025879,4196.922852,4191.282227,4184.615234,4189.743652,4179.487305
12,4197.436035,4199.487305,4184.615234,4187.179688,4183.589844,4194.871582,4185.641113,4188.205078,4205.641113,4201.025879,4198.974121,4190.769043,4197.436035,4182.563965
13,4199.487305,4201.025879,4183.589844,4193.333496,4186.666504,4197.94873,4191.282227,4187.692383,4206.666504,4202.563965,4196.922852,4194.871582,4200.0,4187.692383
14,4203.589844,4201.025879,4185.128418,4198.461426,4188.205078,4202.563965,4201.025879,4187.692383,4201.538574,4196.922852,4197.94873,4194.871582,4198.974121,4187.179688
15,4208.717773,4201.025879,4190.769043,4194.871582,4186.153809,4193.333496,4196.922852,4188.205078,4189.230957,4187.179688,4203.077148,4196.922852,4199.487305,4193.846191
16,4208.205078,4203.077148,4193.846191,4191.282227,4189.743652,4188.717773,4195.384766,4188.205078,4183.077148,4186.153809,4205.128418,4201.538574,4200.512695,4204.102539
17,4203.077148,4202.05127,4193.333496,4190.769043,4190.769043,4197.94873,4201.025879,4190.256348,4189.743652,4190.256348,4201.025879,4202.05127,4200.0,4203.589844
18,4200.512695,4198.974121,4189.743652,4187.692383,4185.641113,4198.974121,4198.974121,4190.256348,4190.769043,4186.153809,4199.487305,4200.512695,4203.077148,4195.897461
19,4203.077148,4196.922852,4185.128418,4185.641113,4183.589844,4190.256348,4195.384766,4186.153809,4188.717773,4180.512695,4201.538574,4197.436035,4201.025879,4193.846191
20,4198.461426,4193.846191,4183.077148,4185.641113,4185.641113,4191.282227,4193.846191,4182.563965,4185.641113,4174.871582,4195.897461,4187.179688,4189.230957,4187.692383
21,4189.743652,4191.282227,4182.563965,4186.153809,4185.128418,4197.436035,4194.871582,4183.589844,4182.05127,4166.666504,4183.077148,4180.512695,4184.102539,4177.94873
22,4187.179688,4189.230957,4181.538574,4185.641113,4183.077148,4194.358887,4195.384766,4185.641113,4188.205078,4167.692383,4181.538574,4183.077148,4188.205078,4177.436035
23,4187.692383,4189.743652,4183.077148,4183.589844,4184.102539,4190.769043,4191.282227,4186.153809,4200.0,4180.0,4195.897461,4185.641113,4189.743652,4177.94873
24,4187.692383,4190.256348,4180.512695,4184.615234,4185.128418,4193.333496,4184.615234,4186.153809,4204.615234,4187.692383,4199.487305,4183.589844,4187.692383,4173.333496
25,4183.589844,4187.692383,4174.871582,4183.077148,4182.563965,4194.871582,4183.589844,4184.615234,4203.077148,4184.615234,4188.717773,4178.974121,4187.179688,4170.256348
26,4183.077148,4191.282227,4177.94873,4183.589844,4183.589844,4199.487305,4192.307617,4184.102539,4195.384766,4174.871582,4184.615234,4180.0,4186.666504,4170.769043
27,4193.333496,4203.589844,4186.153809,4194.871582,4188.717773,4207.692383,4200.0,4184.102539,4185.128418,4169.230957,4189.743652,4182.563965,4186.153809,4169.230957
28,4203.077148,4206.666504,4187.692383,4201.025879,4189.743652,4208.205078,4203.077148,4184.102539,4186.666504,4169.230957,4190.256348,4176.922852,4187.692383,4173.846191
29,4201.025879,4197.94873,4185.128418,4190.769043,4187.692383,4202.05127,4202.05127,4185.641113,4195.384766,4168.205078,4186.666504,4174.358887,4187.179688,4184.102539
30,4204.615234,4198.974121,4187.692383,4184.102539,4185.128418,4196.410156,4202.05127,4187.179688,4198.974121,4169.230957,4190.769043,4185.128418,4188.205078,4186.153809
31,4211.282227,4201.025879,4192.307617,4187.692383,4183.077148,4191.282227,4202.05127,4189.230957,4196.922852,4171.794922,4190.256348,4189.743652,4189.230957,4185.128418
32,4207.179688,4190.769043,4190.769043,4185.128418,4184.615234,4187.692383,4199.487305,4192.307617,4189.743652,4167.179688,4183.589844,4182.05127,4187.692383,4185.641113
33,4207.692383,4190.769043,4187.692383,4185.128418,4186.666504,4192.307617,4195.897461,4195.897461,4183.077148,4158.461426,4189.743652,4181.025879,4188.205078,4183.589844
34,4211.794922,4203.589844,4188.717773,4190.769043,4185.128418,4197.94873,4193.333496,4195.897461,4182.05127,4154.358887,4200.512695,4183.077148,4188.717773,4183.077148
35,4205.128418,4206.666504,4188.717773,4188.205078,4184.102539,4199.487305,4191.794922,4190.769043,4186.666504,4152.307617,4195.897461,4175.897461,4184.102539,4181.538574
36,4194.871582,4197.94873,4183.077148,4183.077148,4186.153809,4200.0,4189.743652,4184.615234,4195.897461,4154.358887,4187.692383,4167.179688,4183.589844,4172.307617
37,4192.307617,4194.358887,4178.974121,4182.563965,4184.615234,4195.897461,4186.666504,4188.717773,4201.538574,4163.077148,4193.846191,4169.743652,4194.358887,4169.743652
38,4196.410156,4196.410156,4180.0,4185.641113,4181.025879,4195.897461,4188.205078,4198.461426,4205.128418,4174.871582,4203.077148,4181.025879,4201.538574,4181.538574
39,4200.512695,4197.94873,4184.615234,4188.717773,4182.563965,4196.922852,4191.794922,4200.512695,4209.743652,4183.589844,4202.05127,4190.769043,4200.0,4187.692383
40,4198.461426,4200.0,4184.615234,4188.205078,4186.153809,4189.743652,4190.256348,4196.410156,4204.615234,4183.077148,4202.563965,4193.846191,4200.0,4182.05127
41,4204.102539,4202.05127,4186.153809,4191.794922,4186.666504,4185.128418,4189.743652,4195.897461,4190.769043,4178.974121,4207.692383,4195.384766,4204.615234,4187.179688
42,4216.922852,4202.563965,4193.846191,4196.922852,4183.589844,4187.692383,4191.794922,4198.974121,4182.05127,4173.333496,4207.692383,4200.512695,4204.615234,4202.05127
43,4216.410156,4201.538574,4197.436035,4193.333496,4184.102539,4187.179688,4189.743652,4199.487305,4179.487305,4169.743652,4209.230957,4204.102539,4200.512695,4204.615234
44,4212.820313,4203.077148,4196.922852,4192.307617,4185.128418,4188.717773,4190.769043,4198.974121,4181.025879,4179.487305,4214.871582,4204.615234,4205.128418,4195.897461
45,4219.487305,4202.563965,4195.897461,4197.436035,4183.589844,4198.461426,4197.436035,4198.974121,4187.179688,4187.179688,4210.256348,4204.102539,4209.230957,4190.256348
46,4221.025879,4198.461426,4195.384766,4193.846191,4182.563965,4200.0,4198.974121,4197.94873,4193.333496,4174.358887,4200.0,4200.512695,4197.94873,4191.794922
47,4217.436035,4197.94873,4196.410156,4190.256348,4184.102539,4193.333496,4196.410156,4196.922852,4197.94873,4166.153809,4196.922852,4198.461426,4189.230957,4197.94873
48,4222.563965,4202.05127,4200.512695,4197.436035,4186.666504,4189.230957,4195.897461,4197.94873,4203.077148,4172.307617,4201.025879,4205.128418,4195.897461,4201.538574
49,4230.256348,4205.641113,4202.563965,4201.025879,4188.205078,4188.205078,4195.897461,4198.461426,4202.05127,4172.307617,4205.128418,4212.820313,4204.102539,4200.0
50,4230.769043,4205.128418,4201.538574,4198.461426,4187.179688,4190.769043,4197.436035,4197.436035,4190.769043,4165.641113,4205.128418,4209.743652,4204.615234,4202.563965
51,4230.769043,4203.077148,4202.563965,4200.0,4186.153809,4192.820313,4200.512695,4200.512695,4180.0,4169.743652,4202.563965,4205.128418,4203.589844,4203.077148
52,4227.692383,4202.05127,4201.025879,4200.0,4183.589844,4196.410156,4202.05127,4203.589844,4180.512695,4177.94873,4203.589844,4204.102539,4202.563965,4193.333496
53,4220.0,4198.461426,4191.794922,4191.794922,4181.538574,4201.025879,4203.589844,4203.077148,4185.641113,4176.410156,4202.05127,4197.436035,4196.410156,4185.641113
54,4212.307617,4190.256348,4183.589844,4184.102539,4183.077148,4198.461426,4197.94873,4202.05127,4188.205078,4175.897461,4198.461426,4189.743652,4192.820313,4184.102539
55,4209.230957,4189.230957,4184.102539,4183.589844,4186.666504,4190.256348,4188.717773,4204.102539,4198.974121,4185.641113,4200.512695,4192.307617,4195.384766,4184.102539
56,4204.615234,4190.769043,4184.102539,4187.179688,4186.153809,4186.666504,4187.179688,4203.077148,4216.410156,4190.256348,4203.077148,4196.410156,4191.794922,4184.615234
57,4201.025879,4187.692383,4182.05127,4185.641113,4183.077148,4187.692383,4183.589844,4197.436035,4215.897461,4184.102539,4198.461426,4193.846191,4185.128418,4185.128418
58,4205.641113,4191.794922,4185.641113,4184.615234,4185.641113,4189.230957,4180.512695,4196.922852,4204.102539,4187.179688,4192.307617,4195.897461,4187.179688,4186.153809
59,4213.333496,4199.487305,4187.179688,4188.205078,4187.692383,4189.743652,4183.589844,4197.94873,4197.94873,4190.256348,4190.769043,4197.94873,4186.666504,4186.666504
60,4213.846191,4196.410156,4184.102539,4189.230957,4180.0,4187.692383,4185.128418,4189.230957,4184.615234,4180.0,4194.358887,4190.769043,4181.538574,4184.102539
61,4207.179688,4188.205078,4183.589844,4186.153809,4174.358887,4182.563965,4180.512695,4184.102539,4164.615234,4167.179688,4196.410156,4187.179688,4183.589844,4182.05127
62,4206.153809,4190.256348,4184.615234,4187.179688,4180.512695,4183.077148,4182.563965,4193.846191,4167.692383,4160.0,4194.358887,4191.794922,4189.230957,4183.077148
63,4212.307617,4195.384766,4184.102539,4190.769043,4185.641113,4187.179688,4187.692383,4203.077148,4186.153809,4163.077148,4190.256348,4194.358887,4187.692383,4181.025879
64,4208.205078,4190.256348,4184.102539,4188.717773,4182.05127,4188.205078,4186.666504,4203.077148,4192.307617,4169.743652,4183.589844,4185.641113,4175.897461,4173.846191
65,4199.487305,4183.589844,4184.102539,4185.128418,4181.025879,4192.820313,4187.692383,4200.512695,4187.692383,4165.128418,4182.05127,4180.0,4168.717773,4170.769043
66,4198.974121,4184.102539,4184.102539,4185.128418,4183.589844,4198.461426,4192.307617,4197.436035,4185.641113,4154.871582,4184.615234,4183.077148,4177.436035,4167.692383
67,4202.563965,4186.153809,4184.102539,4185.641113,4182.05127,4198.461426,4196.922852,4198.461426,4189.743652,4158.461426,4183.077148,4184.102539,4185.128418,4165.641113
68,4204.615234,4184.102539,4183.589844,4187.179688,4180.512695,4197.436035,4197.94873,4203.589844,4200.0,4170.256348,4189.230957,4186.153809,4183.589844,4175.897461
69,4204.615234,4184.102539,4184.615234,4189.230957,4181.538574,4196.410156,4193.333496,4205.128418,4208.717773,4174.358887,4200.512695,4191.282227,4184.615234,4183.077148
70,4201.538574,4185.641113,4184.615234,4187.179688,4183.077148,4187.692383,4185.641113,4201.538574,4202.563965,4173.846191,4198.974121,4191.282227,4187.179688,4178.461426
71,4197.94873,4184.102539,4182.563965,4185.128418,4183.077148,4184.102539,4182.563965,4199.487305,4190.769043,4175.384766,4190.256348,4185.641113,4188.205078,4176.922852
72,4205.128418,4189.230957,4183.077148,4192.307617,4186.666504,4188.205078,4184.102539,4200.512695,4192.307617,4181.538574,4197.436035,4187.179688,4195.384766,4186.666504
73,4214.358887,4199.487305,4186.153809,4201.025879,4188.717773,4187.179688,4184.102539,4202.05127,4200.512695,4185.641113,4207.179688,4191.794922,4203.077148,4189.743652
74,4213.333496,4200.512695,4186.153809,4200.512695,4185.128418,4185.128418,4185.128418,4205.128418,4203.077148,4182.05127,4195.897461,4190.256348,4197.94873,4174.871582
75,4204.102539,4192.820313,4184.102539,4195.384766,4181.538574,4186.666504,4187.179688,4205.641113,4200.512695,4174.871582,4183.077148,4187.179688,4185.641113,4169.230957
76,4203.077148,4187.692383,4183.077148,4195.384766,4181.025879,4183.589844,4188.205078,4202.563965,4192.307617,4171.282227,4185.641113,4185.641113,4183.077148,4176.922852
77,4210.769043,4191.282227,4184.615234,4197.436035,4184.615234,4183.589844,4188.717773,4201.025879,4182.563965,4169.230957,4186.666504,4187.179688,4187.692383,4181.025879
78,4217.436035,4198.461426,4191.282227,4197.436035,4186.153809,4187.179688,4186.666504,4200.512695,4180.0,4167.692383,4183.589844,4190.769043,4186.666504,4176.922852
79,4225.128418,4202.05127,4198.461426,4200.0,4187.179688,4185.128418,4186.666504,4200.0,4182.05127,4169.230957,4192.307617,4198.461426,4190.769043,4184.102539
80,4230.769043,4202.563965,4202.05127,4203.077148,4190.769043,4189.230957,4192.307617,4201.538574,4187.692383,4177.94873,4205.641113,4203.077148,4203.589844,4198.461426
81,4230.256348,4201.538574,4201.538574,4203.077148,4192.307617,4198.974121,4200.0,4204.102539,4199.487305,4186.153809,4205.128418,4204.615234,4204.615234,4199.487305
82,4228.205078,4199.487305,4200.512695,4201.538574,4191.282227,4201.025879,4201.025879,4203.589844,4207.692383,4184.615234,4199.487305,4206.666504,4198.974121,4194.358887
83,4226.153809,4201.538574,4198.974121,4201.538574,4194.358887,4200.512695,4195.384766,4202.563965,4212.307617,4184.615234,4201.025879,4207.692383,4201.538574,4194.358887
84,4216.922852,4201.538574,4191.794922,4198.974121,4198.974121,4204.102539,4189.230957,4202.563965,4218.461426,4190.769043,4205.128418,4199.487305,4201.025879,4187.692383
85,4203.589844,4192.307617,4178.974121,4195.384766,4201.025879,4203.077148,4186.666504,4203.589844,4216.410156,4191.282227,4198.461426,4186.153809,4190.769043,4170.256348
86,4200.0,4191.282227,4174.871582,4196.922852,4201.025879,4199.487305,4188.717773,4201.025879,4206.666504,4184.615234,4188.717773,4179.487305,4186.666504,4168.717773
87,4208.205078,4200.512695,4183.077148,4199.487305,4199.487305,4201.025879,4195.384766,4198.974121,4200.0,4186.666504,4193.333496,4184.102539,4191.794922,4182.563965
88,4217.436035,4204.102539,4188.717773,4200.512695,4200.0,4201.025879,4200.512695,4201.025879,4202.05127,4194.358887,4200.512695,4195.897461,4194.358887,4184.102539
89,4213.846191,4201.538574,4186.153809,4201.538574,4204.615234,4198.974121,4197.94873,4202.563965,4200.512695,4192.820313,4191.282227,4200.0,4190.256348,4184.615234
90,4203.589844,4197.94873,4182.563965,4197.436035,4200.0,4196.410156,4189.230957,4198.461426,4189.230957,4184.615234,4181.025879,4194.871582,4185.128418,4187.692383
91,4205.128418,4196.410156,4183.077148,4193.846191,4192.307617,4192.820313,4182.563965,4196.410156,4187.692383,4181.538574,4188.717773,4195.897461,4181.538574,4184.615234
92,4215.897461,4200.512695,4187.692383,4198.974121,4196.410156,4194.871582,4185.641113,4200.0,4196.410156,4183.589844,4200.0,4202.05127,4187.179688,4188.205078
93,4214.358887,4196.922852,4188.205078,4199.487305,4202.05127,4201.025879,4194.358887,4202.563965,4203.077148,4188.205078,4197.436035,4202.563965,4195.897461,4201.025879
94,4207.179688,4185.128418,4185.128418,4194.871582,4198.461426,4199.487305,4198.461426,4207.179688,4207.692383,4195.897461,4194.358887,4206.153809,4198.461426,4200.0
95,4213.333496,4189.743652,4189.743652,4197.436035,4197.94873,4198.974121,4200.512695,4214.358887,4213.333496,4205.128418,4201.025879,4217.94873,4199.487305,4197.436035
96,4218.461426,4203.077148,4197.436035,4202.05127,4206.153809,4207.179688,4212.307617,4217.436035,4217.94873,4210.769043,4208.717773,4221.538574,4203.589844,4210.256348
97,4215.897461,4204.102539,4193.846191,4201.538574,4213.333496,4209.743652,4221.025879,4215.897461,4218.974121,4216.410156,4214.871582,4218.461426,4205.641113,4216.410156
98,4214.871582,4200.512695,4187.692383,4201.538574,4214.358887,4203.589844,4212.820313,4214.871582,4218.974121,4214.871582,4219.487305,4216.922852,4205.128418,4205.641113
99,4213.333496,4202.05127,4187.179688,4200.512695,4214.871582,4202.563965,4208.717773,4213.846191,4215.897461,4212.820313,4214.871582,4215.384766,4206.153809,4197.94873
100,4212.307617,4203.589844,4191.282227,4201.538574,4218.461426,4204.102539,4213.333496,4214.871582,4217.94873,4224.615234,4212.820313,4216.410156,4206.666504,4202.563965
101,4214.871582,4204.102539,4196.410156,4209.230957,4219.487305,4204.615234,4208.205078,4214.871582,4223.077148,4232.820313,4218.461426,4218.974121,4205.128418,4204.102539
102,4214.871582,4202.563965,4195.384766,4208.205078,4215.897461,4204.615234,4200.0,4208.205078,4219.487305,4222.05127,4213.333496,4218.461426,4201.538574,4202.05127
103,4215.384766,4201.538574,4190.769043,4202.05127,4215.897461,4203.589844,4201.025879,4200.512695,4213.333496,4214.871582,4200.0,4214.871582,4202.05127,4204.615234
104,4219.487305,4203.077148,4196.922852,4206.666504,4217.94873,4206.666504,4201.025879,4200.512695,4216.922852,4215.384766,4200.512695,4216.922852,4206.666504,4206.153809
105,4217.94873,4203.589844,4201.538574,4211.282227,4217.436035,4211.794922,4202.563965,4204.102539,4216.410156,4206.666504,4204.615234,4218.461426,4201.025879,4204.615234
106,4214.358887,4201.538574,4190.256348,4204.102539,4213.333496,4213.333496,4208.717773,4202.563965,4205.128418,4196.410156,4196.410156,4211.282227,4191.794922,4198.461426
107,4215.384766,4200.512695,4184.102539,4200.512695,4215.897461,4213.846191,4209.230957,4201.025879,4203.589844,4195.384766,4190.256348,4205.641113,4193.846191,4196.922852
108,4216.922852,4204.102539,4191.794922,4208.717773,4225.641113,4215.384766,4210.256348,4204.102539,4216.922852,4199.487305,4201.538574,4211.282227,4207.179688,4208.205078
109,4216.922852,4208.717773,4197.94873,4212.307617,4230.769043,4215.897461,4216.922852,4204.615234,4222.563965,4206.153809,4209.230957,4216.922852,4212.307617,4214.871582
110,4218.974121,4212.820313,4197.94873,4212.820313,4227.179688,4213.846191,4214.871582,4201.025879,4207.692383,4202.563965,4202.563965,4213.333496,4204.615234,4203.589844
111,4227.179688,4217.436035,4199.487305,4217.94873,4221.538574,4205.128418,4207.179688,4198.974121,4190.769043,4197.94873,4206.666504,4218.461426,4206.153809,4200.0
112,4232.307617,4219.487305,4201.538574,4220.512695,4218.461426,4197.94873,4210.256348,4201.538574,4193.333496,4209.743652,4225.641113,4227.692383,4221.025879,4213.333496
113,4225.128418,4218.974121,4202.05127,4220.0,4219.487305,4205.641113,4215.384766,4205.128418,4211.794922,4221.025879,4232.307617,4223.589844,4226.153809,4217.94873
114,4215.897461,4214.871582,4198.974121,4214.358887,4220.512695,4216.410156,4210.256348,4206.666504,4226.666504,4217.436035,4220.0,4212.820313,4214.358887,4203.589844
115,4212.307617,4205.128418,4190.769043,4206.153809,4218.974121,4218.461426,4211.282227,4203.589844,4231.794922,4213.333496,4203.077148,4203.589844,4198.461426,4186.666504
116,4208.717773,4201.538574,4190.769043,4207.692383,4221.025879,4219.487305,4217.436035,4201.025879,4231.282227,4209.230957,4196.410156,4198.974121,4188.205078,4188.717773
117,4211.794922,4208.205078,4197.94873,4215.384766,4222.563965,4220.0,4212.307617,4200.0,4223.077148,4201.025879,4200.512695,4201.538574,4189.230957,4203.589844
118,4223.589844,4217.94873,4201.025879,4218.461426,4216.922852,4214.871582,4206.153809,4198.974121,4212.307617,4204.102539,4203.077148,4210.256348,4196.410156,4209.230957
119,4232.307617,4225.641113,4206.666504,4221.538574,4215.897461,4203.077148,4208.205078,4199.487305,4204.102539,4214.358887,4204.102539,4218.974121,4208.205078,4211.282227
120,4234.871582,4233.333496,4215.897461,4230.769043,4225.128418,4196.410156,4209.743652,4202.05127,4207.692383,4218.974121,4218.974121,4227.692383,4225.641113,4226.153809
121,4238.461426,4238.461426,4216.410156,4233.846191,4231.794922,4204.615234,4213.333496,4204.102539,4214.871582,4220.512695,4237.94873,4230.769043,4230.256348,4234.871582
122,4234.358887,4232.307617,4206.666504,4226.153809,4228.717773,4214.358887,4217.94873,4204.615234,4209.230957,4219.487305,4231.794922,4222.563965,4216.922852,4218.461426
123,4222.563965,4221.025879,4197.436035,4216.922852,4226.666504,4216.922852,4216.922852,4203.589844,4197.436035,4208.717773,4212.307617,4208.717773,4203.077148,4202.05127
124,4214.358887,4214.358887,4192.820313,4214.358887,4225.128418,4224.102539,4217.436035,4202.05127,4196.922852,4193.333496,4203.077148,4198.974121,4197.436035,4201.025879
125,4216.922852,4215.384766,4194.358887,4220.0,4221.538574,4235.384766,4222.05127,4202.05127,4210.256348,4189.743652,4200.512695,4199.487305,4197.94873,4204.615234
126,4222.05127,4217.94873,4197.436035,4223.589844,4219.487305,4234.871582,4220.0,4202.05127,4223.589844,4199.487305,4203.077148,4202.05127,4200.512695,4202.563965
127,4221.538574,4213.846191,4196.410156,4217.436035,4218.461426,4223.077148,4212.820313,4199.487305,4230.256348,4209.230957,4212.820313,4201.025879,4201.025879,4201.538574
