,AF3,F7,F3,FC5,T7,P7,O1,O2,P8,T8,FC6,F4,F8,AF4
0,4216.410156,4209.743652,4203.589844,4220.0,4208.205078,4201.025879,4184.615234,4188.717773,4208.717773,4220.512695,4210.769043,4204.615234,4209.230957,4232.307617
1,4217.436035,4212.820313,4204.615234,4221.025879,4208.717773,4201.025879,4181.538574,4198.974121,4215.897461,4222.563965,4217.436035,4204.102539,4217.436035,4225.641113
2,4202.05127,4202.05127,4196.922852,4212.820313,4202.563965,4191.282227,4171.282227,4189.743652,4205.128418,4216.410156,4204.615234,4197.94873,4202.563965,4214.871582
3,4198.461426,4196.922852,4191.794922,4209.743652,4200.512695,4189.230957,4174.358887,4181.538574,4202.563965,4215.897461,4197.94873,4196.410156,4191.794922,4213.333496
4,4211.794922,4205.641113,4199.487305,4218.461426,4203.589844,4198.974121,4186.153809,4193.333496,4213.846191,4217.94873,4208.717773,4205.128418,4203.589844,4215.897461
5,4215.384766,4207.692383,4203.589844,4218.461426,4204.615234,4201.025879,4185.641113,4201.538574,4215.897461,4216.922852,4215.384766,4209.230957,4215.384766,4218.461426
6,4203.589844,4200.0,4196.922852,4210.769043,4201.538574,4197.436035,4182.05127,4196.922852,4211.282227,4213.846191,4207.179688,4200.0,4212.307617,4219.487305
7,4201.025879,4201.025879,4200.0,4214.871582,4201.538574,4201.025879,4187.692383,4197.436035,4216.922852,4211.794922,4205.641113,4200.0,4211.282227,4220.0
8,4205.641113,4198.974121,4201.538574,4213.333496,4201.025879,4201.538574,4188.717773,4197.94873,4215.384766,4206.153809,4205.128418,4202.563965,4208.205078,4212.820313
9,4200.0,4188.205078,4188.717773,4200.512695,4198.974121,4196.410156,4183.077148,4195.384766,4203.589844,4201.025879,4191.794922,4191.282227,4195.384766,4199.487305
10,4196.410156,4190.769043,4188.717773,4204.102539,4198.974121,4196.410156,4184.615234,4197.94873,4206.666504,4207.692383,4194.871582,4188.717773,4193.333496,4194.358887
11,4201.025879,4200.512695,4197.94873,4215.384766,4201.538574,4200.0,4187.692383,4200.512695,4217.436035,4219.487305,4213.333496,4201.025879,4207.179688,4204.615234
12,4204.102539,4201.538574,4198.461426,4216.410156,4209.743652,4203.077148,4188.717773,4199.487305,4217.94873,4226.153809,4218.974121,4204.615234,4217.94873,4216.410156
13,4203.589844,4203.077148,4198.974121,4217.436035,4211.794922,4204.615234,4187.692383,4200.512695,4217.94873,4224.615234,4210.769043,4201.025879,4215.897461,4214.871582
14,4200.0,4203.077148,4196.922852,4215.384766,4206.666504,4201.025879,4184.102539,4197.94873,4219.487305,4216.922852,4205.128418,4198.974121,4204.615234,4203.589844
15,4201.025879,4201.025879,4194.358887,4213.333496,4208.205078,4198.974121,4183.077148,4193.333496,4207.692383,4212.307617,4206.666504,4201.025879,4201.538574,4201.538574
16,4216.410156,4211.794922,4207.179688,4228.205078,4216.922852,4204.615234,4191.794922,4197.436035,4202.05127,4216.410156,4216.922852,4212.820313,4216.922852,4220.512695
17,4227.179688,4222.05127,4221.025879,4235.384766,4216.410156,4207.692383,4199.487305,4200.0,4207.179688,4215.384766,4221.538574,4219.487305,4224.102539,4233.846191
18,4222.05127,4216.922852,4213.846191,4220.512695,4211.282227,4202.563965,4195.384766,4195.384766,4206.153809,4211.282227,4214.358887,4213.333496,4214.358887,4228.717773
19,4227.692383,4223.077148,4212.820313,4221.538574,4215.384766,4200.512695,4196.922852,4196.922852,4213.333496,4224.102539,4224.102539,4221.025879,4224.102539,4234.871582
20,4243.589844,4236.410156,4225.641113,4236.922852,4216.410156,4207.692383,4208.717773,4205.128418,4233.333496,4236.410156,4241.025879,4236.922852,4249.230957,4254.358887
21,4242.05127,4229.743652,4226.153809,4235.897461,4212.307617,4211.282227,4216.410156,4206.153809,4239.487305,4235.384766,4235.897461,4234.871582,4246.666504,4250.769043
22,4229.743652,4217.436035,4213.846191,4225.641113,4213.333496,4208.717773,4211.794922,4201.025879,4223.589844,4229.230957,4225.128418,4229.230957,4230.769043,4232.307617
23,4229.230957,4217.436035,4212.820313,4224.615234,4216.922852,4209.230957,4205.641113,4199.487305,4212.820313,4222.05127,4230.256348,4230.769043,4230.769043,4230.769043
24,4233.846191,4219.487305,4217.94873,4226.153809,4215.897461,4212.820313,4207.179688,4201.025879,4216.922852,4217.436035,4234.871582,4226.666504,4231.282227,4233.846191
25,4225.641113,4213.846191,4209.743652,4223.077148,4214.358887,4214.871582,4208.717773,4199.487305,4215.897461,4213.846191,4223.077148,4216.922852,4218.461426,4220.0
26,4215.384766,4206.666504,4199.487305,4217.94873,4213.846191,4212.820313,4203.589844,4196.410156,4203.589844,4206.666504,4212.307617,4211.794922,4212.307617,4210.256348
27,4213.846191,4203.589844,4201.025879,4214.871582,4211.282227,4209.743652,4201.025879,4196.922852,4199.487305,4204.615234,4212.307617,4210.769043,4214.358887,4213.333496
28,4216.922852,4204.615234,4201.538574,4217.94873,4211.794922,4210.256348,4209.230957,4201.538574,4210.769043,4215.384766,4214.871582,4211.794922,4215.384766,4210.769043
29,4215.897461,4205.641113,4201.025879,4221.025879,4214.871582,4214.871582,4217.436035,4202.05127,4217.94873,4218.974121,4213.846191,4212.820313,4214.358887,4209.743652
30,4214.358887,4205.641113,4203.077148,4217.94873,4215.897461,4216.410156,4215.897461,4202.05127,4215.897461,4212.307617,4213.846191,4211.794922,4212.820313,4217.94873
31,4219.487305,4209.743652,4205.641113,4218.461426,4214.358887,4216.410156,4213.846191,4208.205078,4216.410156,4211.282227,4215.384766,4212.820313,4214.871582,4221.538574
32,4229.743652,4215.897461,4209.743652,4225.641113,4215.384766,4220.512695,4219.487305,4209.743652,4223.077148,4217.94873,4218.974121,4218.974121,4221.025879,4222.05127
33,4233.333496,4213.333496,4209.743652,4224.615234,4213.333496,4215.897461,4215.897461,4202.563965,4217.94873,4216.410156,4216.922852,4221.025879,4220.512695,4222.563965
34,4223.077148,4202.05127,4201.538574,4214.871582,4204.615234,4204.102539,4204.102539,4197.436035,4201.025879,4202.563965,4207.692383,4210.769043,4211.282227,4216.922852
35,4215.384766,4197.94873,4199.487305,4214.358887,4200.0,4206.666504,4208.717773,4200.0,4196.922852,4198.974121,4208.717773,4207.179688,4209.743652,4211.282227
36,4222.563965,4201.025879,4203.589844,4218.461426,4207.692383,4213.846191,4217.94873,4197.94873,4204.615234,4204.615234,4210.769043,4213.333496,4213.333496,4213.846191
37,4232.820313,4204.615234,4203.077148,4219.487305,4214.358887,4207.692383,4214.358887,4197.94873,4203.077148,4203.077148,4208.717773,4211.794922,4214.358887,4216.410156
38,4227.692383,4206.153809,4202.05127,4220.0,4212.820313,4200.512695,4212.307617,4198.974121,4197.94873,4205.128418,4211.282227,4204.102539,4213.846191,4209.230957
39,4217.436035,4203.589844,4201.538574,4218.974121,4211.794922,4204.615234,4213.846191,4189.743652,4201.025879,4211.794922,4210.256348,4202.05127,4212.820313,4202.05127
40,4212.820313,4198.974121,4196.922852,4214.358887,4207.179688,4204.102539,4208.205078,4187.692383,4203.589844,4213.333496,4203.589844,4200.0,4212.307617,4202.05127
41,4206.153809,4195.897461,4194.871582,4212.307617,4202.563965,4200.512695,4199.487305,4196.922852,4202.563965,4213.333496,4206.153809,4197.94873,4212.820313,4200.512695
42,4205.641113,4194.871582,4197.436035,4213.846191,4206.153809,4209.230957,4202.05127,4201.025879,4209.230957,4213.333496,4214.871582,4206.666504,4210.256348,4198.974121
43,4219.487305,4200.0,4206.153809,4216.922852,4212.820313,4214.871582,4210.256348,4197.94873,4220.0,4217.436035,4216.410156,4216.922852,4213.333496,4214.871582
44,4231.282227,4204.615234,4213.846191,4217.94873,4214.871582,4210.769043,4213.333496,4198.974121,4218.461426,4226.666504,4217.94873,4222.05127,4226.666504,4228.717773
45,4231.794922,4200.0,4215.384766,4218.974121,4209.743652,4210.769043,4213.846191,4200.0,4213.846191,4226.153809,4217.94873,4228.717773,4232.307617,4221.538574
46,4230.769043,4197.436035,4214.871582,4217.94873,4203.589844,4216.410156,4214.871582,4198.974121,4214.358887,4214.871582,4216.922852,4230.256348,4223.589844,4220.512695
47,4232.307617,4205.128418,4216.922852,4216.410156,4203.589844,4217.436035,4217.436035,4205.128418,4222.05127,4220.0,4226.666504,4229.230957,4225.641113,4232.820313
48,4240.512695,4214.358887,4220.0,4225.641113,4209.230957,4214.871582,4223.589844,4213.846191,4238.974121,4239.487305,4232.307617,4240.512695,4244.615234,4236.922852
49,4249.230957,4219.487305,4221.538574,4232.307617,4211.794922,4210.769043,4224.102539,4219.487305,4247.692383,4241.538574,4231.282227,4248.717773,4250.769043,4234.871582
50,4244.102539,4213.333496,4220.0,4222.05127,4211.794922,4210.769043,4217.436035,4215.384766,4232.820313,4229.230957,4229.743652,4237.94873,4237.436035,4231.794922
51,4232.820313,4204.615234,4215.384766,4216.410156,4210.256348,4210.769043,4215.897461,4205.641113,4217.436035,4225.641113,4225.128418,4225.128418,4226.666504,4224.102539
52,4225.128418,4204.102539,4207.692383,4221.538574,4204.615234,4205.128418,4214.871582,4201.538574,4217.94873,4225.128418,4218.461426,4222.563965,4222.563965,4213.846191
53,4213.846191,4196.410156,4197.94873,4215.897461,4200.0,4204.615234,4204.102539,4197.94873,4215.384766,4216.922852,4211.794922,4215.897461,4215.897461,4202.05127
54,4206.666504,4183.589844,4194.358887,4207.692383,4203.077148,4209.230957,4197.94873,4193.333496,4209.230957,4213.333496,4204.615234,4205.641113,4211.282227,4196.922852
55,4212.307617,4188.717773,4197.436035,4213.333496,4206.153809,4204.615234,4200.512695,4189.230957,4212.307617,4218.461426,4205.641113,4206.666504,4214.358887,4200.512695
56,4217.94873,4201.025879,4201.025879,4220.0,4203.589844,4197.436035,4200.0,4189.743652,4214.871582,4217.94873,4215.384766,4215.897461,4217.436035,4205.128418
57,4223.077148,4200.0,4200.512695,4216.922852,4205.128418,4202.05127,4200.512695,4194.358887,4210.769043,4211.794922,4215.384766,4219.487305,4216.922852,4206.666504
58,4229.743652,4198.461426,4202.05127,4216.410156,4213.333496,4210.256348,4208.205078,4198.974121,4212.307617,4213.846191,4209.743652,4220.512695,4213.846191,4215.384766
59,4233.846191,4202.05127,4209.230957,4220.512695,4212.820313,4215.384766,4217.94873,4203.077148,4219.487305,4217.94873,4211.282227,4224.102539,4214.871582,4226.666504
60,4233.333496,4200.0,4211.794922,4219.487305,4204.102539,4215.384766,4220.512695,4205.128418,4219.487305,4211.282227,4212.307617,4226.153809,4217.436035,4226.153809
61,4232.820313,4200.512695,4213.333496,4216.922852,4203.077148,4214.871582,4217.94873,4206.153809,4213.333496,4207.179688,4209.743652,4227.692383,4216.922852,4219.487305
62,4231.282227,4198.974121,4214.871582,4218.461426,4206.666504,4216.922852,4217.94873,4202.563965,4213.846191,4213.846191,4207.692383,4230.256348,4212.820313,4218.461426
63,4227.692383,4190.256348,4207.692383,4217.94873,4207.179688,4216.922852,4216.922852,4199.487305,4213.846191,4207.179688,4202.563965,4224.615234,4202.05127,4216.410156
64,4227.692383,4192.820313,4205.128418,4216.922852,4212.307617,4216.410156,4216.410156,4202.563965,4213.846191,4196.410156,4199.487305,4220.0,4202.05127,4212.820313
65,4227.692383,4203.077148,4213.846191,4219.487305,4216.410156,4218.461426,4220.0,4202.05127,4217.436035,4204.102539,4204.102539,4223.077148,4216.922852,4216.410156
66,4222.563965,4203.077148,4209.743652,4219.487305,4210.769043,4214.871582,4212.820313,4191.282227,4210.769043,4205.641113,4200.0,4218.461426,4216.410156,4212.307617
67,4209.743652,4194.358887,4193.333496,4214.871582,4205.641113,4207.179688,4197.94873,4181.538574,4198.461426,4191.282227,4189.743652,4208.205078,4201.025879,4197.94873
68,4201.538574,4191.282227,4189.743652,4212.820313,4208.205078,4207.692383,4200.512695,4186.666504,4201.025879,4189.743652,4191.794922,4209.743652,4196.410156,4195.384766
69,4210.769043,4199.487305,4198.974121,4218.974121,4213.333496,4214.871582,4215.384766,4198.461426,4218.461426,4204.615234,4201.538574,4216.922852,4205.128418,4203.589844
70,4222.05127,4206.666504,4205.128418,4225.128418,4215.897461,4218.461426,4220.512695,4205.128418,4228.205078,4217.94873,4208.205078,4219.487305,4216.410156,4208.205078
71,4218.461426,4204.615234,4204.102539,4223.077148,4214.871582,4218.461426,4219.487305,4206.666504,4226.153809,4217.436035,4211.282227,4218.974121,4219.487305,4205.641113
72,4211.282227,4199.487305,4199.487305,4216.922852,4213.333496,4217.94873,4217.94873,4202.563965,4214.871582,4203.589844,4211.282227,4215.384766,4211.282227,4197.94873
73,4214.358887,4197.94873,4201.025879,4215.897461,4213.846191,4214.358887,4217.436035,4198.974121,4204.615234,4200.512695,4211.794922,4216.922852,4215.384766,4200.512695
74,4219.487305,4197.94873,4203.077148,4220.0,4215.897461,4213.846191,4221.025879,4201.538574,4210.769043,4216.410156,4216.922852,4226.666504,4229.230957,4215.384766
75,4216.922852,4203.077148,4204.102539,4221.538574,4216.922852,4215.897461,4223.077148,4203.077148,4219.487305,4224.102539,4221.538574,4230.256348,4226.153809,4215.897461
76,4206.153809,4200.0,4201.025879,4216.922852,4213.333496,4214.871582,4218.974121,4202.563965,4212.307617,4216.922852,4216.922852,4218.461426,4214.871582,4205.128418
77,4195.384766,4187.692383,4191.794922,4211.794922,4203.589844,4212.820313,4208.717773,4201.025879,4201.538574,4207.179688,4205.641113,4206.153809,4211.282227,4198.974121
78,4196.410156,4189.743652,4188.717773,4212.820313,4202.05127,4213.333496,4205.641113,4198.461426,4206.666504,4204.102539,4201.025879,4207.692383,4211.794922,4200.0
79,4208.205078,4204.102539,4200.512695,4217.94873,4211.282227,4214.871582,4214.358887,4203.589844,4220.0,4211.282227,4211.282227,4218.974121,4217.436035,4210.769043
80,4213.846191,4205.128418,4205.128418,4218.974121,4208.717773,4211.282227,4218.974121,4213.846191,4222.05127,4215.384766,4217.94873,4221.538574,4221.025879,4214.358887
81,4210.256348,4197.436035,4199.487305,4214.358887,4202.563965,4208.717773,4215.384766,4215.897461,4214.871582,4210.769043,4212.820313,4216.922852,4216.410156,4204.615234
82,4215.897461,4201.538574,4206.666504,4216.922852,4211.794922,4214.871582,4217.94873,4213.846191,4211.794922,4212.307617,4213.846191,4223.589844,4217.94873,4212.307617
83,4227.179688,4207.179688,4216.922852,4225.128418,4214.358887,4220.0,4222.05127,4217.436035,4215.897461,4218.461426,4218.461426,4234.871582,4228.717773,4230.769043
84,4226.666504,4203.589844,4216.922852,4224.102539,4200.512695,4210.769043,4218.461426,4216.410156,4216.922852,4213.333496,4216.922852,4232.820313,4229.230957,4226.666504
85,4218.974121,4200.512695,4213.333496,4216.410156,4196.410156,4198.974121,4211.794922,4206.666504,4211.282227,4206.153809,4214.358887,4228.205078,4224.615234,4217.436035
86,4215.897461,4200.512695,4207.179688,4214.358887,4202.05127,4197.94873,4206.153809,4199.487305,4201.538574,4202.05127,4212.820313,4223.589844,4220.512695,4218.461426
87,4216.922852,4199.487305,4203.077148,4215.384766,4201.538574,4200.512695,4201.025879,4198.461426,4197.436035,4200.0,4211.794922,4216.922852,4212.307617,4215.384766
88,4220.0,4201.025879,4205.641113,4216.410156,4198.974121,4203.077148,4201.538574,4200.512695,4203.589844,4208.205078,4214.871582,4218.974121,4214.871582,4216.922852
89,4220.0,4203.077148,4203.077148,4217.436035,4201.538574,4206.153809,4206.153809,4202.563965,4212.307617,4216.410156,4217.94873,4222.05127,4225.128418,4224.102539
90,4217.436035,4201.025879,4197.94873,4216.922852,4206.153809,4210.769043,4212.307617,4209.743652,4217.436035,4215.897461,4217.436035,4221.538574,4224.615234,4221.538574
91,4217.436035,4201.538574,4201.538574,4216.922852,4206.153809,4216.922852,4217.436035,4216.922852,4219.487305,4215.897461,4216.922852,4224.615234,4221.025879,4218.974121
92,4213.846191,4202.05127,4202.05127,4216.410156,4204.615234,4214.871582,4217.94873,4215.897461,4218.974121,4219.487305,4217.94873,4222.563965,4221.538574,4216.410156
93,4207.179688,4197.436035,4198.461426,4213.333496,4205.641113,4205.641113,4215.384766,4211.282227,4213.333496,4215.384766,4212.820313,4215.384766,4217.94873,4205.641113
94,4209.230957,4195.897461,4200.512695,4214.358887,4205.128418,4206.153809,4214.358887,4210.769043,4205.128418,4204.102539,4205.641113,4214.358887,4213.333496,4205.641113
95,4214.871582,4201.538574,4203.077148,4218.461426,4203.077148,4214.358887,4216.922852,4214.358887,4200.0,4203.589844,4207.179688,4216.922852,4215.897461,4217.94873
96,4216.922852,4203.077148,4203.077148,4220.0,4203.589844,4214.871582,4218.974121,4213.333496,4200.512695,4212.307617,4214.358887,4218.461426,4219.487305,4218.461426
97,4213.333496,4198.974121,4202.05127,4217.94873,4203.077148,4211.794922,4214.358887,4206.666504,4200.512695,4210.769043,4208.205078,4217.94873,4218.461426,4209.743652
98,4210.769043,4197.436035,4200.512695,4213.846191,4201.025879,4213.846191,4212.307617,4205.128418,4198.461426,4200.512695,4198.974121,4216.922852,4214.358887,4211.282227
99,4215.897461,4200.0,4203.589844,4217.436035,4206.153809,4215.897461,4217.94873,4212.307617,4201.025879,4201.025879,4207.692383,4223.589844,4211.794922,4217.94873
100,4219.487305,4203.077148,4210.769043,4223.077148,4211.282227,4217.436035,4221.025879,4216.922852,4204.615234,4204.615234,4212.307617,4228.205078,4213.333496,4217.94873
101,4218.461426,4205.641113,4213.846191,4223.077148,4214.358887,4216.922852,4218.974121,4218.974121,4207.692383,4201.538574,4208.717773,4224.102539,4217.436035,4217.436035
102,4218.461426,4206.153809,4212.820313,4222.563965,4214.358887,4215.384766,4222.05127,4228.205078,4214.871582,4204.615234,4211.794922,4223.589844,4217.94873,4220.0
103,4218.461426,4203.589844,4208.717773,4221.025879,4208.205078,4216.410156,4224.615234,4234.358887,4218.974121,4203.077148,4210.256348,4222.05127,4207.692383,4219.487305
104,4213.333496,4200.0,4202.05127,4215.384766,4203.589844,4215.897461,4220.0,4228.205078,4211.282227,4196.922852,4200.512695,4216.410156,4196.410156,4209.743652
105,4213.333496,4201.025879,4202.563965,4215.384766,4212.820313,4216.410156,4217.94873,4220.512695,4203.589844,4196.922852,4201.025879,4214.871582,4202.563965,4208.205078
106,4216.922852,4205.641113,4206.153809,4220.512695,4217.436035,4218.461426,4220.0,4217.94873,4205.128418,4194.871582,4207.179688,4218.974121,4212.820313,4216.410156
107,4211.794922,4204.102539,4202.05127,4217.436035,4206.153809,4209.743652,4212.307617,4214.358887,4198.974121,4185.128418,4201.538574,4215.384766,4208.205078,4212.307617
108,4201.025879,4200.0,4195.384766,4212.820313,4199.487305,4200.512695,4200.512695,4204.102539,4185.641113,4181.025879,4192.820313,4204.102539,4200.512695,4197.436035
109,4199.487305,4199.487305,4195.897461,4212.820313,4202.563965,4205.641113,4200.512695,4199.487305,4187.692383,4189.230957,4194.871582,4202.563965,4207.692383,4197.436035
110,4203.077148,4200.0,4196.922852,4210.769043,4202.563965,4213.333496,4208.717773,4207.179688,4198.461426,4196.922852,4204.102539,4211.794922,4215.384766,4209.230957
111,4205.128418,4205.128418,4196.922852,4212.307617,4202.05127,4213.333496,4211.794922,4214.358887,4206.666504,4204.615234,4211.794922,4217.436035,4215.897461,4212.820313
112,4211.282227,4214.871582,4200.512695,4218.461426,4210.256348,4215.897461,4212.820313,4218.974121,4220.512695,4215.897461,4221.025879,4222.05127,4225.641113,4222.05127
113,4218.974121,4218.974121,4203.589844,4221.025879,4215.897461,4216.922852,4215.897461,4220.0,4230.256348,4222.563965,4233.333496,4232.820313,4238.974121,4231.794922
114,4218.461426,4215.897461,4202.05127,4217.94873,4212.307617,4209.230957,4214.871582,4219.487305,4222.05127,4218.461426,4232.307617,4232.820313,4238.461426,4224.615234
115,4216.922852,4216.922852,4203.077148,4218.461426,4209.230957,4210.256348,4214.358887,4225.128418,4216.410156,4208.717773,4221.025879,4224.102539,4228.717773,4220.0
116,4217.436035,4217.94873,4205.128418,4220.0,4206.153809,4211.282227,4215.897461,4227.692383,4214.358887,4202.05127,4217.94873,4218.974121,4218.461426,4222.05127
117,4217.436035,4214.871582,4201.538574,4217.436035,4202.563965,4206.153809,4215.897461,4218.974121,4206.666504,4201.025879,4214.358887,4217.436035,4212.820313,4217.436035
118,4214.871582,4213.333496,4197.94873,4215.384766,4201.538574,4208.205078,4216.410156,4213.333496,4201.538574,4197.436035,4205.641113,4216.410156,4214.358887,4212.820313
119,4206.153809,4206.666504,4200.0,4208.205078,4201.538574,4214.358887,4216.922852,4215.897461,4199.487305,4188.717773,4201.025879,4213.333496,4212.307617,4208.717773
120,4200.0,4197.94873,4198.461426,4204.615234,4201.538574,4212.820313,4216.922852,4215.384766,4203.589844,4190.769043,4201.025879,4212.820313,4207.692383,4200.512695
121,4201.538574,4196.922852,4190.256348,4210.256348,4202.05127,4213.333496,4216.922852,4214.358887,4213.333496,4200.512695,4204.102539,4212.820313,4208.717773,4199.487305
122,4199.487305,4200.0,4184.615234,4207.179688,4202.563965,4216.922852,4213.846191,4215.897461,4217.436035,4204.615234,4204.102539,4210.256348,4204.615234,4198.461426
123,4194.871582,4198.461426,4183.589844,4202.05127,4200.512695,4213.333496,4210.769043,4216.410156,4213.846191,4207.179688,4200.512695,4210.256348,4205.641113,4195.897461
124,4197.94873,4199.487305,4189.743652,4212.307617,4200.512695,4211.282227,4210.769043,4219.487305,4218.974121,4216.922852,4206.153809,4215.384766,4221.025879,4205.641113
125,4207.179688,4210.769043,4198.461426,4218.974121,4208.205078,4211.282227,4210.769043,4221.538574,4230.769043,4224.615234,4217.436035,4223.077148,4233.333496,4217.436035
126,4214.871582,4217.94873,4202.563965,4215.384766,4209.230957,4205.641113,4210.769043,4220.0,4231.282227,4227.692383,4221.025879,4231.282227,4234.871582,4225.641113
127,4218.461426,4216.410156,4203.077148,4217.436035,4200.512695,4202.05127,4213.333496,4218.461426,4224.615234,4233.333496,4226.153809,4235.384766,4235.384766,4234.358887
