,AF3,F7,F3,FC5,T7,P7,O1,O2,P8,T8,FC6,F4,F8,AF4
0,0.44039179590502325,0.5538046734288804,-0.06843025444331244,0.08960108507059539,0.0020999550155451976,-0.22250390625011346,-0.32734594221809304,0.226558328476319,0.5616117945033068,0.6618114231791489,0.6775949801809392,0.17203185879316743,0.47055084108658257,0.5711753862930238
1,1.5012717000630662,-0.6341715497563378,-0.09049568300889398,0.1702068844412508,-1.2527244746224298,-1.3489963971394774,-1.1733098730085538,-1.7080421608860552,-2.8676801616545005,-2.8701349901169033,0.2537619743784756,1.9130602048536525,1.245001301838378,1.8950640158516507
2,2.4205075618651017,-1.5577006034408243,-0.049648625774941724,0.2601805294608782,-2.1065752220656684,-2.10390342954103,-1.745197124338179,-3.234707716963564,-5.50730673207373,-5.426112390041472,0.004940326314972042,3.3135307811358787,2.1968219824135797,2.981947020499651
3,3.134486827036378,-1.9019963024880773,0.0782566295190695,0.36930255500522585,-2.321931715850132,-2.299012444324542,-1.9668916178318472,-3.9733932323069547,-6.611660394444593,-6.14348777750673,0.20435370741062897,4.120913918726855,3.480163957931126,3.7368068844992464
4,3.508903439619517,-1.5623904623092,0.2739685125391207,0.4635486918365232,-1.8774010408040638,-1.9130786099031916,-1.858668868866767,-3.7361520260335257,-5.868702275475955,-4.768109999796587,0.8841087460071867,4.162154199019634,4.920300020046588,4.020128750673947
5,3.3611320110062817,-0.6772054212206357,0.4774835479192344,0.47593231006343434,-0.9646087021619302,-1.0867036350696384,-1.5100070545186408,-2.574778422486989,-3.4907193347937695,-1.7431916336847246,1.801354532496493,3.3787200420177586,6.023075275126685,3.6676586807593123
6,2.537120686194971,0.4245260077765634,0.6079290983514624,0.3402673079808032,0.09008205681173705,-0.06797297264692327,-1.030408225883805,-0.7704049000556363,-0.15463695674141448,1.932555128653083,2.5208387252474713,1.8571465519956667,6.149044049275955,2.5629659858406844
7,1.0127240149064578,1.3412879410553684,0.593884684053853,0.03283345130999693,0.9478233574465946,0.8698001811768185,-0.5013305045723759,1.233024269325946,3.191120621962232,5.031682256285194,2.58646120930536,-0.15801198669649658,4.7902379224828815,0.7336509664160495
8,-1.02696923182661,1.7415508446632988,0.40317471721071596,-0.39808370229720746,1.3766315238117677,1.5091444820412174,0.048230898793784796,2.9363524172255118,5.59785547740881,6.502602599512025,1.7191871381441197,-2.2835738302327737,1.8410435850592126,-1.5757686533725728
9,-3.174291543810633,1.4809173875014447,0.060851611740341885,-0.831122733001201,1.3235526782739686,1.7422146896338524,0.6308808673592697,3.9089056354432024,6.38819636593066,5.819121728737216,-0.03449503907968429,-4.058266680202758,-2.2509730771264103,-3.8992331723315323
10,-4.87399423783389,0.6535661515605091,-0.3521562106249424,-1.1044914454026908,0.9148732569084866,1.5831146135178242,1.2599516659903365,3.8986688746441645,5.350244649507489,3.159898296445413,-2.2651589368941245,-5.040425610218114,-6.529884817246754,-5.635233156708438
11,-5.575426714871372,-0.4395842675736441,-0.7206358393813483,-1.0734102205070093,0.38808760928940345,1.1404866472537731,1.8994997178640391,2.9011602901957656,2.798433215088,-0.6416401319082115,-4.298257503264261,-4.923340497610774,-9.777733820409493,-6.210837971521028
12,-4.917754355474643,-1.3950843633219543,-0.9305945324486145,-0.6719064390261227,-0.01445128216974558,0.5658298748322604,2.4331240614361525,1.1676173383484898,-0.5168816881492185,-4.361585746988271,-5.403301066651612,-3.636547272282255,-10.892379480153002,-5.27623446772342
13,-2.8846484465184896,-1.8480971766293721,-0.907065511620915,0.04557980703917246,-0.14643102689075005,-0.0003812486653857406,2.6740948787588197,-0.8531015733060321,-3.625997360861422,-6.779122810237589,-5.048454214494252,-1.3982885864116588,-9.272764533495351,-2.8623055248869176
14,0.13241979201499884,-1.602550963298548,-0.6412201212964084,0.9019369503183177,-0.012858579449577147,-0.4651278369625452,2.4224994363698036,-2.6278637992900227,-5.6212635633573464,-7.072650053477723,-3.1136231260957334,1.306485587375482,-5.075775781502057,0.5624250636886375
15,3.3976036350429104,-0.7058923988290471,-0.19694944808950657,1.6403397840372858,0.24122105916675987,-0.7919083481043411,1.5533324864442897,-3.6811343816439335,-5.922730462514335,-5.090900895960719,0.01654272154267691,3.8280917332541695,0.7547917971245884,4.170866234289485
16,6.015329456755654,0.5577768031901694,0.30618250899969285,2.0017608846749955,0.4024384675942556,-0.9850686365127229,0.1017892862092669,-3.7282934603436493,-4.45084969430007,-1.4115280521713676,3.5222400537849583,5.514156892134386,6.713697985323416,6.983627991399421
17,7.1880444531297725,1.7555680627982324,0.7286629433808961,1.8126845136704401,0.29087706635654376,-1.0620934198687928,-1.693299316589958,-2.7621152396980597,-1.654452158316715,2.8326848349169924,6.370586174751545,5.889558704434716,11.155626366184693,8.148500430773643
18,6.469409247333219,2.4473355092715345,0.9539346318743466,1.0530843891602677,-0.1504695994868994,-1.030115491913228,-3.416135293842725,-1.0639275253056941,1.6169756289517703,6.306140599295506,7.628047894208446,4.80130368060696,12.785832295940468,7.209152909457333
19,3.930097690507665,2.3355113152080533,0.924302154327662,-0.12036214214639568,-0.8161682762279769,-0.8788902781045972,-4.574683618843621,0.8694525907469468,4.362641035013328,7.8909900061122205,6.767083758141629,2.4811661915368264,11.06574227932452,4.275651769812494
20,0.1759175371400585,1.3743510076167318,0.6578853216602747,-1.4068704400281036,-1.4667412330670344,-0.5930890496687268,-4.750209188338565,2.4671835758257377,5.730714850761229,7.043930367989977,3.8668085218069947,-0.49913624078532415,6.401774173878415,0.03514455342033753
21,-3.7978429765276553,-0.19828880937507865,0.24109239360036575,-2.4426898759786826,-1.8161806686271937,-0.17641352216349254,-3.7475932064475392,3.255727321079244,5.281414127593231,3.976688051228534,-0.36410473842257074,-3.3734998857873855,0.051639452848018734,-4.4114214031961385
22,-6.87996961892806,-1.9197518075368283,-0.2005316302080164,-2.907163788164811,-1.6461113135734828,0.326557373049343,-1.6918047253970103,3.008529078014077,3.132493418265907,-0.39800566372743573,-4.76110222522063,-5.389143898484822,-6.2294397571545215,-7.846329532706381
23,-8.166221202444627,-3.2369347910055626,-0.5428909421491233,-2.621256494504469,-0.9026706707234743,0.8247341078706847,0.970469442090272,1.8249330017843357,-0.06142141271170429,-4.7406654499135845,-8.031258954000078,-6.016805393348507,-10.698185450016084,-9.281995258720704
24,-7.234050666721528,-3.677237983443663,-0.7015127418624678,-1.6077830677534484,0.2626468742790313,1.1981468733353993,3.5747704995637988,0.10807913562181348,-3.296249316129793,-7.696813389841358,-9.140912610392572,-5.100894748381741,-12.134397132326844,-8.255170663100058
25,-4.283219937070245,-3.004642959023818,-0.6547407812520433,-0.09417251553092026,1.5269294915393368,1.3351543344974366,5.422463018120049,-1.5576661772442373,-5.522387478122721,-8.32000435872207,-7.6458981411625535,-2.903997226581833,-10.1982503037355,-4.978571350071296
26,-0.09546371879266646,-1.3120918819104714,-0.44501123488606986,1.54383105435793,2.495826964287404,1.1756045774757393,5.988260987782831,-2.5956897412649202,-5.976355379626222,-6.37467887356981,-3.8588152602284955,-0.031709660452626846,-5.52507508855679,-0.3006109144984637
27,4.1790568263457075,0.9815026300913655,-0.1591065458101142,2.881396492436657,2.8360047697782034,0.7416568244298972,5.084399163769992,-2.6334767181921177,-4.437622191285587,-2.422570310002339,1.206744725837733,2.7399779270291673,0.47078544314250903,4.519820101208049
28,7.347735607984873,3.234310180988555,0.10455602335699797,3.558376026255826,2.393566718481355,0.14105475399848766,2.925895231573226,-1.6402415546873008,-1.3253196940472378,2.3381921268064496,6.1088116666866,4.6833366975082455,6.0227971275346786,8.16165350688823
29,8.518330062183683,4.75994298519599,0.2695708569838948,3.375939113991823,1.2557423108986918,-0.4622164535630674,0.07303060866380574,0.04520289625713855,2.4052010100182843,6.435909725392003,9.392937867938777,5.319176506525876,9.5397978678963,9.614022068329268
30,7.3572237289842155,5.032567049743677,0.30455398053926735,2.350381232051469,-0.26756682979170343,-0.9015606229069029,-2.7319787803870703,1.8135078444687518,5.544747110631635,8.580846227745473,10.030266548995826,4.5412741521148785,10.074690100024025,8.465461066242248
31,4.186740395798872,3.858992621715153,0.2284183064089531,0.7110894628068639,-1.737877212510162,-1.066260181707467,-4.781593039332966,2.9853695662733735,7.011394482528945,8.072851726791312,7.744486794797553,2.6315492344485736,7.593630304973624,5.02571552341687
32,-0.10703081180845617,1.4634036009761089,0.09748257825690587,-1.1552544748050029,-2.7268174705816395,-0.9416154024506883,-5.60285321683641,3.0510202864137286,6.212714673425531,5.032190580870091,3.122982272490994,0.16569101802284406,2.966554157065842,0.2435734548651266
33,-4.328354502768338,-1.5476573934619542,-0.019628579638236814,-2.7989055347431275,-2.952710853333549,-0.6133014591493947,-5.077560081129304,1.867623214429798,3.2696496028885598,0.377099151695093,-2.530290780347038,-2.159375630235646,-2.315046743210804,-4.557371203717282
34,-7.312968409980819,-4.338816047036145,-0.06943575043285759,-3.8160367981880277,-2.369018141468713,-0.23213046005252524,-3.4484393270059246,-0.258073240692372,-0.9802161007404864,-4.450546318805151,-7.564724791524672,-3.7238923408175766,-6.60438027851379,-8.050633813813334
35,-8.256609024094997,-6.080373162330488,-0.033344741668554466,-3.946575104652829,-1.1753061467291577,0.048329503023497096,-1.2167993603034708,-2.640081773108029,-5.215141708605644,-7.930540512536438,-10.470322872235938,-4.152572755239532,-8.605555036460885,-9.28069709792329
36,-6.936460647331016,-6.1982195248251895,0.06704472298617765,-3.138544056124065,0.25192620211575084,0.13661158369223572,1.026652052440862,-4.424260332857549,-8.035685779617042,-8.943626216155138,-10.336994044029993,-3.405667204883856,-7.764552985516964,-7.932022138896476
37,-3.763821127276366,-4.563463703334398,0.1802661746533627,-1.5644390481759947,1.4840394599427504,0.04332892602735457,2.776698652331392,-4.877557802496577,-8.421562621843275,-7.13356884181514,-7.144467855190046,-1.7724389161651883,-4.426344966199309,-4.416124142963896
38,0.34368415066376296,-1.5588711953841092,0.24650343604235117,0.41450024254088425,2.177862941093764,-0.12238158962665471,3.736732479584965,-3.6603640874934893,-6.090608093524574,-3.0343940871904604,-1.7893551020284746,0.22606983900013067,0.2876156830903196,0.2483566293197682
39,4.229972676193701,2.006986839095783,0.22202152566304575,2.32929035013452,2.180081573850047,-0.2013359588941352,3.856800009036509,-0.9850760108782419,-1.6348625722629386,2.0829414456587885,4.165752031391606,1.9936132856292152,4.840711498402467,4.728308574736644
40,6.829300544904261,5.121177908850378,0.0974475379021115,3.7127669047839564,1.5649005523588775,-0.059887043561416935,3.287630707713428,2.404114502114431,3.624480681135769,6.601804683348736,8.951107627911078,3.0289619655025524,7.767092752753018,7.757729270795778
41,7.461893314966863,6.86279229328534,-0.09676555805104506,4.213814228507392,0.5950772955195509,0.3383670214242116,2.28237894632088,5.438121431298047,8.031071754927709,9.069421598571832,11.12100774142461,3.062947533374404,8.130533104714312,8.499007459871327
42,6.014432722986558,6.685972340210353,-0.29969660961448713,3.6894257130495554,-0.377360126151533,0.896845227872026,1.0930792874357647,7.060213458793044,10.119163369451982,8.664406156970552,9.99665017521106,2.1267870490253333,5.814273057920355,6.78052817709235
43,2.9579646640410076,4.600227342360866,-0.44085675437388877,2.250368551750438,-1.0345913668943478,1.4059059165215193,-0.09638002182369003,6.587681157496917,9.10350546776509,5.47169737102053,5.883735260621776,0.5358450940811574,1.5534144730225083,3.1425151447504835
44,-0.7977703918429254,1.1864075520580346,-0.4652704424553218,0.24497054145736408,-1.1977804718707485,1.6162608290980012,-1.1811364317478599,3.9753831475999775,5.168867132354605,0.4725439371776327,-0.005849863206498829,-1.2045032013383625,-3.2983489951736704,-1.3223359949674918
45,-4.169450963036688,-2.563982420087476,-0.3538764110199818,-1.8203560215654995,-0.8783794281080635,1.3407808241249075,-2.099169321920354,-0.11680171169423316,-0.5467516534556732,-4.7535270739226,-5.9097313778373755,-2.5445654570902674,-7.193927105090444,-5.288279235387307
46,-6.20889331677445,-5.542504304531176,-0.13196307891059172,-3.4084060305179804,-0.26091706741921433,0.5451320943017535,-2.779441147572302,-4.490343259445651,-6.283965654058035,-8.525332857231602,-10.044346220268425,-3.0487065590294757,-8.8776335813643,-7.58469645593011
47,-6.369168635340671,-6.862413219140446,0.13755527550566488,-4.095591881347672,0.37362496934218015,-0.6115524637741845,-3.1117616435973208,-7.768356959718788,-10.212699291986588,-9.599807596583783,-11.148854800375066,-2.5245000546527754,-7.779645083827401,-7.541075849919557
48,-4.654834410825289,-6.136265861477761,0.3739993814517112,-3.6941299217936874,0.754655394261472,-1.8079155768374318,-2.962962088455037,-8.840612026264855,-11.027928144421256,-7.581905969688535,-8.877051467519623,-1.0875488079356437,-4.1984262160753385,-5.187784853622672
49,-1.6151963881744194,-3.6025660665035915,0.505323313730569,-2.3146540463179295,0.7205937763753522,-2.6583673849123883,-2.238309756416532,-7.247615699555873,-8.394053515360897,-3.0694326642534717,-3.913999646111185,0.8579588010509689,0.7853950471099181,-1.251693059441842
50,1.8175638792576168,-0.057351308591380906,0.4920773675720053,-0.3457893081112151,0.2752420074130768,-2.845707410534412,-0.9605357311444274,-3.369523900807672,-3.0841515312362513,2.519962738734566,2.2235946824788164,2.7222520078279095,5.6380514576580545,3.0557388625094584
51,4.60087482403473,3.391694847954984,0.3406514675182662,1.6496660382463706,-0.4161066129095733,-2.24039557413795,0.6758679364819202,1.655881990194795,3.243221198648851,7.390835467670865,7.647311675921969,3.893832245635653,8.844586565278059,6.399339818282778
52,5.888877408867778,5.673273225197988,0.10110488555842954,3.096297914108731,-1.0873315216394375,-0.9606772381749088,2.312435589808639,6.27352218234954,8.567197752645507,9.944020607244395,10.67920544681259,3.923021022263739,9.37961213944003,7.725647920870331
53,5.286493961159323,6.092564550295506,-0.14979817602579937,3.5791614819863073,-1.466227368693962,0.6520466442880329,3.509988278819405,9.007618702597435,11.162028061199527,9.299768181291935,10.376902846450843,2.6742058970555,7.032083486106324,6.591707309053426
54,2.97505367778987,4.5535970700878305,-0.33452413797798075,2.9746634758801553,-1.3702239839543484,2.137309374038395,3.887241406508437,8.953329375869203,10.172291895856327,5.599251101968437,6.83593973635602,0.39865987581985385,2.4825165546718035,3.3148855346286847
55,-0.33169829070842727,1.5902664472563155,-0.40063084771261404,1.4950612127142398,-0.7712944884638457,3.0639926588014843,3.2659790500617794,6.095719016802153,5.910561139839536,-0.01834149285199339,1.1698789143504849,-2.302981065784557,-2.8944254197832864,-1.108006594740031
56,-3.5942332612186156,-1.8064942797081307,-0.33748996243303453,-0.3724530122142953,0.19010651658996539,3.170797445635459,1.7635484259743293,1.3399405318311846,-0.22942724015840013,-5.763114581329844,-4.83160239179043,-4.6302298986390875,-7.445274916338019,-5.295097807210057
57,-5.760417971696468,-4.51136453376812,-0.17808103293710117,-2.017506281047993,1.2450217594640642,2.4489153978867395,-0.21249144597959155,-3.7689088236679082,-6.223393076541563,-9.761006610514475,-9.26397020929206,-5.811362814812757,-9.746450206602175,-7.903135053042115
58,-6.093784476420244,-5.633034403574863,0.014516204927534764,-2.903376757080344,2.0760600996254643,1.1382180569879905,-2.0779114860644246,-7.5513154858261045,-10.086029487216521,-10.66092322817286,-10.713203809602396,-5.3487088850573965,-9.050660956253086,-8.05223857057834
59,-4.415939418091256,-4.807730181808935,0.17074766189332286,-2.745403530814852,2.412488062111004,-0.3599205411851025,-3.261272949242307,-8.757983085992723,-10.536734363062576,-8.086616538261264,-8.711959625036872,-3.204489297681568,-5.531495775753889,-5.617830223123769
60,-1.1836043780769172,-2.320400972480914,0.23954125755519146,-1.6103602166135398,2.1122531011855576,-1.6198733322197407,-3.403741461432934,-7.000954474433107,-7.435754280825898,-2.7832740126742608,-3.8973262306941208,0.1393455900723903,-0.24611842774172582,-1.2925184153458562
61,2.6313389619951266,0.9879929524841101,0.20550643512502634,0.09988963567531656,1.2079022677185882,-2.328716510685994,-2.4940886750045674,-2.8988118544329033,-1.8394039628079966,3.5958841768545664,2.1852084952926525,3.780576649536481,5.178341038173928,3.6097125014668867
62,5.829623989838952,3.998074052544201,0.09236807052535534,1.7791670960961843,-0.09586599267897752,-2.3747837455976395,-0.8833637701913917,2.1214848790886704,4.349117784307988,9.002563738218585,7.572926631652281,6.639977634712315,9.042963413295555,7.553085703437656
63,7.356119884842929,5.68365370160827,-0.048124999676595115,2.821394058936313,-1.4721863334454026,-1.8598705460898863,0.8333728625272211,6.305595327440922,9.018938907281992,11.647199006886405,10.51649138289047,7.7836077641593215,10.108102254900604,9.261936656088835
64,6.640279817689453,5.454285903083869,-0.1571608925832865,2.8307122144326566,-2.5565868829175145,-1.036843249419204,2.0303902609819273,8.175118620074235,10.566096671457965,10.585533385703517,10.04673267187544,6.726836571470601,7.9914453528826925,8.132817017803587
65,3.795599519501595,3.3544754301985003,-0.1914934824042024,1.7648310742891071,-3.0444935060629597,-0.20183353705639287,2.283349938941967,7.0464355395269695,8.44120081897837,6.046597267882407,6.292875651808986,3.6201674595218014,3.304745951593652,4.442515867185456
66,-0.3909552144923288,0.052534812825648,-0.13916884202798294,-0.04012423750991933,-2.776423341504617,0.41509976577342894,1.5329310048852247,3.2832183236438097,3.3430365140203775,-0.6102895226247209,0.4469681140408698,-0.7521181394463615,-2.5198650179873714,-0.7199840443053298
67,-4.683433026375508,-3.377774164986164,-0.022670146378869233,-1.9752983885151327,-1.7878201610065787,0.7199457001946399,0.11516360420802912,-1.8103496141683157,-3.009596555088295,-7.304519618113911,-5.615916254453103,-5.17292528826542,-7.665916715791946,-5.7819369387987845
68,-7.770214067158545,-5.810336604218174,0.11121551709723052,-3.3621394153830026,-0.3084259448971147,0.7628911664156401,-1.3582709300279654,-6.425685673629841,-8.452569006698637,-11.885665373372971,-9.93971889122327,-8.340875613324355,-10.498347390356768,-9.175217926514819
69,-8.671092219655291,-6.437028942407356,0.21038849484389974,-3.684776878136491,1.291483853689599,0.6879339561422454,-2.230138650558568,-8.870656401037332,-11.104800713471123,-12.822632056289917,-11.116965914836907,-9.263509570426464,-10.081985911858146,-9.830525656507772
70,-7.049318671459393,-5.032417641921905,0.23759917254029417,-2.772009575705905,2.5963270082531062,0.6498619735785631,-2.0551113975924267,-8.164161328720473,-10.005303397813126,-9.709168043435055,-8.742205110290254,-7.572930487399179,-6.48722869881648,-7.519059099736418
71,-3.3278200541672387,-2.025838490656474,0.1839192568803817,-0.8652297015122508,3.257641373657039,0.7354341627544418,-0.7879950723048829,-4.398912409900394,-5.444584050935934,-3.419354082170759,-3.5433164043167436,-3.661597613592011,-0.7823679821994426,-2.9307954159369887
72,1.4299415834983944,1.6412915939105606,0.07058639614586501,1.4527600954207192,3.0925794188840627,0.9213796293818521,1.17155519254838,1.2568592854087648,1.1210328527768607,4.143391522038057,2.8503638447620294,1.4101837664229284,5.289360280876877,2.5374321963177118
73,5.839240837999041,4.82352776352698,-0.06091571301680222,3.4453243139727987,2.1391359692369787,1.0850730623544784,3.101321911463177,6.926508852370457,7.543817109246588,10.630278225303435,8.426774082812171,6.212685128051489,9.849174202058308,7.217582789091089
74,8.614279258586189,6.541333774279326,-0.16598869992181192,4.463188681848374,0.6498235487636607,1.06172175741828,4.208207478038254,10.643132551414743,11.690035843083686,13.982522307363926,11.428962012691546,9.363644889004169,11.469540517970012,9.6913437462081
75,8.957696239703191,6.290725064404578,-0.2140219266099983,4.158156942949508,-0.976745700546474,0.723425292226348,3.9226158454744064,11.014304205242238,12.142781581438872,13.085766046176033,10.908054897236534,9.937946821073432,9.622763679715312,9.230712307230345
76,6.7976662775832315,4.1927762191010425,-0.19857759198935557,2.59792858371813,-2.3077547256789313,0.047414946681397487,2.129946762844054,7.710582112543191,8.670969245804331,8.134528249051604,7.0170727205048005,7.745341213664598,4.848714296062164,6.018844832590908
77,2.7998301344639573,0.9381941297946387,-0.1369351126138407,0.24456078522067654,-2.998726826142209,-0.8543822135870774,-0.747662429464967,1.6113605255482764,2.311831166409057,0.5882333452359532,0.9560181112960268,3.3912908163688273,-1.4119665698529102,1.082770822846787
78,-1.846667142388397,-2.449278760853727,-0.05987719900372486,-2.1947193997048764,-2.889759130794612,-1.757106109915895,-3.8559280039800172,-5.44606176230243,-4.95797398110556,-7.270618667801388,-5.409774095820368,-1.8978819074023132,-7.266330379155199,-4.0379799619606835
79,-5.798387666734429,-4.948066615847505,0.0032978126927653726,-3.9933257906729343,-2.0462702047492454,-2.3893409516112545,-6.171437377430329,-11.237554466634647,-10.853321889081775,-13.039319735056658,-10.133711728747237,-6.63276236740273,-10.956743226499544,-7.77888736627533
80,-7.963927328837385,-5.860325623355414,0.03767044721074662,-4.6325481096970815,-0.7325100358838084,-2.52118730797119,-6.83899586856485,-13.860884801615356,-13.507779204427381,-14.938949755366517,-11.7891210511074,-9.493815022720241,-11.401438433028355,-9.03776219371134
81,-7.820513229972191,-5.016072323181094,0.04775086041279793,-3.9566680383443553,0.6726037572238062,-2.0437199792260654,-5.470991948755224,-12.353555352184218,-12.062956362228993,-12.366284083045281,-9.900648522281525,-9.710273205980426,-8.518109584966714,-7.5078771820165855
82,-5.545890238031643,-2.798544079714036,0.05256513406599222,-2.208487276634329,1.7897438241237296,-1.0130184108047124,-2.306214022570583,-7.019769430640561,-6.93405297558161,-6.0810814690036885,-5.075800443000941,-7.2735326273784615,-3.2314986728902957,-3.754488058011432
83,-1.9314553964817407,0.00942155520736839,0.07323745048534283,0.06140426280089495,2.347304062973042,0.3556364640817179,1.8298272192192884,0.6401089276608735,0.32764313901146047,2.0286480899132093,1.1977244588502052,-2.92479951398736,2.8321483858822676,0.984218450044847
84,1.8878453759263243,2.499490156690173,0.11906493316293071,2.1770606713254765,2.2506636536657507,1.7413803141348712,5.756428649793333,8.377011873920695,7.524994276387679,9.528168497589412,7.019472142835085,2.0749725023368373,7.86135528091152,5.202795370746322
85,4.795513694782916,3.9369873089101692,0.1789936717532457,3.548833087542107,1.5938839784332595,2.8024760394308017,8.291395714190656,13.877304341960855,12.497590208457655,14.181283097433345,10.659520200015642,6.320381885543045,10.419131313292151,7.607795489679685
86,6.0309636319737105,3.985826685804887,0.22321689806371542,3.8457134216806916,0.6145371309076559,3.2669284538007477,8.61656612257578,15.46953682759148,13.780146561551643,14.627209554357478,11.077175580041136,8.6682914646456,9.86900774331903,7.517349100388003
87,5.3984266173113715,2.789045087034208,0.2151810036817905,3.0764577570672924,-0.38967794668605477,3.003570680711318,6.539753143861396,12.634496191306086,11.033965186479008,10.781356331631034,8.219165534159943,8.555715465185648,6.537524247780913,5.056837669506679
88,3.28797714184894,0.8859193277704772,0.12944789700797787,1.560096755876572,-1.153268626079725,2.055335323366889,2.569701722509108,6.162885195959981,5.125341979450027,3.8413172239107576,3.0126463546195534,6.138271012610796,1.5710127184988687,1.0943249977451224
89,0.5112833449001607,-0.9980097891758593,-0.03227975103268836,-0.19680062273876286,-1.5147461310195467,0.6279634968790162,-2.2209155339280895,-2.084028966192839,-2.1622336761121135,-4.096252612481523,-2.936856430141344,2.2145095906981616,-3.4567388889358224,-3.0565243324617604
90,-1.9863523041744147,-2.2107387204258893,-0.23463581662451105,-1.6701261292376675,-1.447872094548167,-0.9605415613561556,-6.503524227652328,-9.732946259533335,-8.682717483866567,-10.682389912359294,-7.843596856011813,-2.033821863499995,-7.05193648392234,-6.065341354558672
91,-3.4389504206724393,-2.392869379699079,-0.4158457810926113,-2.4779438296260743,-1.047550577385952,-2.3552302948018258,-9.079339805057614,-14.60271772459345,-12.572353674907408,-14.022844941967529,-10.280581523230186,-5.40179252495065,-8.257743628103015,-7.006218902420208
92,-3.4952491140261683,-1.5832912876193195,-0.5075205079137944,-2.4804817003001616,-0.48089305400119103,-3.2454192873111674,-9.226613945406807,-15.340484537028527,-12.788185753364294,-13.229261257866304,-9.596337878130036,-7.010986190671294,-6.918198307373923,-5.638303038666806
93,-2.3037817959133084,-0.18075195770069938,-0.46031930417895134,-1.7945993566535041,0.07579209535577128,-3.4334902476438582,-6.906571236512934,-11.801867040514372,-9.384298297206925,-8.652717752163054,-6.08798998013716,-6.5457567084713295,-3.674758649942323,-2.4616568513799013
94,-0.4274994487664049,1.2186494734666378,-0.26574765603254463,-0.7269362886792681,0.49126391640806377,-2.8772742975596843,-2.769286286708148,-5.0688519180439755,-3.4553140987217854,-1.7399877576562062,-0.885882847478571,-4.311164643619557,0.28942619334314945,1.462013237225316
95,1.3750402295624777,2.0461288630080943,0.03494771431910619,0.3442619433723199,0.7080959132615932,-1.6983393516210874,2.038726358850883,2.89037244034616,3.2213579336342963,5.43063925597879,4.407324600727953,-1.1040037061948242,3.6619267693614965,4.85976157498798
96,2.422429140082903,1.9661523930967009,0.3594592011012586,1.0953072578224943,0.7404141982604424,-0.15533408037900326,6.205306154478259,9.809954718845011,8.72599491417418,10.782809972950348,8.208197394785428,2.05516763258395,5.4289086371666,6.653481873814852
97,2.3434033176529137,0.9923515065462204,0.6088925216104334,1.3502173886141677,0.6471045284297885,1.4120293864030773,8.623329601956712,13.784382201610386,11.553929860862782,12.849379970908101,9.424431063554477,4.24149338864078,5.179830048414357,6.293025796030894
98,1.1938348532368568,-0.5240267463524976,0.7001533703138574,1.115353840532598,0.4951801107758304,2.6572738914026406,8.694212252069807,13.802781802570339,11.027750549842683,11.174753666327511,7.767285140430493,4.89787329455222,3.197867784827917,3.915247931038015
99,-0.5766782380493396,-2.025038983803612,0.5949832919624812,0.5520310672153549,0.3297371596467094,3.3046196607031986,6.479773807276091,10.00886245276896,7.452684600740446,6.4029345612502,3.816137739019572,3.979611644696727,0.3195330809329821,0.28556268488902775
100,-2.2917714369931725,-2.9471602596873656,0.3150980199152381,-0.09610548069565088,0.1620887163591218,3.212739945306802,2.663980239322491,3.620385917294125,1.9831790857574139,0.040276559893070905,-1.177379170558338,1.933895268936198,-2.3774163800479267,-3.452854705018291
101,-3.2884874319996626,-2.92079809042598,-0.062450688782833816,-0.591986539288791,-0.021331112948218295,2.409462660225112,-1.658626068869611,-3.457378559927322,-3.7469213345382655,-6.021701574108051,-5.680887482436223,-0.47176205459408643,-3.946623764640042,-6.1392095833751545
102,-3.1483211114521867,-1.8993154416754041,-0.4286115044821291,-0.7802076187403679,-0.23601752826126404,1.087476871689429,-5.302339570191324,-9.202550999830143,-8.113216513155999,-10.072030681463323,-8.347370087444164,-2.4122771761126662,-3.882086755632815,-6.951328139652654
103,-1.8424022152526764,-0.17511707147790695,-0.676618634075031,-0.626748586332312,-0.4750303373933369,-0.4400737044651154,-7.3235304668584,-12.060828078029356,-9.962944991964113,-11.065028867203651,-8.415370345966695,-3.273159823620698,-2.266658485026666,-5.6499068772314445
104,0.2555742643465507,1.7196551497438304,-0.7355879435645595,-0.21578210011790547,-0.6961346906340545,-1.8148564254120798,-7.27268963208654,-11.373305131633222,-8.919395428870711,-8.886974614241357,-5.9250220449442645,-2.8393969355223025,0.279938279934418,-2.6400776221970235
105,2.4905991459751,3.190979648234378,-0.5921183934837617,0.28978825904038663,-0.8281345929088322,-2.7212414984046904,-5.296383302327248,-7.528743023883595,-5.448667035874368,-4.338359612423216,-1.688529237078049,-1.3477001412109009,2.827409666492363,1.1632136117210563
106,4.1399078835646135,3.777348702179445,-0.2929588199838612,0.7074548038886028,-0.7955794150031575,-2.9640441012936503,-2.065455913509962,-1.804946834140944,-0.6808156865392953,1.1481729382086243,2.97179468697197,0.6105316956976392,4.45498482587514,4.620221317723629
107,4.647935992913405,3.2956033265878824,0.07150870579917264,0.8938323809889583,-0.5527037182549455,-2.515170379981654,1.4431761528936327,4.043822167719244,3.951325453575908,5.957864507180261,6.634925846671517,2.3002223651112033,4.5585888580419995,6.712251089092702
108,3.806391496226572,1.8921544754213528,0.39671516725565836,0.7858511291154621,-0.1126517652879688,-1.5163556300594454,4.241963817405031,8.322980062117892,7.142179977999974,8.771253464856052,8.214638422427203,3.096224298895502,3.0469293489096114,6.843042387958461
109,1.8224546742537646,-0.01291294625792422,0.5960277375139341,0.41460611459565255,0.44130871340750727,-0.23741079353871988,5.615792914805283,9.893642089892628,8.083575194227409,8.927577520138353,7.282497475734801,2.695402310918284,0.3672293762161651,5.006538391398766
110,-0.7448723026873105,-1.8654838735330594,0.6250641912631483,-0.10910097480598199,0.9698817203304083,0.9979738461490169,5.309881199710439,8.48142388801914,6.669327003643739,6.573781943787281,4.183146276724387,1.217672844497857,-2.6428299827922457,1.7743214868361479
111,-3.1578328180938375,-3.151483202059141,0.4910737952976898,-0.630789810920683,1.3152305443848213,1.8977151218848887,3.5712907919033205,4.711765913377765,3.482110291265692,2.5675913452833847,-0.08998986996738571,-0.8363742875211873,-5.0255735025635255,-1.888639353514007
112,-4.725802734698544,-3.5480701935813186,0.2457732157124132,-0.9983130436109896,1.3508616271507083,2.27422467319921,1.0391248423978359,-0.1283849611861006,-0.42235636382643627,-1.8219713513784375,-4.215618017448925,-2.7560762577560562,-6.007914261588209,-4.919907209944305
113,-5.012168971474301,-3.0060537708525947,-0.0344090317753513,-1.1048715355832437,1.0273332065905332,2.0852174966273775,-1.4751586306596713,-4.518357254071112,-3.858573989298558,-5.315061376330554,-6.958382267387837,-3.861931480281318,-5.2435990883754355,-6.475192390183988
114,-3.958491500463054,-1.7431668695294456,-0.27305816684650824,-0.9178506856690517,0.39732523575101913,1.4329918768913474,-3.2439672064821203,-7.180719529759105,-5.871656762444504,-6.99643192535192,-7.5444816733987,-3.7366281806826964,-2.9188352839250276,-6.168452309080952
115,-1.8904386966473243,-0.1579019238634808,-0.41516790063237047,-0.4865094641562033,-0.3903944950821101,0.5251238458175449,-3.8352615456372527,-7.4567444587777505,-6.004654062271935,-6.55488954686894,-5.882719814030829,-2.3686256307939813,0.30833690021747884,-4.167057104568108
116,0.5915790424091649,1.3021692655406918,-0.4391141887118993,0.07286227471500456,-1.1285542512693485,-0.3896042882721414,-3.2168979178943666,-5.467566196577583,-4.396782569421685,-4.324128652051611,-2.5662599955958,-0.16033831215752578,3.512094241814333,-1.1188108619972297
117,2.7984113651966886,2.272748455663224,-0.35707455487923573,0.6099338710163055,-1.610258479132033,-1.0901044683174,-1.7283176550076929,-2.021165254432737,-1.69295581209595,-1.1270727061967003,1.3382377952714015,2.2017390031595654,5.779821170283931,2.0605151025775275
118,4.154519815368401,2.5656246033671777,-0.205811571245273,0.9823639317805465,-1.6912192502083927,-1.4370336297632496,0.061850439588303385,1.6912852164470344,1.194982473961355,2.013881475940734,4.6398737877134755,3.971430857333639,6.482039349712065,4.469137478420715
119,4.35497481648613,2.198717574632689,-0.032430116412965525,1.0952379063734725,-1.3354827245604064,-1.3984677192760362,1.558091779304638,4.500041328009404,3.390558477233068,4.2012577104647,6.395278460116674,4.586680422486404,5.449780851631007,5.482395375930334
120,3.4332610309927913,1.362475085280857,0.11966343103977596,0.9267840873195767,-0.6295091524400956,-1.0433495913505253,2.3301161011479437,5.625334757014217,4.318742712380564,4.918677901244203,6.184304115575718,3.851391335443506,3.0093232579420226,4.918452122013087
121,1.7261877860391215,0.3415054888776916,0.22062992521731647,0.532926994463717,0.24063988087106242,-0.5086953989333541,2.232934649194792,4.892176007078839,3.8541162967140767,4.14539192965672,4.207041746653312,1.9953203020204433,-0.1302886113170095,3.0616640063214895
122,-0.24575140657729475,-0.57861371557056,0.2581975150452841,0.02932123412581958,1.0424555450001298,0.046593602774731506,1.4215659712784319,2.731678600791932,2.3132176210457636,2.306505820558013,1.1810639363227913,-0.4062701560429074,-3.0966890934044664,0.5449306510793416
123,-1.9403668666451217,-1.1894297896027664,0.23632951904875926,-0.44370068383162875,1.5641832806557832,0.4863916131374492,0.2650140343726889,-0.015669307927489457,0.30682498830728355,0.0905018114345131,-1.9165658372038674,-2.6238890066611775,-5.11009303671428,-1.8640828434037868
124,-2.946893886287684,-1.402121490510415,0.17049836025760712,-0.7624868791829885,1.6753357293507143,0.7282899918614485,-0.8020285877850307,-2.4136503578475126,-1.4871045085045096,-1.7946699172841492,-4.17020133536501,-4.009796808667788,-5.698011509149342,-3.5007823960655347
125,-3.0863182661475963,-1.2482528682407918,0.0818103785431679,-0.8549298903632737,1.3620719993644466,0.7546101622057755,-1.4332311520460994,-3.745899284745347,-2.5476994234569306,-2.842603487507313,-5.002352220810645,-4.198998215413784,-4.808040017316932,-3.990614335807708
126,-2.4348716661462957,-0.846412547837459,-0.008314507377969965,-0.7181930696420707,0.7271930940443112,0.6041241841887613,-1.476959476049763,-3.7266558884655887,-2.6586003467643975,-2.87814325899568,-4.320732754426219,-3.2098871272905565,-2.7922743775229093,-3.3314159909371486
127,-1.2719547051273012,-0.35131355102867773,-0.08207163663833668,-0.41438463319182145,-0.04418005162710408,0.35054331769840985,-1.0030896967530074,-2.544879980990289,-1.9374129877009327,-2.0645511888826764,-2.4987858959737905,-1.4156874939965574,-0.27699822206288116,-1.8544637940318744
