,AF3,F7,F3,FC5,T7,P7,O1,O2,P8,T8,FC6,F4,F8,AF4
0,-0.47603908706799897,-0.38285513743863464,-0.6481877340454418,-0.20037578836894576,-0.16825214835394017,-0.22875080646721618,-0.36021762837232335,-0.5283580060017266,-0.9743481747090877,-0.419997573721186,-0.4548700207125827,-0.46450062242881607,-0.33235874236374674,-0.34860230999042674
1,1.8320480117871636,3.145243153922381,1.4546881241706504,1.4960269744990413,0.9680523674549611,-2.798959177836845,-0.12247606946184707,3.325240185686863,7.113604312265154,5.165155430489074,5.886780232071245,1.913708950289518,2.798743361900687,2.683356355333293
2,3.766683704784981,6.01911930242989,3.318620367431856,2.8084080913357705,1.8568865132074497,-4.659060334810609,-0.001502661957052857,6.333981558393538,13.554206292966958,9.704384077544203,10.913952960137195,3.931505650133775,5.331052264744495,5.254827446888782
3,4.901371874134339,7.590831656888484,4.576397735815379,3.3970054420345006,2.264639217905835,-5.37789958661392,-0.14536625553419394,7.693585157844845,16.745839353369615,12.179291211735737,13.437018932343523,5.124665572760978,6.6665310282398895,6.833830156297502
4,4.964244765049771,7.48371503480695,4.939463162392545,3.1118974623001514,2.0852486562839676,-4.8181752596191485,-0.5620490174115306,7.011158336546586,15.820925071573658,11.972219040334789,12.83431224893774,5.176795213361019,6.463943136620699,7.04020996987209
5,3.908485981171263,5.6926719501127,4.2706535863344275,2.033333370776666,1.368989299178075,-3.1587926795818424,-1.1051724009941908,4.4265877568572405,10.899489401688108,9.032753648333363,9.217114295408939,4.00934291864234,4.732821379597299,5.744455921449782
6,1.9426997144215639,2.6064914048622865,2.6454058306447643,0.45092036921114614,0.3088826818828387,-0.8359207613058433,-1.5236248755531956,0.6018180022874833,3.1224618841479863,3.9404310894214656,3.4275043073871965,1.8322595502442096,1.852705633822162,3.1349027336826287
7,-0.4955989259749007,-1.0637332921297036,0.3730398729188279,-1.2135368890771852,-0.8115433638514905,1.57738505985638,-1.5590459462075559,-3.433057717559263,-5.574354471000151,-2.1747792855297146,-3.1433492437061754,-0.8711957983757473,-1.4974571111728832,-0.27843251049410456
8,-2.8288455097954506,-4.443973196135414,-2.0452330075052543,-2.5195309342914505,-1.6949293983972955,3.518111932346066,-1.0564840144246983,-6.54942488717546,-12.920990443563571,-7.8631446399332985,-8.88536315952818,-3.4387372453567044,-4.4937045913816585,-3.744847397611326
9,-4.477822537061195,-6.712417855645902,-4.026027371057353,-3.12735531667533,-2.110410148868092,4.567390343338072,-0.04657897546524411,-7.83950105411997,-16.910534536515836,-11.701288166077086,-12.37429772051745,-5.191399735638758,-6.374050947732026,-6.4360709973628785
10,-5.017264174161702,-7.3167935507313135,-5.059043483349437,-2.890854756105384,-1.9558378268560999,4.539017354726258,1.2347256465150824,-6.894541301587217,-16.37593834681664,-12.672497396303458,-12.748284217223963,-5.625520667552535,-6.645852621096704,-7.658196951790299
11,-4.30367530253544,-6.131682451590181,-4.862351696799409,-1.8971407279385253,-1.2849611449575318,3.5046482440056033,2.4025634288243496,-3.952006863988087,-11.371408263764575,-10.472405272777968,-9.950248177345607,-4.576705643171437,-5.233252521388068,-7.054144167502972
12,-2.5315798229914455,-3.50412097163098,-3.4833871144806725,-0.44109914982718673,-0.29195382996613667,1.7561316234933264,3.0425189135165893,0.1464566465697908,-3.2217277186799067,-5.637171697515598,-4.758911960156802,-2.2971962038746923,-2.5150482659386593,-4.730633825183438
13,-0.19202976151399562,-0.16502175432599941,-1.303334798893008,1.059264709329864,0.7428305772013912,-0.27870631281887726,2.8558246416654116,4.188231069516525,5.80625221503035,0.5649555895648564,1.4130574907817437,0.5906224140443396,0.7677879984570743,-1.2593570146234332
14,2.062724231395531,2.9753701354247877,1.0667355292699452,2.1832660961343464,1.531326740426407,-2.1413162560469505,1.7805349322250736,6.952567238551193,13.137460551908868,6.466782415038199,6.906672481482136,3.263086640609128,3.7161478028504225,2.46152608523232
15,3.6117663285169503,5.090728253447174,2.9706657353330224,2.629124835705405,1.8588908810909248,-3.4422292720867316,0.042935642209818874,7.592861929142286,16.648954381864584,10.472642358594696,10.283083980146797,4.941550889392644,5.532024061628849,5.453443967911655
16,4.055494958272078,5.680180997204075,3.9133811714525497,2.300665163812847,1.6452487209118625,-3.9349619879192677,-1.8858219619923788,5.913772393677567,15.322883551298245,11.526263245462536,10.731665731343304,5.1392662805873295,5.754547014594566,6.939671624546057
17,3.339671389677519,4.7104061404207,3.716954538644348,1.3326381989792588,0.9674607363675203,-3.553401007795197,-3.4216214748443314,2.446665017747106,9.578616958239673,9.427636849054519,8.294537676564179,3.825102102191838,4.397189226721657,6.575075544816264
18,1.7691906036984903,2.6103360275997876,2.5697276682264043,0.04627926233239516,0.0374284709399215,-2.4118249501570017,-4.050106388726653,-1.7095164188276446,1.1648990843280027,4.892556553845603,3.8356565550275983,1.44341986062589,1.939170030230785,4.54722931675827
19,-0.09654205086635695,0.11855013467539537,0.9487556897789673,-1.1519020549956076,-0.8605900566484165,-0.7735574230685534,-3.5019526787120543,-5.236473671542845,-7.367388776122146,-0.670851098921359,-1.2383447300854757,-1.2238638504305648,-0.8296318456634904,1.5126950341834358
20,-1.6337129860437896,-1.9665597895435671,-0.5579609886351631,-1.8971165241467909,-1.455010175588675,1.0028583859622582,-1.860701307696677,-7.022436540337407,-13.452522994367538,-5.601577951435464,-5.419023495079301,-3.312299037172996,-3.062249928960943,-1.613431990853877
21,-2.365770554077759,-3.0496919314735167,-1.465225746969258,-1.979434658642814,-1.569617764396746,2.531096425964269,0.43793825627256755,-6.524737864936956,-15.308085671214062,-8.501359711017514,-7.559205488321939,-4.163256112949455,-4.124493349725147,-3.946738709876503
22,-2.1235067610494682,-2.92514800164124,-1.5616859246473433,-1.4072410651314036,-1.1786885882573956,3.4699718719782076,2.722289698159183,-3.9466227282202464,-12.486229463145714,-8.659654828750117,-7.210855112666941,-3.546811904168316,-3.7918166560229745,-4.905970385621832
23,-1.0969936729043337,-1.8236997632259024,-0.9745455472237236,-0.40060303124289603,-0.41658775680172694,3.593214157260243,4.285022963124987,-0.16710718155380158,-5.99809608763929,-6.250275587843253,-4.731081144115459,-1.7400421227510563,-2.307370707634187,-4.378507080738439
24,0.24000019230865227,-0.3054807553786513,-0.1038098117024706,0.6835293725188667,0.46281024064363896,2.845229668356202,4.606477019379477,3.5539178396048623,2.029327080668556,-2.2380482932545926,-1.1260859018458793,0.569764655859069,-0.28211063503051975,-2.725388787518082
25,1.3076162771877318,0.961010487135418,0.5488829155705313,1.4703153578243824,1.1659822445462125,1.3696109271191124,3.529304648588662,5.996492551206777,9.050416218075963,1.9688572347668414,2.310441075008929,2.5264363284564184,1.5280594182785945,-0.6281412430817552
26,1.6373741129455401,1.453306471601575,0.5914826629218073,1.6916504445059348,1.4549135325228577,-0.502557214043273,1.3255623770206144,6.38530285630962,12.921758564908062,5.000253412998031,4.44032761763086,3.408449110925728,2.4904843945825528,1.1654436944435669
27,1.0520413747202482,0.99048729216986,-0.08861223060416147,1.2756496483284883,1.227330994678512,-2.3119892640884054,-1.3699669524482483,4.641790071772119,12.576428746099754,5.974730134323731,4.655506389166062,2.8885080297579133,2.3156558042488067,2.1048941432440427
28,-0.2577541626072302,-0.20124076215086764,-1.263005513078115,0.3712521234702758,0.5549609377978276,-3.5740393127980883,-3.7441534528228724,1.3994726456350082,8.332503169900045,4.768663049502892,3.0594520786499273,1.1563235463688324,1.1517678700749256,2.0165490715076246
29,-1.790629577701129,-1.577123335718872,-2.43612250468191,-0.7008772454973112,-0.33495911429394865,-3.906068118045201,-5.053191149725712,-2.2206269689978404,1.7410737446902236,2.0168824034759925,0.39802824987335556,-1.1417650432810378,-0.47924952491534106,1.1371530032084947
30,-2.9090100865997655,-2.4849296249990123,-3.030699082041036,-1.5558459089249528,-1.13164222094283,-3.1469219157331665,-4.857202316194084,-4.99577804719501,-4.965636382183364,-1.1477175103822268,-2.231183384641201,-3.1287089855409396,-1.8813442067974784,-0.006448723757803368
31,-3.0727035387980455,-2.4218611384489837,-2.6182703536704763,-1.8755784473437789,-1.5447064128939652,-1.4304488031142812,-3.1672599236036683,-6.015601709040412,-9.632359432592516,-3.51814321748866,-3.785937668986678,-4.011419340992173,-2.4481045885599193,-0.8230013887920424
32,-2.0501170250641003,-1.242750142870556,-1.1087454654672912,-1.5200409667475454,-1.4064195150538734,0.8183713409684774,-0.45588205176170987,-4.983177907634366,-10.885868604006943,-4.248185539450115,-3.6582221476332974,-3.3740143418072437,-1.8953632874809163,-0.9007989095729646
33,-0.030488954772444798,0.7590900844259267,1.1749186224143082,-0.580830379051718,-0.736940420206707,2.9766066623929763,2.4762326835419537,-2.3022516797597503,-8.551720809609836,-3.1444795540769666,-1.8913803547261,-1.3442911053780058,-0.37722542841128176,-0.1763937431239061
34,2.4079217067823375,2.9325046320219554,3.5715452772834033,0.6424949245990496,0.2523118857500227,4.390017392011855,4.739391704014433,1.0758669857563892,-3.65128020976016,-0.7150318819116985,0.8405350667239033,1.429696624177894,1.5591847111488792,1.0370105919322592
35,4.470312255690442,4.487036496844975,5.287404494914939,1.7376990183373637,1.222236632562501,4.570055113517441,5.627861608197365,3.9892617947527156,2.0052445530127376,2.038334779252618,3.48277975740898,3.990392716835028,3.1673269102119255,2.173446498673109
36,5.405841103904313,4.7750943414026645,5.665700995616804,2.3168743314165403,1.8186373458654104,3.3615001696059466,4.841959314402746,5.467275787030143,6.475452697112527,4.0042957668274965,4.98921886931812,5.399732835732463,3.7759463283646344,2.644021953196568
37,4.770418558316184,3.5381057587275198,4.426930115970325,2.1501808984823643,1.79745587318878,1.0228038907685817,2.5885962944473264,5.0576658062172015,8.355060722154862,4.380982680701675,4.710774123539656,5.073425182337755,3.0462400798936278,2.0847473932661162
38,2.6012257165883304,1.0266772107663884,1.7935911320626465,1.2508474177614444,1.1193165557742792,-1.8166793946031483,-0.473710785977895,2.967463312929531,7.2287157412745415,2.976236924331808,2.6425835617841313,3.002516333549084,1.1163886772068385,0.5254856326414324
39,-0.5613349718258318,-2.0531230500776814,-1.5498075490340653,-0.11914607005183117,-0.02215769227352659,-4.321302910503002,-3.430998908560068,-0.02749682328244858,3.7530406777036767,0.2800779595219173,-0.5605019906593594,-0.2192031676148243,-1.4234621140513066,-1.5889491627494383
40,-3.8191429951477156,-4.755052281338425,-4.654602591160205,-1.5274694558128223,-1.2528720205946147,-5.69372573397284,-5.392033502916846,-2.868038415227924,-0.6413751332427059,-2.7160485273763424,-3.807558603480887,-3.5771658719340365,-3.7226761606298795,-3.5396885945608156
41,-6.18786205451384,-6.200050750351428,-6.601842662239302,-2.5103246074772967,-2.138632025018548,-5.4273811924407545,-5.762550835651075,-4.588260282996535,-4.3065704940957295,-4.886066624316738,-5.955672464479905,-5.969411617172385,-4.964283920939272,-4.589317002510509
42,-6.908834513167041,-5.872289085927957,-6.795638929175514,-2.726860127943114,-2.3353725241641943,-3.486091873974326,-4.429717248012282,-4.649410656904891,-5.982072423940741,-5.387050190489109,-6.217441832987856,-6.579041705795051,-4.658723099085325,-4.259472480423338
43,-5.699306187806064,-3.802223051055886,-5.157635797318175,-2.0774046351807165,-1.7179767639780734,-0.3477884789475038,-1.7983289038306052,-3.1146127550858465,-5.22817732904231,-3.97448969355037,-4.445690587085121,-5.15741269468164,-2.8310425518389954,-2.526649894087284
44,-2.85660950248429,-0.5720708274273929,-2.1564102007796633,-0.7444623014262883,-0.4404648490496461,3.1108609916577104,1.3334586850237173,-0.6063154818317547,-2.538041343891218,-1.0992521937725066,-1.1927933071130647,-2.1185953107313398,-0.03090428568309564,0.14029340692716408
45,0.821372967972547,2.8610034950934695,1.3390234041703684,0.859572841681605,1.09849956539785,5.862051134149638,4.020523669494625,1.9336735997788996,0.8986426490992101,2.2495625108005357,2.4771758724612516,1.590092609225254,2.8431877514891646,2.9207209946464032
46,4.276756584979389,5.466775810960744,4.3330012397459905,2.2228363640024105,2.378924624922828,7.035662461979026,5.4622711028280175,3.591887151744816,3.6790979334657723,4.898725008519628,5.356521351368675,4.799212865180529,4.847237983469353,4.915316269838165
47,6.516827326165863,6.469166497477449,6.012955818619605,2.9006135809209095,2.933832324472954,6.194985812018384,5.247898955240235,3.8119839390975914,4.729380712653499,5.9129613123872495,6.510893986423602,6.5043877916870265,5.3173157537808615,5.456330147046594
48,6.9188989847135485,5.590568511818986,5.992639698885713,2.6631399104846527,2.5163220716974295,3.491117709660532,3.478828414101503,2.586712006273247,3.700854035335821,4.931525296688123,5.597114673508042,6.197222065699668,4.101964133472607,4.344085731493416
49,5.416437732799749,3.1334643615885756,4.410502997335207,1.5748810283428525,1.2000416721436151,-0.35753942293174445,0.7306991100099465,0.4460132947557631,1.07789557915231,2.297324670431074,2.9706081789557284,4.027161427575799,1.6176570074972783,1.9237237895926549
50,2.5075651316234344,-0.1253753481357596,1.8555892870207193,-0.022218254700603197,-0.626201517933433,-4.261179349364079,-2.13191474842779,-1.751332209198432,-2.034500870828244,-1.0674750362117296,-0.4523099972503616,0.7403870206683827,-1.2941845927140538,-1.0272881480850946
51,-0.9138834886473078,-3.190081524943632,-0.8475208782556183,-1.6172673066392471,-2.373803440581954,-7.075334716543509,-4.228632356896769,-3.144033429374661,-4.354038469687274,-3.9931764196191275,-3.5240168196813046,-2.580696155878101,-3.659222977880863,-3.5626002985120095
52,-3.8462193777287506,-5.163442941480352,-2.91643765742348,-2.6957968203753877,-3.4453184245084487,-7.944308676227704,-4.937659299924965,-3.1919271891960608,-4.922042542896884,-5.480474863802665,-5.266271769371835,-4.885223067024742,-4.708139029488032,-4.888812794726478
53,-5.490465100836693,-5.522005762681502,-3.8549430720330924,-2.9077512439520676,-3.438394064349118,-6.566086148537871,-4.085298967338546,-1.8780989079109098,-3.471367034708223,-5.05307882099343,-5.1985395045414355,-5.501148158612815,-4.140504118678745,-4.632184252908732
54,-5.482914193642382,-4.260876692500652,-3.5829444727622306,-2.1826457349234363,-2.292652767804158,-3.295283565394481,-1.9920429304919107,0.2843772268723709,-0.5249268711141545,-2.9185127169255494,-3.4800239225176144,-4.343898164555822,-2.221138923818365,-2.9567314837037
55,-3.978380053447175,-1.8670640004288512,-2.4157080919615486,-0.7536733335755704,-0.3263692106002599,0.9508370912430152,0.637544855776159,2.4433191639560876,2.807540123872004,0.11860214759745698,-0.8214640706530777,-1.9189172189045016,0.3241409136743757,-0.49380576392772674
56,-1.5649992562596924,0.8614357846712611,-0.9102002601765486,0.9174584507163775,1.8540895182850314,4.957919734596405,2.944683153660218,3.726003070246347,5.253143358917764,2.956142020067349,1.7933395225782591,0.8763182097189689,2.5743314984883345,1.8893005804590468
57,0.9522521786183775,3.083809735261168,0.35805715976826524,2.2904538951472078,3.545797880725675,7.572904531809389,4.192249846918673,3.5689093117504194,5.857699323821241,4.595612961289295,3.4693751531598434,3.0760143837278444,3.743899609341381,3.397307836477152
58,2.8210446060194845,4.180174062600625,1.0034289051399925,2.922017507879155,4.179966479892324,8.047022786276802,3.999156770156461,1.9378813675343882,4.3447864799539815,4.498264119361543,3.7126476850595767,3.9795338026454936,3.4593189657479666,3.5811649115060016
59,3.573113950219508,3.926528225777844,0.9500181289492513,2.6096449970405438,3.5147612229361274,6.258933429215117,2.459320942107316,-0.6427272152443431,1.2198437548508754,2.768151514376648,2.5826703592824605,3.379156440646578,1.8833356461062387,2.4821834312221744
60,3.144917891476232,2.5313678434817164,0.42531319745236484,1.4567108116156158,1.7240976847702172,2.7495979847585734,0.10791703687849058,-3.2647606843878347,-2.416131456445438,0.09889772455334805,0.6370634617927129,1.6073533554145722,-0.3552623816567794,0.5979215659519846
61,1.8563837124327542,0.5331123959985864,-0.16192641099759136,-0.16215082800068967,-0.6499054137776049,-1.4422011911576667,-2.254233182237281,-4.954512007859171,-5.270966807747611,-2.4923171487895304,-1.302675570842406,-0.6058745572449771,-2.3981929787781007,-1.3137975508218944
62,0.2658861272753455,-1.3972692206863992,-0.4070979594307221,-1.7237003833259468,-2.867536110200106,-5.093834785269801,-3.8224060673436306,-5.022539496110852,-6.332483009398441,-4.04311515294974,-2.4712761140997372,-2.4087533291585213,-3.473077286121265,-2.5188625708300703
63,-1.040552493031293,-2.6771689797800122,-0.0850535652084163,-2.7264102936833434,-4.230010391887081,-7.166541480501167,-4.052512284331054,-3.3211006492633817,-5.233191709403653,-3.997078233153185,-2.4449595206135926,-3.1356425323103543,-3.1732646239130013,-2.5750581432267885
64,-1.6502527414078974,-2.984389936225607,0.7514246901791386,-2.8527192733991007,-4.307048049437299,-7.114467257944662,-2.843491193134409,-0.3169949838604215,-2.377017216385596,-2.4003938775632934,-1.288349224127142,-2.538691907298103,-1.6022238636611077,-1.4885025038226132
65,-1.448490719128263,-2.3305788874784916,1.7857926755606461,-2.070433494351313,-3.077476985223593,-5.040439389403065,-0.5778346824843609,3.0483364824310564,1.2146627271939547,0.1250174900626138,0.48623304641461934,-0.8651564197919822,0.6672679117702991,0.29566455210365733
66,-0.6307971719521709,-1.0228664168291512,2.5575941495500247,-0.6406304628766719,-0.9355181533614396,-1.6509872450426417,1.995085398053131,5.665815229263184,4.27775527524513,2.6184884521828877,2.12609147524303,1.2416545389781282,2.801943924834459,2.0620848123424933
67,0.392649907484565,0.4624316915982379,2.6422659366228003,0.9698979688058799,1.4396249995595976,1.9747017970034255,3.998287150002973,6.629361104425225,5.762026734060018,4.138088267178757,2.9308920352780756,2.978306001529153,4.008129609550215,3.0905682795706175
68,1.1603100196984266,1.6449055839070683,1.8240924077685838,2.2424487619680322,3.3071895325169995,4.7289821931687825,4.71456380405187,5.544651067502511,5.203120228627179,4.106537235544777,2.520817942549255,3.6688372043954716,3.815281684157074,2.9220959228114496
69,1.330280765985465,2.1881430041112657,0.1988064878085806,2.775711368120652,4.106191891878633,5.824138612068976,3.8303275447533194,2.6714575774156444,2.8767333181253476,2.5197033649264298,0.9820797010174853,3.0037912222015004,2.2430174302425727,1.5309881249806232
70,0.8006593695447985,1.9869585797159413,-1.832153998716906,2.414957265370304,3.633702813779447,5.033883228034431,1.5556459634612072,-1.1486871870445228,-0.3175219871998604,-0.05624494709837304,-1.1613101321169916,1.1499221061261453,-0.20528761627660677,-0.6566777559161757
71,-0.25842915324519206,1.1742182990255012,-3.675718479230647,1.2989158709335618,2.100903546737021,2.7501950852662205,-1.4226725753510727,-4.755763579872452,-3.1963031639236146,-2.6949085839873135,-3.1365613391447784,-1.3041270850626618,-2.717162555337149,-2.903822493949171
72,-1.4674667209713004,0.05498949968554143,-4.732506848659699,-0.19052053436470479,0.049864834064709096,-0.16320250859339294,-4.146069197629182,-7.0385868588694045,-4.729638119668255,-4.4475232463791645,-4.201368158606871,-3.5447995782014026,-4.450155796463316,-4.412727853564226
73,-2.3701144890019723,-1.0031113544038683,-4.59259757268317,-1.558344449407266,-1.8382003860573717,-2.6728675789762373,-5.6872879422653915,-7.285963415704298,-4.41395356068622,-4.684094998281726,-3.9119878754206656,-4.804874075408384,-4.816979008743934,-4.598779486335025
74,-2.5900157683880485,-1.6852309253650275,-3.1778113535707835,-2.362318910927542,-2.9755595960957275,-3.932706568987564,-5.457349124854312,-5.408405630053624,-2.445133945316341,-3.31436245729125,-2.2847823696248506,-4.6178838198607775,-3.679010299871037,-3.294791326347734
75,-1.9607737201022402,-1.815732375233652,-0.7841989714344708,-2.358951635014406,-3.060686395085912,-3.5749664095177054,-3.4167463415427077,-1.9611207228003704,0.36964898245829103,-0.811196791004609,0.20440916006361293,-2.9726182493253197,-1.3850587535852623,-0.8177937734666043
76,-0.5885669286805693,-1.3945692571328276,1.9897182777781077,-1.5806876273465365,-2.165534936994647,-1.8337484986187913,-0.11741324878274532,2.03536435075217,2.9258050886123845,1.967589012657768,2.7803870144239426,-0.3194655037691435,1.3526534501730891,2.123143805140123
77,1.1711336654202098,-0.5797227484946733,4.407848082055115,-0.31885270116955616,-0.6899277438339306,0.5449715089434759,3.4466132858825973,5.415384935932698,4.241945360955443,4.089753163791533,4.629733792759344,2.570403282076072,3.6977268334719526,4.646876156194196
78,2.814936542904428,0.37246304482390324,5.805225047059682,0.9809934941672315,0.7969612019114151,2.5791039904926745,6.140539168776486,7.224166312202168,3.8290934397449954,4.875848438121654,5.170796438058144,4.844843936756386,4.959566937572564,5.975615223542171
79,3.840147412051222,1.1872964060968716,5.778474510539514,1.8746721879356585,1.768305085809012,3.4172001375458474,7.050981688986947,6.99668885964403,1.870106652771017,4.124691121073627,4.239821748205903,5.831358131217176,4.803331049952323,5.676907802770716
80,3.8962997349173465,1.64789649652468,4.30212570959618,2.0718867924137396,1.92696543270544,2.6653321892678994,5.793094387542115,4.875220819374606,-0.8573505164843864,2.159437464059182,2.1324323545555517,5.236411765097073,3.3340593496727045,3.7958425355182754
81,2.894735996991842,1.6476701763664512,1.7374467194255905,1.5327881171243007,1.3013651214646933,0.5528049003767241,2.659202450026909,1.5363646095391816,-3.283906267288421,-0.314933514308903,-0.5083294352817436,3.2237838761603443,1.0353182103802991,0.8381104511861116
82,1.043722375695752,1.2082348934300897,-1.267526738068875,0.47553004539628196,0.21748664791159963,-2.130481121031894,-1.446950811052097,-2.0393966173711537,-4.461457944196162,-2.4820369269276483,-2.9128736325939286,0.35285680024133653,-1.407169470473221,-2.3868511958369867
83,-1.2017584773734415,0.4624047151512665,-3.9563434387621506,-0.7067867734460166,-0.8392767815216126,-4.3110561028904995,-5.2776225110610255,-4.874195980030997,-3.927866070120019,-3.706634247149164,-4.434571881501478,-2.5973710409964847,-3.329879770681854,-5.009307265952461
84,-3.261585874256294,-0.38904461269428603,-5.668345369657858,-1.5892643051317865,-1.4181532690365595,-5.029604232123151,-7.629847134297741,-6.274575708753429,-1.883423990307938,-3.739775995481569,-4.74144360315338,-4.85841949205645,-4.285833418745363,-6.3506572538499695
85,-4.588746229560952,-1.132556422506902,-6.010155316515611,-1.8666719848725368,-1.278655812225665,-3.8167997794117134,-7.731782330744548,-6.002830636883837,0.8888761599146978,-2.7649902113206863,-3.888240929133991,-5.883465781427745,-4.147920114495475,-6.105446503245756
86,-4.819018229293729,-1.5936121111188901,-4.947349347536942,-1.4588534507572446,-0.4815280629018773,-0.9062071860210084,-5.499463580952084,-4.294677945407179,3.3286391312967583,-1.278237240951018,-2.2529569350891223,-5.477887672944747,-3.097412433109245,-4.402820538212784
87,-3.8697949543517867,-1.673082749603765,-2.7943796578721827,-0.532886715760184,0.6386248129965156,2.8030115419564594,-1.5764185954035603,-1.734006996435764,4.5107425654385604,0.14056447952763118,-0.3714914371358069,-3.818368198889533,-1.5166498767760432,-1.7377775116557523
88,-1.9611719003056378,-1.3619994774230368,-0.11159359565801641,0.5644160903409564,1.6073746341061064,6.032374802099763,2.860907719289296,0.9585688807250635,4.004817036421617,1.0662455523885705,1.2606304458947342,-1.3678959919309994,0.16291297928556883,1.1954246790444838
89,0.44455909314891623,-0.7352420029517187,2.455141720097647,1.4371098766557064,1.9989102562336822,7.566374561032128,6.47106677580785,3.1444205570365447,2.0407904005484943,1.3790741844568786,2.34286840338888,1.2742139257301957,1.5959133701435513,3.7071529576573905
90,2.76558270596692,0.07029637318220208,4.342417127883671,1.784448676130566,1.6060267176956722,6.6966562589779075,8.169541652809063,4.421715159712419,-0.5851177662129371,1.269025352139919,2.826079493906542,3.533364672539357,2.5945541041739197,5.287451955266236
91,4.4495697407053525,0.8854036230857836,5.197184615852803,1.5054991882491928,0.5260854727384822,3.507098175522686,7.466879306612907,4.677602643824976,-2.827936770866279,1.0985298979140652,2.8589101442134064,4.983617080788055,3.1211374170563233,5.7035066398617245
92,5.108268991506373,1.5393952801526893,4.933824766983053,0.7266500921280654,-0.8703181156261363,-1.109502564635878,4.613338061240698,4.041677355427902,-3.810592109800104,1.1893395965818214,2.6583370534866555,5.408086578293893,3.2217362574015866,5.003075898642156
93,4.604079710332476,1.8882151544583008,3.7147411746523322,-0.2554775383707367,-2.0762892636290666,-5.719445942343345,0.5055340091311893,2.780050322609519,-3.175118141530897,1.632182440349101,2.3691767635000365,4.796748680276029,2.94502835994181,3.441788122975473
94,3.0708862619236594,1.8385927576846977,1.873019772427454,-1.091104581766974,-2.6390944334372417,-8.81573882024437,-3.609822079139358,1.1843986177166625,-1.2284460441018794,2.209187029773369,1.9801956384208532,3.3040451083805484,2.293195762905111,1.3756382854312739
95,0.8702304677531246,1.367883748290102,-0.18943766216311173,-1.5078109394739725,-2.3316726251256434,-9.326984145937223,-6.533497361281666,-0.4989194443625079,1.177182748767492,2.4715487861013927,1.3381388016087608,1.196106852067284,1.2328699669015846,-0.8354328200090149
96,-1.5003868942359215,0.5376164324318142,-2.0937970949767593,-1.4045334374657368,-1.240036549732663,-6.991237789435994,-7.480330800613133,-2.081773245215647,2.984858808085599,1.947547352058034,0.25615562505137807,-1.1905366563779685,-0.23810221906390536,-2.8816016536233806
97,-3.521624548548916,-0.5041078342289048,-3.5432906454792255,-0.8751280773688945,0.2664653216890101,-2.4629990023497825,-6.2975183839996545,-3.4029753315178617,3.3627805979788556,0.39636415804731706,-1.3318160164990183,-3.474536234814984,-2.003502924993295,-4.509812853144618
98,-4.762617773417459,-1.5379052545629237,-4.344661643958932,-0.15632618401768275,1.6704972021887188,2.886907286755549,-3.471432553615471,-4.288423555011227,2.0545680517167746,-2.0036552395464624,-3.2450612937423964,-5.252674320021635,-3.772638080572781,-5.503576328167549
99,-4.966421278469442,-2.3106726116644576,-4.403794311380773,0.47533237881622337,2.4962744409189637,7.412581636328466,0.06688273913034486,-4.540953185192724,-0.489948442166755,-4.625078151450331,-5.0277572106140225,-6.14050585421258,-5.099350589836036,-5.669656449867922
100,-4.097327527094909,-2.593489821647625,-3.714743974603085,0.8140735182700333,2.481828680281808,9.726355274056319,3.2611654852013183,-3.9810523781403395,-3.2607235002852413,-6.554088410506403,-6.05163024189802,-5.843355973822546,-5.49093141052116,-4.8598714239112555
101,-2.344568829280124,-2.248564508844792,-2.357332843830212,0.7985396514666859,1.6697876399569853,9.14429194715122,5.261462549249994,-2.5307190154111514,-5.061993028972133,-6.903350994827823,-5.728999591061,-4.250527728428831,-4.581474407446904,-3.0341518090611395
102,-0.08342668034807611,-1.2856869170285747,-0.5058475139534488,0.5209799476909909,0.38394320563906964,5.8958254061791635,5.659196001966793,-0.3052813014918884,-4.978511773081314,-5.1672591841214786,-3.7646299616185357,-1.5230071223997024,-2.3094839926808732,-0.3424198749093669
103,2.1996844250687735,0.11385798406742866,1.5628199142364512,0.1718242699162893,-0.8976519470357401,1.0317819238575114,4.558428017250015,2.3352549855551943,-2.758494037297448,-1.4842504162382157,-0.34797152009931404,1.8682857608552206,0.9742283735644791,2.8184422263123765
104,4.006271627576741,1.621889648770388,3.4811979139857216,-0.05398224464788086,-1.7235297839548762,-3.9317521905677673,2.4771045175114508,4.815688299325205,1.0353873624234737,3.3060845156996,3.8023817494630907,5.1913871308931006,4.527025169732817,5.818621342315221
105,4.931893985123738,2.838285748088438,4.839742445092107,-0.04755383524430521,-1.834618136231706,-7.508427961579325,0.1300906252068732,6.468385184661007,5.173665189600709,7.855715781007795,7.583646712915857,7.601667421892323,7.380645299604159,7.905848683019737
106,4.758429636496571,3.400282191589853,5.2737858028742215,0.16532233355284773,-1.2530383869486519,-8.707720328959365,-1.8195623953775362,6.723980396558676,8.16497987735274,10.706090394768072,9.817134627898515,8.364274706891381,8.616885081631597,8.400195724379666
107,3.510995562688966,3.0951398111359127,4.571059161983781,0.4378776290435341,-0.2622689159033212,-7.320416873186851,-2.9537775716565458,5.311768583320069,8.781382605273715,10.767895817032867,9.629245982347856,7.089492834251569,7.670400565795163,6.920933113675106
108,1.4626768483735275,1.9394314647148032,2.7654162175277595,0.5719994746063733,0.7111724924716898,-3.938786698486183,-3.179742117473695,2.397575801134031,6.5192094940731105,7.720627192135179,6.777963045799953,3.9018155234796805,4.556001240508514,3.567663968202482
109,-0.9194485161955771,0.19506370335863243,0.1775764198485659,0.413701920191034,1.2672799971270452,0.2806630632118247,-2.6871618962285506,-1.4005341375279348,1.8280981475723732,2.187288370752772,1.8047192026309153,-0.526604240071192,-0.06676638952916562,-1.0201471173925107
110,-3.079119797149754,-1.6894913035972412,-2.6251800961982132,-0.06674925621295691,1.187678935226228,4.0187589508595085,-1.8176465494463827,-5.141549423610157,-3.9817663453854415,-4.390770650928233,-4.057309902699947,-5.1097168687613355,-5.030658992316086,-5.768916170287821
111,-4.503959434697343,-3.2000710492781343,-4.953559936789805,-0.7452306330621107,0.5174842808837445,6.217663491730035,-0.9084536301279496,-7.809480113189502,-9.133269762115583,-10.154655222754917,-9.208043241059652,-8.625696038366137,-8.972318941166158,-9.432126674632443
112,-4.853956323495784,-3.905411158125783,-6.177854365751281,-1.3794029989565482,-0.45599128428826424,6.38760719308729,-0.17349940134709513,-8.609669821188607,-11.950698745183749,-13.385344035850583,-12.147286238532555,-10.064272691005472,-10.73008953144972,-10.940550219558448
113,-4.0507877922976485,-3.5877934971072043,-5.91489015508761,-1.6978145194359657,-1.317941034559047,4.705850774086251,0.3386509200246729,-7.220751443337284,-11.414019184783445,-13.04153552773592,-11.938856378351966,-8.937577759622418,-9.705167318469007,-9.73631685471688
114,-2.3018201467040385,-2.3137951285487643,-4.160100679119175,-1.5086875889480609,-1.689256663714603,1.8934975606919562,0.7059389779496265,-3.9181231844189375,-7.512396286229538,-9.10279619493039,-8.521165932129726,-5.452673231787342,-6.068556144242361,-5.980462705482743
115,-0.04953012105619656,-0.4210871264643625,-1.3166309204739017,-0.7857555414689033,-1.3756407355896862,-1.0692228765594332,1.0427293096300227,0.47736083518014744,-1.2762729284306706,-2.6027969413873184,-2.758142546724825,-0.4829920069311655,-0.7413173257155292,-0.5564255732208283
116,2.142167961534474,1.5764225959010716,1.896504972130435,0.30380049426490463,-0.4462091427313685,-3.280303522783526,1.4063953252552601,4.816933299176654,5.52561688981194,4.6634342912766344,3.7938313383708975,4.661849500247146,4.8537183986175725,5.146196763555424
117,3.7348127940518863,3.136787081887632,4.636590567150205,1.44297614024636,0.7876704555226535,-4.189888965171401,1.745546632760805,7.9455977279951995,10.92671091906351,10.669034015277996,9.335535559903505,8.603505417621474,9.1974173043572,9.612299173868093
118,4.355357721878554,3.8462393332272047,6.1750106487246645,2.266957943210307,1.8848734795154247,-3.7276582636425055,1.9132925613341643,9.031628315711947,13.365459947954756,13.75614743770313,12.352867253132457,10.28968248422269,11.11429120912173,11.634871059557794
119,3.890378382756057,3.5357645314797423,6.1085491458944885,2.4880913731062613,2.435968844282172,-2.2586078587709992,1.7384907632422815,7.804015196590414,12.15729621821679,13.12065406718004,12.059012748634117,9.295752373502486,10.112053903972956,10.668701594022172
120,2.5085570214057573,2.323322783109442,4.477915118388611,1.9990441412524877,2.213614764612452,-0.4029259825342226,1.1214869584087417,4.6261609450407155,7.688447231006166,9.032290017756495,8.614346237187528,5.941053137023594,6.517114975432471,6.993132566613084
121,0.6061423092201192,0.5708031952222836,1.7552115782557307,0.9165400887078361,1.2567992452150354,1.2023710647040673,0.10929237779324123,0.3846713357325247,1.277240323658276,2.7277563116815706,3.0591771775614256,1.1857178878365955,1.366604088106669,1.6314014330191862
122,-1.307703478942847,-1.2286018408300592,-1.2967804165542183,-0.4509779583910089,-0.14103052452594947,2.1120046706786817,-1.0868827131522139,-3.7713381518232785,-5.243898430204999,-3.9815714462801695,-3.014115413709834,-3.657715285575136,-3.9063812387531085,-3.9495689625598445
123,-2.751778336700472,-2.59614281920344,-3.849915809852894,-1.7012821217268925,-1.5342842063963877,2.1847741394981806,-2.14472306579033,-6.760202808130663,-10.086157120739676,-9.257950700906251,-7.942056908574959,-7.30716255630481,-7.8944393808645605,-8.266216106447725
124,-3.39939402895064,-3.2014003718646826,-5.250371215776845,-2.4681165286207456,-2.479620577022139,1.5756318690637263,-2.7373935221456813,-7.8674445427769575,-12.024092021131361,-11.768447342317414,-10.472165490845727,-8.870922780962875,-9.614311786060748,-10.240685088874258
125,-3.155581762198646,-2.94522291029474,-5.198832301447027,-2.5380069116303785,-2.686234976562323,0.6289816900272625,-2.6530072178381854,-6.927572111112781,-10.720024949191563,-11.03850149658624,-10.099463533186034,-8.07817593328482,-8.763429663722276,-9.490608148183105
126,-2.1656519371820377,-1.970326684355322,-3.81775042308531,-1.914524720454278,-2.1090725993879764,-0.27358954134325725,-1.879482880510838,-4.33880550481406,-6.764892886376026,-7.5302209876291215,-7.162427169475967,-5.317334910019815,-5.764133843114278,-6.402832810332026
127,-0.7566865987974826,-0.6014344503120993,-1.5896109094922228,-0.8095957259488291,-0.9543759658939527,-0.8499490336805169,-0.6199756977611365,-0.9142660601546324,-1.4407230905807678,-2.438411333623502,-2.6830478826824042,-1.48110214541922,-1.5935959132006723,-1.9775287386640983
