,AF3,F7,F3,FC5,T7,P7,O1,O2,P8,T8,FC6,F4,F8,AF4
0,0.15412160628475224,0.05177494426078314,0.37391973368172876,0.0560729796447714,-0.2085647316341224,-0.18023292828574938,-0.022817517379930364,-0.285953080566597,-0.35434324242947507,-0.30607616191201714,-0.11400818693167777,0.10528853202170363,-0.3078057164766306,-0.048377330086370594
1,1.2018105934658834,1.1413104785626387,2.1239033534529423,0.6672559223075987,0.8626265769586905,0.8529731804722128,1.2645309378908365,4.3461591267355555,1.377933980794003,0.21998558992641554,0.09315821884694056,1.0285985349325453,0.18309930261109253,2.7253873142225804
2,1.9078847900229847,1.8495816955063125,3.3017870190089216,1.104351916021305,1.7416238142618397,1.7268362265240331,2.33125012331339,7.690202858423706,2.365665337796451,0.20988403531021693,-0.021404636318446385,1.5311751955984114,0.32650402143753754,4.6297308516604225
3,2.0350844257822023,1.8961826969857447,3.5622670321710403,1.243896446630757,2.2056583304919286,2.2602466796374654,2.9744225235033572,8.784981595471997,2.138472827200124,-0.6599543509119803,-0.6639473297239684,1.3506482998708096,-0.12533899067324278,5.0152829730057435
4,1.5243855614834714,1.2308353513713415,2.82146410264304,1.0468902333787193,2.1324714137266008,2.315134499733365,3.036835841274293,7.339190350377069,0.7264346697497253,-2.253175239716082,-1.7461921044035937,0.49486926997839303,-1.1027253534526826,3.7361679342949605
5,0.5191558097172039,0.05805069798043066,1.2813650828554672,0.5713461592231944,1.5359160359463973,1.8332695526716993,2.447184912565068,3.8123491130495726,-1.341416727393212,-3.986696237047791,-2.889782663410602,-0.7516418716842979,-2.2204098716317033,1.2028958085069448
6,-0.676847527089269,-1.2282996264904533,-0.6301736774642022,-0.045603227288815974,0.5660424961597523,0.8702901226165265,1.2621255364117274,-0.730942723095308,-3.2291377876338454,-5.0418512551754,-3.5616595474371135,-1.9276182826170825,-2.9218704703801355,-1.7528398631009934
7,-1.695245421169325,-2.179399673152158,-2.385017957807331,-0.6304156755354204,-0.5282295289376754,-0.38993345970357574,-0.31083835267559107,-4.9469064703599,-4.10769801324906,-4.6976044780587385,-3.291400467502662,-2.5652709565993224,-2.7133916395701507,-4.156319471159127
8,-2.221498919194549,-2.4487407944721236,-3.5072301325005366,-1.0264683515799855,-1.4650097892347633,-1.6563171761917457,-1.9308986125911094,-7.617265983134394,-3.4765414395815757,-2.6580622449786246,-1.8866372594599525,-2.367956132633919,-1.3962119452773127,-5.216666727893071
9,-2.0965274517848482,-1.9168223225162206,-3.7062409719968157,-1.1401365894762145,-2.0061385911903105,-2.5924260589943624,-3.191446423665204,-8.008549007163872,-1.374368500819247,0.7577040144355452,0.44072194087869526,-1.3288894094025736,0.7995194802176825,-4.591273423423377
10,-1.367017954611691,-0.7382508023341915,-2.9516833100482422,-0.9644622700686819,-2.0228030411421454,-2.908469710453143,-3.7271363501174326,-6.077887886098879,1.6010570252617387,4.649005669554768,3.0944939006219276,0.2542846988790339,3.2419536474526733,-2.4979125037821905
11,-0.2672157058824387,0.7070673166618362,-1.4700589010220555,-0.5734649576579162,-1.5305870927080703,-2.457193509642456,-3.3303284403819333,-2.466463958764859,4.476546152565931,7.794381654371651,5.264167182812635,1.8760801716814266,5.089215926520191,0.3630213708662629
12,0.8613802515081008,1.9429907075455644,0.3318060697464675,-0.09084164424814466,-0.6830747759522731,-1.2998174118228694,-2.036324011417688,1.7118384918975864,6.230037982679873,9.058083426116493,6.191665112999049,2.9969647463068605,5.584716717849053,3.0484380030874223
13,1.684355841676529,2.5617745486604853,1.9893939859970164,0.35411470573115184,0.27453475924379206,0.2868133610071444,-0.14170101616344555,5.216623050865718,6.147510096613364,7.801479701101745,5.4427318383652175,3.231959756261765,4.351186628212588,4.691444386475027
14,1.9829256517651048,2.366119761957609,3.1096678499143575,0.6666021749324615,1.0781034817082114,1.873281474967101,1.860015492591066,7.053128377576726,4.085452871382935,4.149970706950056,3.0846055190660064,2.486254627324772,1.572164088419656,4.789651560946599
15,1.7193136057737026,1.4378251803354847,3.46818050912836,0.8083075181216305,1.521615051171862,2.9979604385933576,3.412750592252173,6.757324907806354,0.5461153906545095,-0.9880294364928872,-0.29849991402693477,0.9895369196439834,-2.0150534540768144,3.365159678983501
16,1.0374225568085516,0.10801257492009997,3.0487909617686757,0.7953157136209318,1.515221802796257,3.309512931752742,4.063421760244563,4.511645495798942,-3.4626457897241085,-6.168673265179809,-3.7650254270739536,-0.7824224338214442,-5.32573418984354,0.9439383782419338
17,0.20063407077768813,-1.1610021878993475,2.02101084546825,0.676024095492474,1.1066809744948278,2.6849529941314643,3.6056364962322225,1.063601414806819,-6.737145459334965,-9.852083749573705,-6.302356709987402,-2.2700381328873336,-7.2720180566083865,-1.6348941178189276
18,-0.5089969989887962,-1.9403223046514393,0.6700245999374556,0.5010359221244831,0.45994441101852224,1.2813883644709756,2.1526920340353106,-2.5198712977211515,-8.254493486877173,-10.890392094218507,-7.146181740842063,-3.0180567332940607,-7.13130705431255,-3.5113423040344904
19,-0.8925400014862167,-1.9867361323807504,-0.6926876935574741,0.29946495399931156,-0.20190927604708842,-0.5003282686361383,0.1126611115091263,-5.181666515873093,-7.4926832813051085,-8.902098303024033,-6.02654988285169,-2.8239631106416936,-4.811276083127363,-4.096456614376329
20,-0.8998127404899902,-1.327907528836445,-1.8081903735997107,0.0722377258591725,-0.6709085988272033,-2.1327526752555808,-1.9297098293913149,-6.185520986884905,-4.592491584029053,-4.407288919041073,-3.258306520596386,-1.7968417557128398,-0.9153040682135966,-3.2643072707968104
21,-0.6355910866638711,-0.2495655344315781,-2.516857216556313,-0.19536861303900527,-0.8215084602200203,-3.1245545015809073,-3.3884045918463124,-5.317421221873891,-0.31435779126717417,1.3221296817356354,0.3542152868379488,-0.30960403633743305,3.4219567266730904,-1.3807236594258732
22,-0.30540722919905994,0.8112157781262351,-2.766116967554959,-0.5089076523816164,-0.6489316151094842,-3.176621845998614,-3.8534907859408527,-2.923298908668999,4.189015994301388,6.648557973785671,3.7664294123974926,1.1351858108747646,6.881157199608709,0.837409654166633
23,-0.12243924000658704,1.4288389102525931,-2.586980833709701,-0.840705378077878,-0.26567935317480623,-2.279872048873919,-3.2140505943182305,0.21972548844722453,7.706864190118596,10.06574231426759,6.014627241991087,2.0770304838820035,8.376200586480465,2.5806216959162436
24,-0.2116658133402718,1.3498441924867288,-2.0566248238307203,-1.1199908759366939,0.14291923193746991,-0.7212129151618214,-1.6880015222659863,3.1519787089000975,9.306174686485535,10.647633147959967,6.505244708221836,2.2474622325494726,7.406633689215297,3.2323235607823375
25,-0.549016511014824,0.5931449874538146,-1.2656762635871288,-1.2451309623848217,0.3892777027675159,1.0059388460160883,0.2496511794973279,5.020471069992143,8.571993904003001,8.309474746222454,5.181632258748083,1.6491970703499323,4.227498754269238,2.582924403290566
26,-0.9609816378329917,-0.5479373780395013,-0.3026764471176528,-1.1166674665022598,0.3558214440246833,2.3584621468151004,2.0160816778331903,5.322049230264938,5.692688022274548,3.8058323711329245,2.51995745407928,0.5415856149687693,-0.22096158054383447,0.8999655175812323
27,-1.1881427346378548,-1.6055579394861021,0.7422452015998848,-0.680581179549556,0.04290789079863378,2.9169266343736933,3.099344073258944,4.032311434800672,1.382079340069117,-1.5236552994848718,-0.637903371894414,-0.6582957658100772,-4.602655006741103,-1.1686299685487294
28,-0.9918753385949239,-2.1067657464176666,1.7626110588828523,0.03450588522042355,-0.42617875207586803,2.5191409668586395,3.2104357807522033,1.5894855697367067,-3.32287019116337,-6.171293952412762,-3.3554043954166173,-1.522306803731178,-7.601370932400865,-2.8243611610473107
29,-0.26560096561029267,-1.7542407598247602,2.623711928735442,0.9023639144562215,-0.8471371096748451,1.3105647738686945,2.3627213187890703,-1.2536116268948487,-7.322468771743507,-8.905498649830829,-4.887264984008865,-1.7553141355073654,-8.329459146604133,-3.4023218527097177
30,0.8928168666378072,-0.5537071762479473,3.166878586215308,1.7164502481487265,-1.0104553621938284,-0.30429772376313347,0.8568559381157963,-3.659326960868781,-9.703244293869906,-9.1060856009586,-4.891029336669956,-1.2896600429420964,-6.599186576469966,-2.6126835087144507
31,2.180032907428357,1.1607964633337078,3.236298705381699,2.2391158454369124,-0.784775647481552,-1.7931215343620979,-0.8207311908040206,-4.946525587779171,-9.922862002841484,-6.897318726092821,-3.50291586450033,-0.301280905316229,-2.9719710676899385,-0.6563296697064738
32,3.1662391367598017,2.819092738571197,2.724343098211508,2.271000179343193,-0.17698916426719785,-2.6668070475527657,-2.151674629641648,-4.775099680048458,-7.904762465777384,-3.0543729418580394,-1.2623404207779594,0.854777782031195,1.4270165468735208,1.8270061546736325
33,3.4339183903846977,3.7993199957592396,1.6214635293544115,1.7202676029925505,0.6551267696419492,-2.635488670819704,-2.743333872930804,-3.226014564703061,-4.040245350591733,1.2698910697127694,1.0823694702786488,1.7658031318494263,5.2662627440846315,3.964133503633808
34,2.731937557563473,3.6456853216961913,0.05136148594466026,0.6486340701542133,1.445894074164428,-1.7003513983198282,-2.442786412867992,-0.7615705113610753,0.8898280971141223,4.900550744419211,2.8192514272717597,2.0989455565727577,7.421214240071283,4.941710816430385
35,1.0906527437256208,2.2453828288569455,-1.7262029591185895,-0.7241217080812549,1.908472609133739,-0.15317875281580956,-1.3748209929886654,1.915803615203538,5.856767475447591,6.9660073734364625,3.4890919938997356,1.7103565772483342,7.312349919350949,4.291057403524092
36,-1.1473611838359128,-0.09972090318019863,-3.353881796904294,-2.06406717250488,1.8366365566985452,1.515129140996838,0.10446227163689771,4.062237772104264,9.771727319260195,7.101613903291647,3.0068134455394744,0.6919375891021378,5.064270355962245,2.068509590029816
37,-3.4003276720181144,-2.738442384471544,-4.452241127195226,-3.007393319364451,1.1856212104950175,2.767656132005333,1.5216769980448468,5.092887339067063,11.698814903990188,5.4870261695709726,1.65577767315892,-0.6575601112487026,1.4417682356449797,-1.1325193126615096
38,-5.008475639124491,-4.859118849312225,-4.714800071208345,-3.2631185728009413,0.10159427895627458,3.1883734344392716,2.4319693757640577,4.732195330917296,11.064443797525906,2.72783609048486,-0.034588674148739416,-1.9262171406196535,-2.4093288337658274,-4.347679358510143
39,-5.436023778354814,-5.745307292320387,-3.9964809245334547,-2.7041939616962694,-1.1138033124205629,2.6116777563130245,2.552864116022206,3.078371440652176,7.822242194761874,-0.3631520207789553,-1.4805242652126849,-2.7167036523072885,-5.328295440037669,-6.537456229745693
40,-4.4493371443614445,-5.016020287867528,-2.368658763185617,-1.4179467151522225,-2.0948120891463176,1.1756107200391495,1.847177239517099,0.570081202353906,2.526353918659694,-3.007886333646901,-2.2381010658142726,-2.7678959211080962,-6.494264889075458,-6.920198486397943
41,-2.2109891363523735,-2.7695061269023658,-0.12194287142855538,0.30275453126606094,-2.5294804358991585,-0.7165812942892944,0.531698812373128,-2.132277057597717,-3.726719305311305,-4.656144794225748,-2.13628128388489,-2.0334621759285376,-5.659893225586727,-5.235589923953677
42,0.7452798479213809,0.42143659609473727,2.2879074823599366,2.029066612415152,-2.2643051251883284,-2.5142669430448885,-0.9897789101860371,-4.318646305093187,-9.502021071644219,-5.083898982981372,-1.3094101077789648,-0.6950236314763333,-3.197148574749271,-1.8518667325972475
43,3.6556364840338644,3.667003564313405,4.339430946572477,3.3092594918742124,-1.3590918006210466,-3.6810260835632866,-2.2485899996757848,-5.411398812710206,-13.349735369327583,-4.387176638253368,-0.12542348202733047,0.8919150889352546,0.04967163691954937,2.3214746792837917
44,5.742114186402139,6.0246754334398815,5.565888246962466,3.7939117923647783,-0.0720092229295564,-3.8521553761635863,-2.8521259364177567,-5.112888003716449,-14.178996680827298,-2.894324877495394,0.9591121748538769,2.3010396176993795,3.0483390238166153,6.092480132255239
45,6.437271725205012,6.7878227114194,5.6664124073281785,3.336774721308475,1.221212172773271,-2.9422832759809414,-2.6018979601466103,-3.482540484163781,-11.582216724989287,-1.038957159933686,1.5635791509044275,3.1556064541142197,4.905390070941831,8.339662811597062
46,5.547992069161384,5.706560969621623,4.580190126598987,2.04089142915093,2.1470042926271113,-1.1725956432129017,-1.5538404134459274,-0.9241842032590334,-6.007779037160256,0.7619471146043109,1.51062378453756,3.231069043433266,5.131988600069514,8.351459137494384
47,3.308324762298914,3.0694410047595855,2.5057260316543704,0.23503830135380271,2.4520302740186883,0.989242994814741,-0.0029659584310308485,1.9143443303348309,1.2893453149884366,2.1927348285369677,0.8750890532575506,2.5118707824973985,3.770232226650898,6.048010013673565
48,0.3068707197699753,-0.38110157651413235,-0.1389841694106591,-1.6141138952086105,2.0797430116741893,2.958598855127542,1.6031555801513386,4.3056132614201355,8.52932806412718,3.0743665340657844,-0.05794760973050186,1.1888620124316274,1.3486049862867169,2.0167293993245536
49,-2.686206227557398,-3.673168441750423,-2.805626111727926,-3.0296884699469535,1.1804114600435083,4.195904420065643,2.7964102339758528,5.630365421901,13.860330895333266,3.3569661330753418,-0.9071918713445236,-0.3988291830951783,-1.3102419861066088,-2.6502598780499946
50,-4.9371057041598725,-5.898445778694029,-4.933618932199053,-3.655734521438105,0.053078971288506756,4.355979206370325,3.226217222411558,5.540319532487949,15.861893599869365,3.087733011361969,-1.3387239431921225,-1.8585409477066763,-3.361874650965058,-6.668758549696538
51,-5.944364287312595,-6.481110231520308,-6.071038453441928,-3.354076890069351,-0.9585068909522986,3.3835641682712185,2.7622621066542274,4.052225128600489,13.952716890069135,2.3739478241739156,-1.1881684563470443,-2.8476947386671183,-4.204013534639508,-8.932082505366953
52,-5.556329444774378,-5.338617425898153,-5.972497152930927,-2.238917937357488,-1.5787330193759468,1.5291506945546542,1.531143900666793,1.5461297653420984,8.576520129723352,1.354489611254651,-0.5192367172165518,-3.1579435352143017,-3.6506912930534425,-8.827868419438419
53,-3.9812276221359246,-2.886359101714489,-4.653158812604231,-0.6392670691362693,-1.6828362886345398,-0.718944797440134,-0.12351401147957437,-1.3338448560936293,1.1014566456247392,0.18358833260772325,0.40094323923779385,-2.758645060924251,-1.9671690041714087,-6.408827809288614
54,-1.6959001032078174,0.11076908929786661,-2.3869930162223727,0.9995633363874696,-1.3227756507242208,-2.76756052452056,-1.7442822713685187,-3.8506695443599916,-6.545900903336044,-0.9776065096533328,1.2005666468330423,-1.7908606244797765,0.23837671004999533,-2.368514781909851
55,0.7101654758578244,2.7876539889832608,0.35126018930947395,2.246016458584368,-0.6907699596018371,-4.080356989035779,-2.893871600778568,-5.370873096505127,-12.409073775865279,-1.9694417876528882,1.5413926337508106,-0.5171223831524417,2.2257778168619273,2.1681786825893914
56,2.7023590001867586,4.4457768921292935,2.988879254309236,2.8049026966877912,-0.03741190227484914,-4.323870771348857,-3.2784681253810097,-5.53157658224633,-15.038500517159177,-2.6480799943775835,1.2479983134583286,0.755961561091791,3.3655693440987493,5.974881737602494
57,3.9288031628720814,4.751348006027306,4.9806540253086995,2.5956979359971752,0.4232949273431229,-3.4576251465454875,-2.8238450110941145,-4.3313929109011005,-13.879116086767354,-2.906379703590137,0.3817629121820144,1.7587355884702118,3.3354380798747485,8.07399672784053
58,4.275681015713204,3.804444906584696,5.9286667643000985,1.7633311025626752,0.5865836509373659,-1.7429634581792435,-1.683949240537287,-2.1206036970273128,-9.396996885584507,-2.696393704139028,-0.7687728082742867,2.3202188306386975,2.209740563967054,8.003109954521587
59,3.844532070368473,2.0641853512751083,5.667980358682184,0.6195163793739538,0.48196580670228945,0.3325096138777206,-0.1837003766095433,0.5044644115222444,-2.913516470528244,-2.045352619176444,-1.781314470425384,2.394927624340139,0.41727294859133823,5.920973074802165
60,2.8723074333143375,0.16385463461056352,4.297223725726431,-0.4651581287947108,0.2444783771936481,2.1943813459313213,1.2821304404083558,2.870225707626671,3.7961194000711376,-1.0576191847964538,-2.247656917888243,2.0509921401719753,-1.414633004400205,2.5272134240161037
61,1.6312057484841178,-1.3145934770404646,2.146603565732765,-1.1824176070533134,0.046607852924034236,3.34571487199789,2.3604442364645375,4.407818934688857,9.014433030832443,0.1008375956973366,-1.925840262946389,1.4282111580868675,-2.6753193877467925,-1.1723526226994798
62,0.34665069638089846,-2.0270709039754435,-0.3077777457396629,-1.3808395858751146,0.01971755162243162,3.508975551706261,2.828261028764333,4.796517326493565,11.549725680752713,1.2331512984072186,-0.8421103805970206,0.6837031928581089,-2.9728440822895665,-4.176572056723524
63,-0.8409468700704029,-1.9532565719382349,-2.5599785131572803,-1.1031699336560563,0.19660953537766437,2.703570945195486,2.6352496104637915,4.0305351300259025,11.026648890364195,2.150028627937655,0.6971495513674899,-0.05463483578534226,-2.2562804800052128,-5.777310176867481
64,-1.8658769278861556,-1.3589961928679433,-4.189367662677474,-0.5554675337833759,0.4974526204586901,1.234703969510352,1.8941249973290202,2.3955680619631803,7.924573653751052,2.7059776555817883,2.1935059676045414,-0.7113899398191272,-0.8195631295075121,-5.738133428975858
65,-2.6939950946184594,-0.6575648086677648,-4.944854439737083,-0.020436489168136323,0.7637249237338315,-0.40488377697497646,0.8291547464031026,0.36837143388378846,3.367954064471987,2.8241273633103443,3.119284368460905,-1.258409634773791,0.8113769192084211,-4.315013320528404
66,-3.2747174600486386,-0.22747333951585727,-4.778484712231273,0.2536352314196696,0.8260157201363425,-1.6919067302610817,-0.2960431651307081,-1.5261223020383041,-1.253471796244713,2.5043335968641394,3.10153695301618,-1.6878334180065397,2.0670374296007847,-2.123541939361108
67,-3.515828411914326,-0.2575757617304825,-3.82479522023296,0.1486191536056122,0.5786399132035444,-2.240366519046122,-1.247586426576347,-2.8562586595224255,-4.710482871362629,1.8146495802806248,2.0630395351491173,-1.9791785405025208,2.532155573733014,0.09380938545474421
68,-3.2968843017838005,-0.677124072297702,-2.338938462270675,-0.2773954945779722,0.03166354952001539,-1.9267491380529371,-1.868744724293541,-3.3842198289087606,-6.275668257125734,0.8710953496843399,0.26810639015603227,-2.0788513465422342,2.0845596312857166,1.7174893800870108
69,-2.518777266121457,-1.1947251259943414,-0.6181039991657561,-0.8108453922453789,-0.6803459587141277,-0.9303823797234526,-2.0973191114579293,-3.1020127719295116,-5.883217365068138,-0.18677293020009955,-1.7477973076872346,-1.9053153513163823,0.9280963161147835,2.4340874191832698
70,-1.1699099088546971,-1.4286706044497668,1.0668307620537096,-1.1639361761704987,-1.3372907809534516,0.3275065283510488,-1.9554966191621754,-2.2005618964328577,-4.071415326704272,-1.2174525426607916,-3.3455593599317512,-1.381993814710616,-0.4898081412738642,2.2965060571330875
71,0.6199403843980019,-1.0770189868319304,2.5099581566230387,-1.0883771628145402,-1.7070535155498583,1.3296397762756114,-1.5224736961511878,-0.9893695513307476,-1.7409877878487465,-2.092167827272584,-3.992950171664248,-0.4869440414541442,-1.6447904144652294,1.6497277992649935
72,2.565110556859368,-0.0612400649633557,3.5741953975190244,-0.4810830175330913,-1.627742927899173,1.6475156145380434,-0.9027756437597334,0.20354677235957425,0.18223280594076113,-2.7025868678477143,-3.446917841367257,0.7014311933183937,-2.125840552813567,0.9580713593900271
73,4.263487549223887,1.4129185589230695,4.170628750791444,0.5574331473981975,-1.069592016972705,1.103287605655839,-0.2008565568237087,1.119999419938895,1.0664042174276553,-2.9648808837016816,-1.8438287352265772,1.9855778224121063,-1.780970435733245,0.6029349670218557
74,5.285869601695875,2.903327743137992,4.233660741530874,1.736190842696477,-0.1543786479427631,-0.14920825639591725,0.4928093390939118,1.6248655480364615,0.7716586246410918,-2.8246124563345236,0.33597966234601334,3.0727808458550916,-0.76670415963189,0.7277905679668202
75,5.292902681447686,3.874386156578848,3.712553796013096,2.6584285482292254,0.8752616329105394,-1.6579918165096381,1.1046899457240558,1.7148504848207757,-0.3330414994132862,-2.2654006528068256,2.4201422365577367,3.643295980180361,0.5151038083609292,1.1873945251779308
76,4.14544746240892,3.886311601852295,2.5901634692016438,2.9525857660301282,1.7273590030233206,-2.817175392893577,1.5747049936311084,1.4881984721693327,-1.533669122206694,-1.3207276859932946,3.7629687681314836,3.446737701408144,1.5689195982184065,1.6182632005927475
77,1.9730101505756745,2.764421989519118,0.9238124360532688,2.406654851148951,2.1501201556942786,-3.0790338864498166,1.8519427615611685,1.0915829542667064,-2.056008931461313,-0.08435153801653925,3.957326376237048,2.3971987973311744,1.9898061446597461,1.6018985851790826
78,-0.8251568256206595,0.6874886289700665,-1.1117128388925648,1.059378100300857,2.0106924411576235,-2.1640587332652914,1.8939597086116624,0.6645368121659732,-1.3730002183744392,1.2874321190638307,2.9676736699650164,0.6330774983661228,1.6132279242570955,0.8574331169432465
79,-3.653387296975779,-1.8390426606748045,-3.2061671312632662,-0.7859540635692279,1.3379439628184109,-0.19446672415895339,1.671470201425567,0.299045049104588,0.5713241353528453,2.5876593719937,1.1388729934502173,-1.4850491266166976,0.576285940019372,-0.6112254290763737
80,-5.853256328713571,-4.120523390678172,-4.943136198417476,-2.6348324494434485,0.31555473362607384,2.302462937987667,1.177640510222785,0.024258377550221182,3.3003198222637664,3.5868782710069738,-0.9220930245769916,-3.4473410870750714,-0.7314409104163849,-2.4729291298887417
81,-6.865516939323179,-5.479551090679593,-5.882821157462327,-3.9429535362390493,-0.7725343460512318,4.533775982978272,0.4393519968285789,-0.18322916247409526,5.932006414513867,4.074287082681229,-2.550942244337915,-4.724315335110313,-1.8095852710527875,-4.153302267089147
82,-6.378756472199688,-5.466341779543598,-5.6826977410138735,-4.283300785908459,-1.6273099975391023,5.687064159850827,-0.4731865211328446,-0.37134792906373615,7.459368627273876,3.9033178908960884,-3.247668763332986,-4.918672334755383,-2.2304747341112647,-5.021269615005205
83,-4.424697224342093,-4.006085265727112,-4.221103620970413,-3.4862864666883757,-2.023962057702718,5.2080300848412495,-1.4424569367436677,-0.5792928041805289,7.0958118287756875,3.030425604711155,-2.839989889825836,-3.8940737635966856,-1.7989872539502065,-4.616023946329981
84,-1.3921147969590517,-1.4360225954638095,-1.6799548995497613,-1.7069996529330886,-1.8774205289301449,3.017341638089717,-2.3091380622211655,-0.8118101590002407,4.572759210100546,1.5366961568697741,-1.534130274685602,-1.8386766278380497,-0.6315662407404004,-2.8351167508469803
85,2.049091477939247,1.5806628603732191,1.4508688207481866,0.6048227219392637,-1.2636926307996659,-0.4116871358137063,-2.8901310008678185,-1.0300382775463155,0.2872067815123604,-0.37397512979213754,0.16316982840071248,0.7620694143710782,0.8749141678147,-0.01413943087559849
86,5.099713700958599,4.2392535517270495,4.463808477979263,2.8265996307196706,-0.39040254767907473,-4.152084148101558,-3.010117131603494,-1.1616571747989015,-4.758299151355739,-2.400614127876474,1.624245960329633,3.242928446835994,2.175828378409327,3.137524013305067
87,7.024827706607476,5.8217733866851225,6.604757045372528,4.342018353268571,0.4737792999461332,-7.08020031312743,-2.5441085270216552,-1.1264474085029743,-9.215547978732367,-4.190111532632768,2.320738098474183,4.938454886615623,2.769242052083983,5.73290891148582
88,7.341957832365487,5.901943806761961,7.2816104415328144,4.723965538827079,1.087454587416605,-8.218461647121241,-1.4636465167180361,-0.8683097888324148,-11.77740312307417,-5.393770518708241,2.0100161660764777,5.37502559559439,2.379511203456069,6.978088959238773
89,5.954257574804028,4.4668378834135005,6.248288935513769,3.8648458519185844,1.3127683074996712,-7.058545646200269,0.12553309191946777,-0.3827629273227144,-11.57447844454024,-5.727437616738918,0.8242089087479247,4.417777379848141,1.069821640458572,6.431168062789827
90,3.1894334364164947,1.919815634142108,3.702764071554885,2.0124566829213357,1.1533724902903317,-3.75891240961243,1.9693785056699766,0.2696434616133545,-8.45751411933635,-5.028059346485899,-0.7702044378158249,2.324129866656544,-0.7587527703336305,4.162587415267649
91,-0.27274279709028765,-1.0360293961831146,0.2592916369162124,-0.3020892198192512,0.7408663145940255,0.8556067537716223,3.6885220898911664,0.9692648460956292,-3.0739828823702533,-3.299839572020679,-2.1318621337145,-0.31909087052789176,-2.4873419483151054,0.7580320082014312
92,-3.5717669599325883,-3.599860073733733,-3.207211610339263,-2.424134911518303,0.2750511803701347,5.5051165240270805,4.8448205434759055,1.5621129113198058,3.2894955107089414,-0.7419398757357305,-2.6724994184975412,-2.762740073018526,-3.4837736918081474,-2.8448428283147926
93,-5.894242606789846,-5.101424178679827,-5.804428426716302,-3.7740311889300853,-0.05915272124547039,8.822592606994553,5.045333855736921,1.8973073482489398,9.05425991563434,2.252367803087712,-2.0776987808948073,-4.3198381713267135,-3.3256938776400693,-5.638846379639545
94,-6.695401885968589,-5.188708941844751,-6.881045287955629,-4.021673238007402,-0.1656861674835105,9.770429943767788,4.062585568405834,1.8673259703286136,12.782384224256473,5.135479111377754,-0.44320074860830283,-4.578268156246136,-1.9658502217139608,-6.859196175362298
95,-5.8484347155423535,-3.919762292692768,-6.218036216966148,-3.1805688197124584,-0.07249217808191977,7.9756902997365815,1.9373798949374577,1.440140042802706,13.565521979867288,7.2900652910531285,1.72624672323389,-3.531491593701038,0.22216282172506827,-6.221679515010064
96,-3.6736723787017693,-1.732068012198387,-4.088727350155273,-1.5904933979882936,0.08713260284767782,3.8732461036154597,-0.9737810479730291,0.6742603511567711,11.256151195754692,8.153639738644655,3.664806418025785,-1.5800992930958184,2.5422930095919463,-4.00563829833708
97,-0.8350454739739432,0.7001062528630554,-1.1651794264337827,0.2053457546312466,0.14030503883048545,-1.397654370884322,-4.0361771236588,-0.2880132038832516,6.479275580240807,7.362832111153576,4.599432818299534,0.6016869597470316,4.194761086435356,-0.9518390025171704
98,1.8663645548770167,2.6756012006181327,1.700006724345671,1.6467897699240082,-0.03921690655284561,-6.320771664974495,-6.467146824895554,-1.2484195017529178,0.4321646485995428,4.882251283532478,4.028927143916707,2.2939366733019746,4.547575613083435,1.9908620867106703
99,3.7367579927822043,3.677807523919134,3.744005843730915,2.34269003238473,-0.46097546182271076,-9.458136616584254,-7.537137402161716,-1.9957072393771493,-5.456621505629566,1.0754366620491203,1.9321036712546176,2.9773703317328244,3.3697382513670857,3.9825544086796403
100,4.392472570281733,3.521552795399558,4.524805839891418,2.1919466293719085,-0.9957629502961227,-9.891989982543173,-6.790642865281368,-2.3540368793929916,-9.900712200016276,-3.318562496254927,-1.1741697983985366,2.511775275400849,0.9416267260620673,4.56213383772806
101,3.8543119390246288,2.390164794891559,4.0349814550835,1.3979569050446106,-1.4149905029099306,-7.511850761307724,-4.219445556828237,-2.225580682462759,-12.054006840080467,-7.318106010992588,-4.360427802054664,1.180475054290439,-2.0050620680945186,3.7756110649240506
102,2.5033430964604215,0.7533263601819261,2.662126323736878,0.37305715241008863,-1.4797054473319327,-3.0516713575625882,-0.3246910472848014,-1.6171064236840136,-11.659923035718041,-9.923957838989496,-6.565507483863171,-0.4192360708285573,-4.508775350734706,2.119942931266711
103,0.9170428706636214,-0.804310629463577,1.015392923720012,-0.4302830153378859,-1.0456680756078367,2.138426020734198,3.9684872387186134,-0.6436434426271883,-9.032165383827211,-10.384920129790213,-6.948117157509405,-1.6037215758292327,-5.694213023815994,0.32746201521867796
104,-0.3522922455444001,-1.784270026699103,-0.31389801833816966,-0.6975616990184853,-0.14170083448419846,6.514553020211712,7.535974912608701,0.4927317498242775,-4.900182572927951,-8.429741254148373,-5.192750775310609,-1.8670693499069722,-5.078298712706219,-0.924906531522259
105,-0.9742694716459229,-1.9363775426313208,-0.9666224668704709,-0.3720631172914577,1.0135901128169207,8.819614730029395,9.364016780388084,1.5453582079931036,-0.18649371261004863,-4.389742301078317,-1.6605477430106967,-1.082830777315381,-2.7582083417434897,-1.270001375486661
106,-0.9398439305098227,-1.3275517735336226,-0.9257488499064093,0.329303073428807,2.069070105406605,8.466131115547118,8.853460750526223,2.2779569279523315,4.210762857579464,0.8388102613899944,2.6783332658735954,0.4356925076854881,0.5908612767711601,-0.7719342603682033
107,-0.5288948400580106,-0.29630051369471855,-0.4840426973012793,1.0102577543960918,2.655969077773105,5.698036924656047,6.0224843363101925,2.5198742199707342,7.576128581875986,5.998369932315421,6.522678344524569,2.0448992391013725,3.917044603945463,0.12927899741799787
108,-0.16260559189528143,0.6875046775878134,-0.08768744779409955,1.2631727469073466,2.520505691134918,1.4826893400184384,1.5366717435780204,2.208475312118527,9.455527289126033,9.79329861181881,8.646871099307981,3.0144295349106267,6.131264863701833,0.8246270534580735
109,-0.2022376676313016,1.204738210601757,-0.12219673267367905,0.8454615850832377,1.625347160902641,-2.8249224511386433,-3.4534308322009397,1.4077434073320538,9.66706576942564,11.24416202033641,8.305226291898549,2.8162480387617213,6.472545142603636,0.8098936811539447
110,-0.7768614292089246,1.0441110672079748,-0.728957239552879,-0.20535047450021865,0.18048059712234654,-5.928396651156223,-7.626135196527515,0.29720473263071023,8.273672247192248,9.96849709596339,5.496813336796793,1.3497149317896489,4.773656901136643,-0.08443105603684853
111,-1.7112028511794943,0.2774959492259598,-1.7279185854012349,-1.5650738620380733,-1.4112412225646949,-6.995400611992312,-9.862489205943232,-0.8677467780493135,5.546246989001108,6.300187837950855,0.9951148966398377,-0.9867586360938048,1.5324695180701673,-1.6006139969636928
112,-2.585149144358686,-0.7726527614193981,-2.6793993808374865,-2.73098339905379,-2.6778411614196305,-5.890231195377436,-9.567162953054286,-1.815815970869272,1.9301359969230454,1.2056737794037269,-3.876315778690867,-3.4118939741257086,-2.2403110822662353,-3.1381227192541394
113,-2.9038928831687194,-1.66010433358336,-3.0623203230004523,-3.20670595300236,-3.229842437782066,-3.1652348386035416,-6.838078662062747,-2.3260448684336534,-1.991840758740783,-3.98319869066043,-7.6546694110850355,-5.0300602014788005,-5.349019380060372,-3.9850603355599903
114,-2.312672523120372,-1.9877643061799755,-2.4991157443818595,-2.6956249520849385,-2.8878726734264673,0.1719651751313201,-2.433325075150084,-2.283703911888616,-5.557716077850945,-7.942413766675555,-9.201995093085385,-5.157856852116187,-6.806606825967232,-3.608224584201263
115,-0.770321941672512,-1.5620913503142666,-0.9374949977151418,-1.2296874828731228,-1.7425221435890683,3.0229474910540217,2.4528228588192746,-1.7107317566715534,-8.119622434586176,-9.723547458438704,-8.068468537189748,-3.5894509337651006,-6.159911446762481,-1.8888283196080118
116,1.3905827492852658,-0.47178625555247616,1.2859523522729623,0.8168839827677211,-0.12639649323274307,4.56269020950321,6.534257446111335,-0.761349173077484,-9.167333387909396,-9.005341516374981,-4.6329412203488,-0.7003031805321124,-3.6355456350130946,0.7903364021633755
117,3.5471166945968235,0.9381703078022504,3.5311489235231304,2.837736463735463,1.491376807512045,4.480420749675986,8.792240549687186,0.31762081259999725,-8.454898573625943,-6.1549396704521415,0.026059868333093535,2.654278265353256,-0.05753021929005283,3.645457308335026
118,4.98838860472029,2.187407606619822,5.063068503613752,4.191844303333491,2.651941208645001,3.025650853416398,8.743240748568482,1.25226310720932,-6.088662227778101,-2.0853383459240615,4.484060608190366,5.415185364785243,3.432860868311697,5.748631665225693
119,5.165917319669551,2.831569348519264,5.309904908805689,4.419660510403314,3.0458844851627753,0.8612081317468967,6.541620341506046,1.815344569764387,-2.537627369276267,2.03969477559171,7.428454633344991,6.675452545664542,5.7565800667375235,6.3504549540417745
120,3.9006402161750096,2.6217594967460744,4.076807080198089,3.4021982087290557,2.600334851565742,-1.2077122964750382,2.896921506115567,1.887279553918585,1.4518835307718203,5.155168118860153,8.06655217554669,5.991124447589171,6.244735098185992,5.1516772498987455
121,1.4688726980350872,1.594523255623411,1.6355300055628277,1.4073975622595805,1.4887034410152908,-2.522141813148959,-1.1580394354865533,1.4860111635936748,5.023583719486164,6.587696644119965,6.35063278376177,3.537101556097494,4.838339876360872,2.424594586959173
122,-1.4676312215913698,0.06071559865723839,-1.3455702788242407,-0.9921579834998131,0.06432191556583233,-2.7731281924369715,-4.570597645742123,0.756428722141532,7.41724022193201,6.204870289998841,2.9528795826379306,0.05293736151813463,2.078062433150578,-1.0612971038308767
123,-4.066271914127337,-1.5014281068317348,-4.009394369669926,-3.1014002868360295,-1.2563315902329575,-2.058687747935322,-6.550841428189011,-0.07747907669242521,8.154608654718848,4.386804665086174,-0.9898710304547996,-3.401816249317976,-1.1032241582842797,-4.284546158262876
124,-5.573065677344897,-2.60939693430507,-5.584561083225116,-4.322312192385256,-2.1208099019049085,-0.7910074232993771,-6.7554513978926325,-0.7823802629201175,7.151574837063203,1.8464030532817246,-4.2649609413613625,-5.796198937885969,-3.705141047469978,-6.302336919790623
125,-5.564065544613992,-2.9369665706216583,-5.631791330353994,-4.3371832976077345,-2.338072072654655,0.4946085435857273,-5.3311509387401435,-1.1846035730936944,4.725960289521626,-0.6276672754914912,-5.969917023076041,-6.458918732626914,-4.985754674357016,-6.551831817791481
126,-4.076331798428181,-2.4162478956833375,-4.178337920004963,-3.196475587416943,-1.9186626568572012,1.347662858052477,-2.8209559861483076,-1.2162266284504817,1.502548089530917,-2.413278271347018,-5.768494643090962,-5.279623319003896,-4.67915892302091,-5.020162046535903
127,-1.5858190910294967,-1.248145020897129,-1.697106002579343,-1.2863876031022934,-1.0507603275312518,1.5494122739353926,0.02487290391324558,-0.924459976789998,-1.753755467604507,-3.206190263547341,-3.9421065022318738,-2.716919907793413,-3.03935661752314,-2.2293559816015334
