,AF3,F7,F3,FC5,T7,P7,O1,O2,P8,T8,FC6,F4,F8,AF4
0,0.657992422309606,0.13179693333016407,0.12617152834166676,0.36249385617901286,0.13712123717660954,0.2244232226005786,0.9322995328471115,0.6850174430582299,0.4308230097083194,0.35347684960207953,0.96232764362855,1.4364292682339783,0.8709644853489215,1.1205682911346129
1,6.51867419704712,3.6388122298567174,-0.2229404285831385,3.868824718110193,-0.5912243418619155,-0.5597464925403304,0.48580021296428294,3.4758043425585092,4.891802564402942,5.508316449776557,6.108354336827088,7.7989777435199565,6.267957822660054,7.150412459397896
2,10.96939836733793,6.271452438513774,-0.5244594190924241,6.504146836659629,-1.1131377194737195,-1.1970436566875864,-0.058194428907037736,5.0665158406352315,7.89959848803207,9.276120389937757,9.871446243922646,12.439309668335836,10.323315537439683,11.68470505522007
3,13.031990083600059,7.389266014982873,-0.7080072650647874,7.681793545866977,-1.263472646593901,-1.5121724127913416,-0.5255863735396941,4.885347097820257,8.590238414046924,10.718837477116217,11.360344509396558,14.284412164792464,12.131131194643102,13.71501224182759
4,12.185990426876502,6.6715527837505375,-0.731692389561888,7.095492681902645,-1.030853489975191,-1.4039116109036913,-0.7478326974791495,2.960896623844281,6.783397225934176,9.45829833736513,10.156578667303286,12.833715888471202,11.212377662673484,12.699970333573429
5,8.493268795656599,4.202507995752431,-0.5931944599903681,4.791573888386254,-0.5586695737995891,-0.8769177936627446,-0.6243391473105452,-0.08767616425106461,3.025653224152451,5.771929359109207,6.418917320472216,8.27884098108315,7.632269665012696,8.697407331223541
6,2.634289854786432,0.4848757671422291,-0.3302854966250698,1.1915045992705626,-0.07866813687043425,-0.04982967725256734,-0.1733048742115578,-3.258734201465897,-1.5797708299150748,0.5392208069714661,0.8864621711330117,1.503139965963732,2.036936386688415,2.409978235062325
7,-4.172344282373157,-3.6345319955973237,-0.010602711654961211,-2.9534871314057503,0.19443923083292552,0.8650506875120713,0.4521012158881337,-5.503257956278508,-5.70279584529982,-4.954924129796377,-5.235000278367571,-6.053946042068313,-4.418099450192919,-4.887245069132349
8,-10.381286180644796,-7.13025112763122,0.2865189293074707,-6.687777361140097,0.16163672029019327,1.6090132540910858,0.9968306082640388,-6.073110804976244,-8.17551102905316,-9.322277193246787,-10.501844178031268,-12.663996837390242,-10.263197603959313,-11.55645804656044
9,-14.44568756745756,-9.033920289387723,0.4911575511279919,-9.050261657938503,-0.11212781947214145,1.9426980942539271,1.1843916070764047,-4.76505665579504,-8.324672754580753,-11.41346071562683,-13.54803446488158,-16.675383059055708,-14.020594127717029,-15.93217018460984
10,-15.198226835847926,-8.692758359332542,0.5610399832496852,-9.313616762372698,-0.4230002979584239,1.7156457084056307,0.8232656531329128,-1.9798595718432868,-6.15150819254462,-10.6186505143,-13.42736866903462,-16.911308086817748,-14.568920131180462,-16.726231849517536
11,-12.194536130491123,-5.982965481022355,0.49185041415459047,-7.205766158199434,-0.5186520906981971,0.92113135016797,-0.09710714273364686,1.419969365888852,-2.3107253202449467,-7.047423876286627,-9.898989734059834,-13.007477591121939,-11.478457927601081,-13.407054457024847
12,-5.913312533872804,-1.4078004255105139,0.3167457134147419,-3.0444159175419068,-0.21784580282607294,-0.28171821453320495,-1.3607822473209734,4.401060260852377,2.0980878669202854,-1.5321389275059865,-3.5688071965470094,-5.591197198175019,-5.214241843566051,-6.438628019975269
13,2.2704409979903892,3.9684393721378752,0.09525756187939444,2.2728096160618496,0.491053011893945,-1.5905876377372328,-2.558557757935681,6.09623769491871,5.858099905239432,4.5584573426202155,4.176542567455133,3.772197882064146,2.878119390870517,2.7177844920462784
14,10.366406455233385,8.756265518860001,-0.10516701936569417,7.44500482681481,1.4164482880754,-2.6284430787633837,-3.2030996198847714,6.072272509604412,7.9807349985073355,9.657652831817941,11.456234165523108,12.886415511800498,10.83698748000263,11.880931548911326
15,16.255536680927115,11.599311772297867,-0.2295344697484033,11.083890391582408,2.214129114016044,-3.0449629662515445,-2.897654861764512,4.44074450716601,7.967443038219509,12.40810913883927,16.35082543178921,19.435009973864545,16.55860955288582,18.66641869491637
16,18.262023534776564,11.562065536323459,-0.2514880558213009,12.092630926070076,2.5083323822142214,-2.625338515057226,-1.5039955241747733,1.7825275135759893,5.9168390189565025,12.029868192116489,17.416628422498803,21.57881534127484,18.366321759465258,21.121775814963268
17,15.649237065488583,8.432981334554992,-0.1803794232497165,10.00092200024744,2.040516902322928,-1.373901042381385,0.7541756735573157,-1.0768636327192136,2.4570648257903014,8.545548512908544,14.116675484904944,18.481874105701216,15.515218654352491,18.30457326981613
18,8.885304506886964,2.843044722613541,-0.05699150654943916,5.150856818373011,0.7897205450108695,0.4574248978641097,3.302318768063574,-3.353035012663993,-1.4631205499749536,2.794771611217275,7.035318990654715,10.610209715114506,8.473902933410635,10.625216506751576
19,-0.41825117318001714,-3.8520433085054853,0.06088264394477393,-1.3363329230592724,-0.9840371804579011,2.412789609920493,5.355329430297544,-4.545020077778217,-4.851799111288528,-3.772851642715743,-2.2044008303545017,-0.3016790636827471,-1.1214410202081706,-0.1695141686018891
20,-9.898113144514321,-9.908891129121702,0.11862918096063668,-7.821194835405827,-2.7957161784810527,3.944263860382494,6.155555988230504,-4.552376710419024,-6.933966756728148,-9.474197903008301,-11.31941428149491,-11.634140872593312,-10.852699522914007,-11.396584285731887
21,-17.063798492219554,-13.666760541833556,0.08445845082013691,-12.574016489353447,-4.077658528127008,4.565240839623852,5.236597498311874,-3.6374674691083153,-7.323153059194045,-12.837353400516632,-17.951969584238984,-20.532454805151232,-18.153310794482355,-20.12934021153116
22,-19.982562274349604,-14.019254309270925,-0.03788571785155071,-14.254090841569054,-4.36369975755683,4.001977171207854,2.6222383215322553,-2.263761273183283,-6.068848462607727,-12.992613187535772,-20.305577154095882,-24.657108677296463,-21.01601144966717,-23.9964132365237
23,-17.8266156898957,-10.747972324193698,-0.2078704210910509,-12.30199210732026,-3.4534304849270216,2.295546482269726,-1.1174165980199726,-0.8860814483607219,-3.5858619986902602,-9.90205992365493,-17.652162663429138,-22.828187010088175,-18.56972176401427,-21.85788850089535
24,-11.119636892373714,-4.614237575819246,-0.3595370637371703,-7.125571561445672,-1.4993557911848259,-0.18240819160918123,-4.988021320121657,0.21851027423184732,-0.505381874695248,-4.3652158934293706,-10.560619208127756,-15.377253031356158,-11.3514474611198,-14.155792780202635
25,-1.6053593700978606,2.826138637520875,-0.42272925526748123,-0.016979785203301692,1.0161248608989142,-2.8124155507029713,-7.8473590430474855,1.0138296737136319,2.497205404352862,2.198984430183143,-0.7726709549275668,-4.096184936886977,-1.1851210381543373,-2.825813775392766
26,8.228044312285165,9.63831259881501,-0.34805038181561637,7.1839663544322665,3.4110760434315237,-4.890226243746844,-8.756186016932697,1.6451230710479328,4.848058391103096,8.131720762031186,9.24756163005088,8.21505120532303,9.305171725581072,9.214950296149956
27,15.83208639181864,14.037807229196732,-0.12761105828131122,12.588884054303973,5.003323223900522,-5.825153875501019,-7.291703376916692,2.294244292680123,6.164966625468348,11.969785588767802,16.96851652463123,18.483402865757284,17.410776616610384,18.862440633098323
28,19.293396834049354,14.882044857847,0.19587994427546368,14.781013990502688,5.316975711583785,-5.314796008677176,-3.7166795852134538,3.023183454674905,6.287672782466254,12.818659894323272,20.467720917232448,24.17755224210463,21.077134585686693,23.674318309366523
29,17.8411268715233,11.98208271131692,0.5361673547176214,13.206589483918547,4.231078017386342,-3.4417490450361896,1.060496645678652,3.6840646955858065,5.26350658301969,10.56509718075282,18.939184878490188,23.97348952565424,19.45299588591448,22.52724328735365
30,12.024509024996066,6.145217421026244,0.7862856153235618,8.32384666650229,2.022886577245927,-0.6603276598497092,5.732774443126992,3.944214981804024,3.31030608116704,5.877816589001408,12.889552054010018,18.083583658640226,13.095068133894545,15.894317668229013
31,3.5177763621082705,-1.0615431412927263,0.8514336633962248,1.4667957248738286,-0.7088867693906823,2.3251695178704503,8.977256773472357,3.4236864578541155,0.7733573757119183,0.0039717093015593985,3.971550759582271,8.159919447239542,3.7764756520237044,5.66881058607594
32,-5.380527812590457,-7.75530433212687,0.6819960584307363,-5.5353979833787275,-3.2179548056555887,4.755286289460893,9.855223800115937,1.8909841085882158,-1.918505065019531,-5.576197240188573,-5.491333402709968,-3.1926328795792864,-6.035358809913961,-5.403688741712702
33,-12.399645240542679,-12.257097007112472,0.2955612478722405,-10.871091853367664,-4.828198446837225,6.02509470021363,8.1018475422927,-0.5675511778832993,-4.302368395354374,-9.538479717165032,-13.146820201187351,-13.145010955828809,-13.870976558658558,-14.507716527463778
34,-15.90725571818038,-13.53706078023829,-0.22072772570949056,-13.241008833907557,-5.128511429786785,5.84622549702264,4.211691799477047,-3.4849773428770714,-5.943090128375736,-11.041978335251136,-17.23577677767132,-19.39886164360892,-17.916953758130404,-19.519985014460993
35,-15.306140039712858,-11.460488910502526,-0.7303410738414571,-12.193059502230058,-4.085624611225258,4.314362952278692,-0.7087267706596548,-6.099748844742789,-6.507478736751694,-9.910549499164949,-17.01957562180903,-20.752246555206423,-17.454453789113217,-19.531798727019986
36,-11.11553448415509,-6.772902337540478,-1.0854748448045068,-8.205367172471224,-2.042094987514539,1.865490887839117,-5.275120803314241,-7.575095776327846,-5.839058558130114,-6.628210813483986,-12.90217548510489,-17.326029284265502,-12.966847185923182,-14.99510469962318
37,-4.73444912858214,-0.8415140887595371,-1.1720230871370416,-2.5029902178677834,0.3969501686180404,-0.8612362844226297,-8.240565602900945,-7.2818664305770975,-4.012067488770057,-2.1614933407056727,-6.2309353000321055,-10.409615322516588,-5.908800837543323,-7.476340667901767
38,2.0212287023777797,4.7586465411571375,-0.9471522555627984,3.3262791973249755,2.5501369385191572,-3.2084164214939084,-8.861108902158644,-5.044843167610169,-1.3419771467618145,2.331024687933325,1.1445184140726066,-2.001055304554632,1.7705696669801783,0.8784540123049954
39,7.454669168386061,8.684660225213158,-0.4567640127798046,7.794132053002452,3.859562611001531,-4.67539712411574,-7.099174185146937,-1.2591470464159775,1.661009239901242,5.813767809108993,7.409788231063269,5.797138345913344,8.192303175743387,7.984177962335051
40,10.433388509463663,10.16282232457486,0.17387291664961632,9.911505572163612,4.0425742173034065,-5.032368648015553,-3.6056773317433346,3.17504502448796,4.392057799890485,7.62441134316366,11.256260101332026,11.335301929179922,12.029277557419704,12.36334201175486
41,10.621284070468919,9.133913148362518,0.7744835895535109,9.412298587320723,3.1523512320630753,-4.3452178828954695,0.5069983182829447,7.089417942548415,6.283715505803977,7.595162125294931,12.155395294499378,13.769274615139523,12.775382624271947,13.447612585506045
42,8.451500472023405,6.18238048341774,1.1790558042847206,6.748652678913898,1.5350643126104067,-2.9132495473398707,4.023510743252437,9.38612453824216,6.935939616208075,6.023973986671545,10.379336181538694,13.132095948694925,10.75035356087051,11.57563554432392
43,4.879594151050693,2.2928767020020127,1.274838378146427,2.8797812324101604,-0.2955275459062377,-1.1496349915289328,5.998878744432719,9.37141764695588,6.2090708676631605,3.521456737296288,6.7944951072785145,10.147088083983009,6.875052937870155,7.731490142481951
44,1.0219629129906973,-1.4736973245701028,1.035738775793359,-1.0610722355854152,-1.8210524730583166,0.5498107022681805,6.029143356626212,6.976836512836326,4.255020348529704,0.7947457330288572,2.5225293226657235,5.885160657194032,2.3185331083412217,3.145726275175228
45,-2.190405518117072,-4.277348837847443,0.5296840531846836,-4.106260262407033,-2.666264282641172,1.9051391280028587,4.338553535012783,2.7955968632962245,1.4798403648179006,-1.5573695235292235,-1.406985642974071,1.4048063968477362,-1.855510957353315,-1.0912467351626134
46,-4.233838180631586,-5.683066729636545,-0.1021781099157701,-5.694320635408258,-2.6885613904421994,2.7905937702572996,1.6638287530599412,-2.079333982980446,-1.5502188025015637,-3.1763813256810938,-4.302876008115167,-2.5046117083914416,-4.934307813672443,-4.280795660125158
47,-5.036986852411757,-5.692817980446851,-0.6876174083160085,-5.750048816469177,-1.9890299678217356,3.210843910179162,-1.0182482338688703,-6.366267644213393,-4.2333392186378065,-3.9737125596876592,-5.8990306990620125,-5.415117909684252,-6.638280588471187,-6.177227141073545
48,-4.86560154358215,-4.6416622787549295,-1.0733833153777788,-4.603386862435107,-0.851606807300472,3.237312542684265,-2.8249573702266773,-8.959570799063192,-6.056679684522081,-4.067948464078632,-6.287543076113056,-7.200810174344324,-7.049968206954291,-6.881549811938285
49,-4.119501328863998,-3.017286737950237,-1.1676836216615218,-2.801070809845281,0.36148702677205274,2.940108053963789,-3.252157680913452,-9.237653791719742,-6.69390184073222,-3.6709251497112225,-5.758246457519425,-7.897838402887969,-6.452015251816657,-6.650200690989864
50,-3.136761215159552,-1.2790380627708782,-0.9625628465971893,-0.8941286168255725,1.3202946647976397,2.3487808220741306,-2.318232008128827,-7.223404192677623,-6.058520078846988,-2.976538832358133,-4.6282477696834885,-7.574498264910223,-5.15835563701186,-5.720066608870147
51,-2.0834577794973868,0.2605328580223164,-0.5305790556915734,0.7204636062727188,1.8100259030599466,1.4587272960774698,-0.5259272354760172,-3.553701743893501,-4.30759532254716,-2.096688441325026,-3.1327082185306447,-6.27948762360386,-3.4087706018394277,-4.226032292121238
52,-0.9609049110921766,1.4634882476200155,0.0014560284621344707,1.8592841122864958,1.7672082127428088,0.2768356356747187,1.337956362888117,0.7261038878652448,-1.8004312485299414,-1.0627273571220346,-1.4084264621434108,-4.0845047453440735,-1.3566563017447657,-2.232369617904336
53,0.2929975630456569,2.3164825656245784,0.4919594391517663,2.514918238264687,1.2682844434753713,-1.119975114265835,2.49207505263393,4.474731183890988,0.9762365013064387,0.12018533409623275,0.44619525043027153,-1.1818872412953807,0.8679840431192263,0.1597874448174332
54,1.6724800858542315,2.845777895544788,0.8242694457970643,2.7625701039022372,0.4848523011368059,-2.5475784817332765,2.439019742106651,6.777406867713461,3.501572662937333,1.4014246393365153,2.2863868927374607,2.03514297397699,3.0730519066163873,2.7038262032648763
55,3.016758667248459,3.048213095736071,0.9347314420305821,2.6688631968730774,-0.3733818619713685,-3.725298230600763,1.1392371095231921,7.183044004915798,5.316419381685262,2.63745255671522,3.8710520384859692,4.97768151974338,4.95689712076325,4.972622800441266
56,4.01717681326937,2.8737253800333806,0.8222882838585829,2.2500204393612506,-1.10906833526489,-4.3404495802932415,-0.9756778153397113,5.791857825976623,6.105864971708346,3.5973245380899694,4.886155592054308,6.979970133416514,6.138362190037186,6.435341893730846
57,4.3224161712043765,2.264824900067137,0.5393480380068277,1.4950770973431615,-1.570736730291862,-4.148306109665904,-3.151523757390529,3.177833285168787,5.754692633899002,4.024523489749744,5.04062414194808,7.50282542956921,6.264188511159305,6.628464750595555
58,3.697421894756432,1.2276448313363273,0.1696501950606494,0.4330933335289119,-1.6688879542258497,-3.0709162696981855,-4.5694495195501785,0.18101159340760462,4.36532654174859,3.731736075493654,4.194695939692716,6.344419054641233,5.153353565147671,5.353416628148817
59,2.162967808055374,-0.10827102364834512,-0.19791102309007433,-0.8012952186860539,-1.3806980923342507,-1.2544607614673493,-4.62610142417332,-2.358708283571802,2.2337392149171915,2.6885511648644043,2.459577387868444,3.7648982137758296,2.914729994103271,2.8116941346816593
60,0.04631307347079775,-1.4807662057786308,-0.4908681990984588,-1.950849924837505,-0.750154035446533,0.9423437193149479,-3.1435176498839104,-3.842130283895115,-0.21325468956486454,1.0626048428571082,0.2141531981360491,0.4565318865106201,-0.021217026415581982,-0.3939224688330999
61,-2.091646253497102,-2.5529238804765706,-0.6648559696394355,-2.6911923400001756,0.11376473778227753,3.031569573424184,-0.44131724427020963,-4.0557591006920175,-2.507190463690053,-0.8077903121004554,-1.9830194972682325,-2.6506571597991186,-2.9852388267491556,-3.4126710717777327
62,-3.6351148196314464,-3.0223387981535734,-0.7047430704450331,-2.7460277207943697,1.0441232907907483,4.526933883620048,2.7503831645780314,-3.1859900918396717,-4.234390808281495,-2.504223137625129,-3.5635421697383842,-4.689567351389042,-5.249981926730166,-5.4105038335775175
63,-4.132795658962582,-2.739151080296041,-0.6185691445085069,-2.015761775052608,1.83502304462359,5.07953230738981,5.507842818398879,-1.710205677579357,-5.117414016091099,-3.650830620014699,-4.140030438835493,-5.155124449034739,-6.250399593019798,-5.852757899233545
64,-3.4704377152002683,-1.780851498409504,-0.42938496753681654,-0.6587877286328878,2.277540851123152,4.573318717923169,6.991216887716773,-0.2097740498816761,-5.062143303420557,-4.024205570002926,-3.6428359701708186,-4.0851929029333744,-5.765203315526023,-4.696360055197307
65,-1.9229372140939376,-0.44560575231683036,-0.16918843943178408,0.9220225247489434,2.210586700324578,3.14969928791707,6.6971592287942325,0.8295473385497042,-4.159933689686754,-3.6101657870794996,-2.344316451469326,-2.0454241075500317,-3.990561453207534,-2.4117143279272084
66,-0.05838766852277297,0.8419784331403948,0.12360424613432196,2.197976161928108,1.575250182501394,1.156234561006354,4.611436914222434,1.1655584587417913,-2.6468537131202945,-2.587985003517108,-0.7551166789951508,0.08636188590366106,-1.475128002133038,0.18265291198767766
67,1.473550757699663,1.6812762174988574,0.40471934064166626,2.7026603315328472,0.4540932311634706,-0.9590474662986491,1.2189409419240236,0.8526589067880425,-0.8345808852383875,-1.2517085688771334,0.5711039967797568,1.4605859345841554,1.0627927255291623,2.2163538944655974
68,2.1875411453082414,1.844474008640526,0.6258584791504157,2.2188191397933252,-0.9236648979661906,-2.76915226320932,-2.6283051237918484,0.18972468673023377,0.964613001083818,0.09701091702903578,1.2486321299029162,1.5913763874764641,2.9700617683753134,3.0839067587398605
69,1.9444283683885446,1.3628710629829186,0.7405516218099585,0.8859714191476735,-2.222195846997303,-3.9653807023346763,-5.943970379049671,-0.41313321753446725,2.496394011854171,1.240189323968135,1.201133090392929,0.5530963811783619,3.859689528493382,2.6597758268879725
70,0.9943905261263324,0.512489494936003,0.7144032192387878,-0.8236105560480553,-3.0808715971593044,-4.403992662363789,-7.873410353057199,-0.5997095889672962,3.5922938096489925,2.0838130686223475,0.6745114701222356,-1.0461058979152094,3.7059908056778306,1.3264500302190156
71,-0.1378569746610468,-0.2990392713206543,0.5370718743390596,-2.2628628353233426,-3.2180851431946134,-4.098167666997289,-7.919078210588891,-0.2068429683117899,4.166203061644397,2.6364806651788477,0.1141761699849749,-2.3114047786892464,2.804176141006625,-0.19716170510397768
72,-0.8802385207344652,-0.7012235350775159,0.23119250782293532,-2.849259896323473,-2.525764501293772,-3.172168513965827,-6.06600875115904,0.6702222927677298,4.191314233264331,2.9442879044890806,-0.04367350583198597,-2.4376551696976603,1.618090480447527,-1.1601968050597127
73,-0.8601251680396065,-0.5173025124307579,-0.14661129304896764,-2.2960425302300007,-1.121675076089862,-1.805694174139071,-2.7775152287669704,1.7084144328723219,3.675962768581395,3.0197048639496553,0.4202082525805426,-1.0678685866084767,0.5824516551530775,-1.0960258349719134
74,-0.06850722485906098,0.1564335650322381,-0.5152180843298855,-0.7432757919804719,0.6630928032682183,-0.19372757854565992,1.1330208965521795,2.472595580378694,2.654313511634613,2.8042225976003943,1.3901002616862617,1.5120992032204128,-0.05945252618342427,-0.022520706097362984
75,1.128127088861486,0.9839667759132598,-0.7878060720054753,1.2689152610633045,2.3643882137415333,1.466770923223334,4.716092372480955,2.576271564840959,1.1975138353672015,2.187777187919365,2.4407146404112217,4.429299384724148,-0.32022316251485416,1.5565483877661161
76,2.1362301611367362,1.525760163476437,-0.8949521825793768,2.9835599814603913,3.5132651359490237,2.9698232712858212,7.126932414653635,1.8310145234811483,-0.5622597475819056,1.0799424401802817,3.0017834323901313,6.521367582902673,-0.4155879379559537,2.853450058261097
77,2.3863378005406464,1.4257555114549323,-0.8048074691585747,3.704154612314213,3.7747647806222226,4.092529154261295,7.830356240491149,0.33163636231329596,-2.412141950534426,-0.4987870319627511,2.6002517353622903,6.7730340086478416,-0.6241085412109567,3.124926294931514
78,1.5862173780105566,0.5746825544880454,-0.5335178981755576,3.0646433432190854,3.0536076572919937,4.607656399913682,6.719276103180409,-1.5540909188196221,-4.062067506426109,-2.350672129431857,1.0846733238674102,4.7307892856573694,-1.1241793781102598,1.9982547021036663
79,-0.12788591261693238,-0.8180008653172199,-0.14206450856515065,1.1891354626570412,1.531476857018837,4.327759619551872,4.121746151010175,-3.2895859723128784,-5.182477949067996,-4.098331501721558,-1.2604719542787985,0.7367612101248244,-1.8808160269177943,-0.33619449288001474
80,-2.207748993879838,-2.2775093728180313,0.2797576221928772,-1.3240555004974572,-0.3789070258851349,3.1737851723448287,0.7015002394270234,-4.333689230346469,-5.473593377580634,-5.2617475602160155,-3.7637827263996027,-4.11605711151784,-2.632864269562172,-3.148371672969837
81,-3.878671888792075,-3.2285372643473376,0.637148502855966,-3.5962107314377714,-2.1514482125225767,1.2434379075944202,-2.7165324064954977,-4.311022461851186,-4.7495275744917445,-5.398415768982108,-5.5721710884319915,-8.306478736051222,-2.989324855574293,-5.409091344154948
82,-4.428943536640397,-3.213590176475811,0.8543524571261225,-4.7760256538268075,-3.3011760272760284,-1.1542281467936537,-5.34819952408897,-3.133369121192181,-3.011812527387653,-4.262795593033245,-5.945941181383488,-10.384167679744523,-2.59828483269448,-6.1654538444329665
83,-3.4955377955211815,-2.0836802558272027,0.8917268137046004,-4.353193040116838,-3.527945813456896,-3.5262166873839407,-6.629698132699178,-1.034610788574181,-0.4869066428060876,-1.9285827244173757,-4.5407966002082425,-9.476633286755968,-1.3209692803857933,-4.914626897697601
84,-1.2355900298257045,-0.08676064121321213,0.7515046935725673,-2.363319640413695,-2.8041551098508277,-5.29408705980847,-6.335077564330164,1.4889550441095356,2.389161920556083,1.1751885448524402,-1.5735260098366952,-5.626826852181327,0.6615650773566906,-1.834871180105519
85,1.6878898246970169,2.1860432712180895,0.4721205025444242,0.5949803060005436,-1.3785190969924608,-5.945821007425475,-4.610243462266708,3.8112013728672416,5.041916358229878,4.337700328286452,2.195387343107204,0.16303926928298973,2.858601775216292,2.219789332241719
86,4.310725592969537,3.985441906481847,0.11472885846845657,3.5448830108083054,0.30538647947024855,-5.19873368942297,-1.9223974299865019,5.339842606136098,6.8734198558501385,6.737948016085655,5.667807703316895,6.208463999101674,4.603625515833957,5.971663780847637
87,5.696578420938154,4.66021225596498,-0.25256219484444065,5.459794121985995,1.749642073431227,-3.118819696765485,1.0586571954778208,5.664735662357564,7.397543420872254,7.669677053109147,7.74306953756654,10.658584098435686,5.271734164801359,8.139297764128079
88,5.2754244029538135,3.8954041618403377,-0.5677529543886862,5.623436077543991,2.5562313463791466,-0.14839932125249192,3.6190319912891957,4.654443569840415,6.365634966913231,6.754768084364199,7.675811419021702,12.086068316553213,4.506445348409986,7.882807009271309
89,3.0686060191531164,1.8453235682708238,-0.7827281640801486,3.8943636622379154,2.545362441386771,2.980854195020646,5.16506527447119,2.483486779958662,3.8525078916162623,4.079609333869079,5.338140231703533,9.95737133068706,2.3736217558085753,5.118191683626514
90,-0.2857625263675956,-0.8919973080573376,-0.8661267917875279,0.777689676265603,1.8003612246359098,5.435585391426832,5.359293046947035,-0.40779261973536846,0.2783369693907349,0.20866017941014928,1.2954517080411878,4.826140533322198,-0.6180658877323106,0.5855752474363791
91,-3.723988408267819,-3.4573654739931063,-0.8037327824355531,-2.7273849835497668,0.6263274150778096,6.518981991250385,4.198944367810104,-3.4049586500904905,-3.646940130887605,-3.9362746972535514,-3.3358574380430612,-1.8177386125446566,-3.646097129775601,-4.36052761767578
92,-6.104212593122469,-5.0120703703990435,-0.5990504357806077,-5.456746714862792,-0.5613578861953481,5.887062469147601,2.0178722998345395,-5.841168278976317,-7.054714770010996,-7.303674176096004,-7.209821660265928,-7.99817597347091,-5.81643430930238,-8.174843472088085
93,-6.592409444364017,-5.0230762096221,-0.27520815719507186,-6.4759689463046675,-1.37939755770099,3.671417728927324,-0.5923469654269403,-7.127755099855126,-9.10445715233844,-8.987614780960156,-9.153703777987063,-11.859036275764074,-6.442461025404688,-9.619963214490095
94,-4.953425975312332,-3.4519904658557077,0.12300481069612358,-5.403778651504954,-1.6010675042286329,0.4625177586535504,-2.928355561872635,-6.875711985586357,-9.189413183165218,-8.476256909171767,-8.527229658916887,-12.233716493871485,-5.269137877643491,-8.173874893953723
95,-1.6450939115504035,-0.779578021782937,0.5299756917311301,-2.5508457888357667,-1.2215150956455556,-2.8490998328668717,-4.356337808073289,-4.9919456544232785,-7.11313673538193,-5.804674767224537,-5.426620961793863,-8.99940735611613,-2.567763264796873,-4.210248955677401
96,2.3188510989599833,2.145867793109693,0.866153022074312,1.1761120928240705,-0.444093310031313,-5.3298677379615205,-4.484301665628455,-1.7335579423015646,-3.187369897034362,-1.56802373085754,-0.6704340561854308,-3.1087337250533995,0.931232982214521,1.1085951223505577
97,5.691933652700338,4.386575590122684,1.0523137326787817,4.573413621337854,0.4041766940625001,-6.280640726327667,-3.278167948092011,2.2976985968310775,1.7865328103962836,3.2122033836244976,4.428390601886394,3.704945084363372,4.247635161850196,6.19073039319994
98,7.396153957560965,5.2257148366766035,1.0293003121853006,6.540703843675574,0.9956329769201606,-5.4476436659774645,-1.0848334699517965,6.2358116554325695,6.6657467002281265,7.337457526905321,8.435588587227763,9.451229975576153,6.438146132806247,9.508406192751073
99,6.868217683749763,4.404582862487205,0.7780034595360023,6.445823110826542,1.1188487549942365,-3.099509177296616,1.4519309257170483,9.109639951498119,10.223264178164186,9.735097209120115,10.20349511173682,12.471381475426693,6.872494446132589,10.067740505494005
100,4.23814944083827,2.2061205976385914,0.33253310624950866,4.330659395379947,0.7485132457441106,0.054959466072474164,3.5668198919377567,10.064107474623373,11.459715472752828,9.738337994215327,9.196050081556457,11.914726904171701,5.415983123531612,7.70665970450393
101,0.28509018180070705,-0.642835066846883,-0.21973804986262777,0.8900080528815326,0.04558257804034416,3.082984925881154,4.5946836649542915,8.601016198934397,9.890748907300546,7.270777547390146,5.639969446573081,7.966463752803759,2.4658032904337905,3.1317711623517948
102,-3.811014414513925,-3.2161942068353304,-0.7541229873353504,-2.7662443998373116,-0.7094313837784044,5.110156099027168,4.17536436371708,4.775438499771826,5.726117696588279,2.885470527871399,0.46279736617552275,1.7700354255327395,-1.1664840345160168,-2.3102988947226906
103,-6.837850892108293,-4.696204570895733,-1.1382353504607012,-5.483817324635283,-1.2234374124551988,5.580697030287181,2.3781183402941632,-0.7224065588384988,-0.12360568864902736,-2.356160769350761,-4.961009180557383,-4.921009183318872,-4.488357934960001,-7.048495675058265
104,-7.9197064836326065,-4.639763329580426,-1.2678074582940853,-6.44047255002302,-1.2980367569333195,4.4155411241423,-0.29815611148358223,-6.652099674945678,-6.234438813000241,-7.14023114392217,-9.182794941191549,-10.250674242645138,-6.605308838675172,-9.756307123792116
105,-6.771705284594916,-3.114820832405224,-1.098124550945593,-5.402184749728371,-0.8986137603314109,2.021584242105491,-3.0571230215088785,-11.485027491057336,-11.017381516116057,-10.230455784156183,-11.068117958201624,-12.777331327571343,-6.964655690220651,-9.729841906422115
106,-3.7650779317597514,-0.6638415029584159,-0.6607539702581018,-2.7772351762724945,-0.1620739522590486,-0.8469066179683848,-5.036701973320495,-13.797052458107038,-13.142931350135388,-10.790048989951762,-10.096682002774672,-11.855321688969056,-5.49695391694768,-7.065426040842902
107,0.2080295015592659,1.8892586368042843,-0.059117220862671536,0.542693489681352,0.6569178156480834,-3.327628890028773,-5.573501373884963,-12.692355089337468,-11.925276744248857,-8.611383726021614,-6.496161508858342,-7.783167828620034,-2.619833761566099,-2.5939799469853217
108,4.018541619709715,3.719640401415203,0.5571665174107314,3.4930050308809215,1.2793036346050624,-4.713258045694985,-4.418557284142324,-8.130130342045351,-7.550823240901348,-4.1893837115422885,-1.1781858069631683,-1.6904425757219905,0.890457247228846,2.3942701815017577
109,6.63834655416034,4.2726551218875075,1.0324139551494085,5.18810886679173,1.4996094612898156,-4.656324636333349,-1.8337138563874955,-1.036640238024147,-1.0727339232189637,1.3871541053347731,4.50277724636789,4.7918949716809704,4.117908535899914,6.539957128762566
110,7.4267058114719156,3.434752829022244,1.2478141329953851,5.195544778136788,1.2537036513615767,-3.2553238782993814,1.4675527894856322,6.861548735990096,5.8422507126968455,6.70465054504252,9.101667233807543,9.977855152903048,6.251655331589249,8.796982006041562
111,6.283323428921212,1.550504812245516,1.1542440659690363,3.6452975766818296,0.6341836433117214,-1.0009414690929146,4.522847585736851,13.464280046558015,11.354671651719139,10.388312993071862,11.453538042498755,12.565719091909596,6.78987915407922,8.696568922663072
112,3.6337453415693077,-0.7135425637166691,0.7849982702216476,1.1478034528411398,-0.14888383970986058,1.3941123785824923,6.4084169228616865,16.87850305143278,13.96082533681429,11.465708093947283,10.967851748515509,11.957190991987078,5.651847708738744,6.427346024789643
113,0.26694180387383026,-2.605302577950352,0.24470576250060255,-1.439490302945788,-0.8447175351900638,3.2229163595582397,6.523423924523685,15.985985427590935,12.922524736750354,9.6320237390331,7.773188337885519,8.382173871108552,3.1759308517868696,2.726574773839778
114,-2.912453188352028,-3.539238316510022,-0.32184897618057,-3.308463346357259,-1.246956845819739,3.9960848663750625,4.781163778096745,10.820048166749368,8.489426890712146,5.341994409094201,2.678341036553445,2.8090300699110986,0.013075018768480799,-1.366676609255174
115,-5.1363795000365355,-3.278439456189178,-0.7711352244611139,-3.9560035130059736,-1.2573593221566335,3.572956079256872,1.6450929898165343,2.6204663394181322,1.8430632075032163,-0.3013153835620261,-3.037886458153301,-3.3255724329448233,-3.049313491324195,-4.811967699461896
116,-5.958153104600088,-1.989641803706056,-0.9998247065068144,-3.317205381049676,-0.9081872880184153,2.176971099778064,-2.0039711347984395,-6.470564038694591,-5.226873921634929,-5.835270251713405,-7.953568859336444,-8.491618416803988,-5.284698936079173,-6.833050287256906
117,-5.327656781946364,-0.16082901409645883,-0.9699289457070708,-1.742464767259152,-0.3395234427663383,0.2987244197209641,-5.129505753604517,-13.996540459321475,-10.823154830471509,-9.828052315100704,-10.864137473108347,-11.449168079802481,-6.197579597248411,-7.082473296795104
118,-3.552599445004781,1.5816127365018016,-0.7136576904214647,0.15940327990521924,0.2563419681735318,-1.4746880996020766,-6.848684767735735,-17.890162431073197,-13.473497835525718,-11.2641460779701,-11.085125326641249,-11.54649273313656,-5.629101984806695,-5.676709342573572
119,-1.1741937614811686,2.6877875930122355,-0.3181595460503692,1.746676941078823,0.7013190792814513,-2.6449897402485822,-6.693334565020733,-17.079926440014518,-12.538967490303618,-9.817163591688939,-8.619973139291673,-8.862859519524006,-3.778344294354734,-3.1120748327996735
120,1.196051601553341,2.857099622386982,0.10359754066967876,2.5567310399659053,0.8854449167057492,-2.943678221658289,-4.742137786629853,-11.810822407948761,-8.378797679285618,-5.932109409028495,-4.1494028916834855,-4.164871418447615,-1.1391606019315115,-0.10034947350576985
121,3.03031651089134,2.114870748192977,0.44592874013629885,2.435332156463221,0.7921310702791273,-2.3886022015129043,-1.5852991168823354,-3.5753679733384782,-2.2252946649761607,-0.6926980698835417,1.1552888855753276,1.3088939362535787,1.6294201813518827,2.624133740547797
122,3.9932500315274306,0.7754891149905552,0.6374682961235859,1.5492664142520616,0.49030311841255514,-1.2465755665669178,1.8637434892202274,5.327741412243227,4.190067514468045,4.488513374182938,5.945862734465568,6.177573361851955,3.8674151467273754,4.476639651921257
123,3.9884094776295855,-0.6856230426731136,0.6550943389554608,0.29142165524998376,0.10067669459516392,0.07662247500083648,4.647309351838535,12.472300934581952,9.143687103895177,8.26717693351264,9.053373505546853,9.275505505535786,5.073501774282264,5.137479194192915
124,3.1437282057489004,-1.800443742013307,0.5225588907072644,-0.8772898944584951,-0.24909778348273184,1.1763554510819836,6.044353050427697,16.010117556740877,11.406082055915313,9.735462496192957,9.789787529152184,9.94346279711409,5.021581432355797,4.593192864661632
125,1.7507303578253097,-2.2577271975994417,0.2965465949900153,-1.5885908653509357,-0.4643485084259078,1.771621057663679,5.767088150676803,15.185583256749407,10.56341298840799,8.654849716926044,8.112175268226952,8.177058996965663,3.8056132013376014,3.1042966882884
126,0.17869457857687573,-1.9860626141777087,0.046230504078039136,-1.675827593716957,-0.5065179340662962,1.7731794161473984,4.017347439606495,10.505146821186555,7.085016257112465,5.488646722066646,4.605572494048959,4.594895632036951,1.8016483930846523,1.1154737107004098
127,-1.2145724870416172,-1.1502527783618632,-0.16669312280050458,-1.2011802468042296,-0.39508738624383277,1.2824820533606005,1.3934024471419728,3.520784372972244,2.1289143662736296,1.2313669108202725,0.2932167801662442,0.23962419797948012,-0.44228151136120675,-0.8659744470533791
