,AF3,F7,F3,FC5,T7,P7,O1,O2,P8,T8,FC6,F4,F8,AF4
0,-6.490376703849384,-15.439249728103333,-5.192675432305425,-6.988055741719135,-5.670653283759605,0.6273088723996832,-0.024363857213390853,1.7977590831927526,6.221237007372734,2.4850068401301444,-3.2452198018300322,-6.480140362395552,-5.146563626960481,2.5490900284101805
1,-7.576944634823904,-18.497641160111318,-6.097113267086815,-9.366217508761698,-9.194385233333081,-3.7487356365046347,-5.371868471027589,-3.4600484569124457,0.8593687397035609,-2.100570767008232,-4.6496697158139355,-6.542533319753247,-7.192632660721635,1.2313498322589045
2,-8.609078674797642,-21.489806133382878,-6.959406937729328,-11.679427420507821,-12.642727394532427,-8.016254512969736,-10.586175127038493,-8.571458282530378,-4.378237848554422,-6.5847744536891595,-6.020125425020264,-6.559648398640219,-9.204364854433635,-0.03069181627930169
3,-9.505039678112265,-24.308073221134716,-7.7127576731418355,-13.829997142367684,-15.917507855143548,-12.073335775816984,-15.532283035481715,-13.392264644537992,-9.357608342092824,-10.850793444009158,-7.288705051122076,-6.46906685702924,-11.113386423578447,-1.1618657781041652
4,-10.190884986832737,-26.85286546624587,-8.29723893988083,-15.728456401742493,-18.928200449726297,-15.825554267364556,-20.084957353842515,-17.789122763657783,-13.95478649964515,-14.790108446092779,-8.392776242670019,-6.215013212017278,-12.85572883071185,-2.094591178087882
5,-10.604672960788617,-29.037311565578,-8.663452780330783,-17.298034531245744,-21.595840096092907,-19.189321969287818,-24.13335502486509,-21.64479545163659,-18.06073022483187,-18.30684222897121,-9.278216888368927,-5.7518108237505325,-14.374904351823668,-2.7727391613210934
6,-10.699889907461674,-30.791079964750708,-8.775481706849884,-18.47835476795011,-23.856275625602613,-22.09477309958868,-27.585005861566664,-24.862610431618258,-21.585433958607595,-21.321451740826966,-9.902134249168284,-5.046678954755608,-15.624502445963493,-3.1547948529499115
7,-10.447914870690134,-32.063244346125614,-8.6129703842602,-19.228146397828286,-25.66259359331489,-24.488059424051304,-30.368968742211486,-27.369917966603342,-24.461078353835884,-23.77358530705365,-10.234902007814284,-4.081715229244335,-16.570179174128363,-3.2161475416980356
8,-9.839402904598058,-32.82405193117002,-8.172232236465062,-19.526843511923254,-26.986598080524697,-26.332957194057435,-32.43802232658853,-29.12039737334283,-26.64406952975734,-25.623979968491813,-10.261421405636879,-2.854963103995268,-17.19095445678152,-2.9503945712649626
9,-8.884536644574398,-33.06553434013536,-7.4663409531946465,-19.375009636318442,-27.819291318446847,-27.611719718597076,-33.76980067366177,-30.09513163760192,-28.115902618011415,-26.85533456000901,-9.981563567035078,-1.3805241275334668,-17.479777323392703,-2.3696048721140404
10,-7.612166325626209,-32.80097138420878,-6.524231954226117,-18.793601733318773,-28.1703647200801,-28.325148065721052,-34.36684369693466,-30.302445926277997,-28.882861347436325,-27.472158830907176,-9.409802359245285,0.31226415609994684,-17.443365100811015,-1.5035511342205659
11,-6.067926587999851,-32.063287263242245,-5.3889007628761,-17.822160675760447,-28.06677435514553,-28.491894560108552,-34.255595514771805,-29.77658049010617,-28.974638692383884,-27.499661428293578,-8.574097293352672,2.180505416131755,-17.101366142330484,-0.3979819824055544
12,-4.311480208549818,-30.902521741644115,-4.11484043243504,-16.516082329760206,-27.550532377094033,-28.14705595349852,-33.48444396436891,-28.575333614282254,-28.442025298829037,-26.98179409102296,-7.514130616885572,4.170145651643257,-16.484934474853922,0.8879370018286105
13,-2.413089568259953,-29.38257122114258,-2.7649048322621304,-14.943177633613756,-26.675890156943957,-27.34015083120727,-32.120945171277114,-26.77686007137878,-27.35385704386773,-25.97861164573021,-6.279038571575398,6.218925324796276,-15.634835836247326,2.2848364544413684
14,-0.44975189248264624,-27.577431785302064,-1.4068148333261388,-13.179766776668977,-25.506116083657215,-26.132604740419,-30.24841281974453,-24.475841380517018,-25.793437912437998,-24.563134399641775,-4.924800591130006,8.259681885444484,-14.599225538776428,3.716799087745888
15,1.4988490175503737,-25.567194874427095,-0.10953712774077637,-11.306568951412624,-24.110080224817334,-24.59488412399903,-27.962070109959036,-21.77925484735151,-23.854658964332533,-22.81790955320534,-3.5114595911757713,10.22379098697282,-13.431247658849694,5.105228849777792
16,3.3543248511213437,-23.43404470641015,1.0602403629536734,-9.404644297570833,-22.558850514989096,-22.80342634465517,-25.36496430468522,-18.80196050280042,-21.638020698484706,-20.831461703616753,-2.1003410991077858,12.044540607026324,-12.186601615451115,6.372703866533448
17,5.04327044862678,-21.258485857522587,2.041334874912219,-7.551620138282187,-20.92248365805984,-20.83751008196894,-22.56383343221421,-15.662303288216537,-19.24673969844579,-18.69480272131166,-0.7514208713834389,13.660252558589233,-10.921207548148125,7.4465998738541535
18,6.500465722416452,-19.115992930976628,2.7808304164751885,-5.818393418005572,-19.26716232044866,-18.776201158023195,-19.665097319822255,-12.477898373258745,-16.78308771038506,-16.49814360929647,0.4790364510445874,15.016996382761219,-9.689079096594343,8.26230039103586
19,7.671448200070714,-17.07422684317583,3.236251267858484,-4.266450843636811,-17.652792478947823,-16.69549556634565,-16.771124319860046,-9.36173629253706,-14.345078087214993,-14.327920648130052,1.5404768575913959,16.07077748270195,-8.54048485226275,8.765848837229886
20,8.514365556770764,-15.190909564290722,3.3770707470892023,-2.9458935789599074,-16.131134763485566,-14.665765223095514,-13.976902294537028,-6.41871591303506,-12.023584406938014,-12.264218775480783,2.3896361989092636,16.789121228945664,-7.520451069156246,8.915941634496631
21,9.001070648235935,-13.512396602905117,3.1855249059671693,-1.8941998997225038,-14.744504463766571,-12.749593097251756,-11.367217761664437,-3.7426883526773094,-9.899949832871004,-10.378647922767387,2.991671130221438,17.15201494634631,-6.667630268977323,8.68520622599328
22,9.11747176180498,-12.072937861440163,2.656744713725901,-1.1357104359462908,-13.52503840501067,-11.00006261177902,-9.014419920750061,-1.4140717068498292,-8.044121557112927,-8.732701741196967,3.320842294527994,17.15220893804852,-6.013533834880987,8.060752298344397
23,8.863196618186782,-10.894574487318431,1.7982611569908182,-0.6817778367639279,-12.494494098385132,-9.459541284434488,-6.976815896077236,0.5019283109388077,-6.5133200712508055,-7.376601249224629,3.360777678670598,16.794915496686812,-5.5821018726680975,7.0440280359015
24,8.25066777433009,-9.987583793381784,0.6289737766161324,-0.5314871485405883,-11.66451909464737,-8.158971837641438,-5.29771089984469,1.9564834137479643,-5.3512283090109785,-6.348599603160505,3.1043690609872088,16.096979150050572,-5.389562468505174,5.650053800127692
25,7.303715685574763,-9.351359154758182,-0.822299054190097,-0.6728274796546726,-11.037308873617603,-7.117658411496634,-4.005075055578145,2.917711213856621,-4.587663955453351,-5.674702536036645,2.5533732398160263,15.085618334490485,-5.444518412283519,3.9061386263074844
26,6.0558708309830225,-8.975599353801913,-2.51855346643389,-1.0841820874777064,-10.606561317175412,-6.343513465494706,-3.1117901045444487,3.370687722921196,-4.23868197682265,-5.368745519561098,1.7177990094738202,13.796855241192969,-5.748194692723761,1.8502064469144555
27,4.548477752523248,-8.841682208950456,-4.416478481457998,-1.7360032550810984,-10.358633930619247,-5.833712970342834,-2.616405327843502,3.3169624816002794,-4.307043907094225,-5.432763784641099,0.6151603097958638,12.273756315463606,-6.294784142000815,-0.4711318314002929
28,2.8287631646274716,-8.924109090434916,-6.46834875995798,-2.5925489169594904,-10.27381475710226,-5.575693440917499,-2.5043136518479954,2.773646654527737,-4.782985172304757,-5.857593693671303,-0.7303328562587362,10.564601828795261,-7.071839954129053,-3.0046262375692416
29,0.9479692640738845,-9.191928383552572,-8.623819592743297,-3.6135782529884004,-10.327628567162368,-5.548415023582853,-2.749248089329887,1.7721484932536757,-5.645212324590028,-6.623652515651992,-2.2885900864797026,8.72108975915718,-8.06068141588504,-5.692433782812344
30,-1.0403657697737203,-9.610074431214272,-10.831539481595497,-4.755931104296694,-10.49211595584158,-5.723811538907516,-3.31499748420325,0.3566270210092904,-6.862069323705275,-7.701857176173962,-4.024429270711125,6.796657461025365,-9.23680183592293,-8.474062839972182
31,-3.0819316591227857,-10.140589483242742,-13.040528746943203,-5.974947153610861,-10.737042640172879,-6.068351372879554,-4.157248953716793,-1.4177742527942283,-8.392825334107814,-9.05465869249003,-5.898330443191797,4.8449763791006895,-10.570292080614353,-11.288145697626684
32,-5.122958783399705,-10.743724349286168,-15.201306539276917,-7.225710269019013,-11.031016076971492,-6.544640909243249,-5.2254797298867315,-3.4868630703195573,-10.189053229107481,-10.63718451975512,-7.867171458373496,2.918644703198043,-12.026314101326593,-14.074001934799517
33,-7.1113316910609825,-11.378934463416911,-17.26677853603968,-8.464126891820491,-11.342502916783223,-7.11301239984702,-6.464839215435758,-5.779463327665559,-12.196084035896043,-12.398492590010733,-9.884980230335188,1.068075594923867,-13.565671496986234,-16.77298576992875
34,-8.997534110539267,-12.005799633724541,-19.192920116432013,-9.64786260954136,-11.640751544840613,-7.73304884547842,-7.817979304932815,-8.21957530587893,-14.354533916191961,-14.282945810732782,-11.903746324808546,-0.6594416301090593,-15.145526083574158,-19.329634302331407
35,-10.735465630528068,-12.584897626008472,-20.939303516378764,-10.737167719334694,-11.896628446039902,-8.365008450314098,-9.226804819282632,-10.728598553763003,-16.601904432828434,-16.231713039648902,-13.87433183157795,-2.2205414732868514,-16.72030071360986,-21.692648223901333
36,-12.283170679721621,-13.078655315550005,-22.469522099299933,-11.695621185016279,-12.08337586094438,-8.971119479623448,-10.634124650820318,-13.227580708487388,-18.87425318444182,-18.184392446348333,-15.747508967940288,-3.576480107299687,-18.242790775996568,-23.8157417491433
37,-13.603512901769616,-13.45218876687198,-23.751560653246035,-12.490813888642535,-12.177292393820425,-9.516721966137249,-11.985187207770824,-15.639447639862043,-21.10792128323349,-20.080737198875457,-17.47513219753422,-4.693762387052464,-19.665482402692728,-25.658395104518927
38,-14.66481380400641,-13.674127896011452,-24.75814857655293,-13.094978333818194,-12.158329890797324,-9.971235940125332,-13.229081752090703,-17.891160541556,-23.24128859797172,-21.862443959988305,-19.011428693403214,-5.544717393726753,-20.942047526837253,-27.186532550202145
39,-15.441456071526762,-13.717405303479586,-25.467115437845088,-13.485556352095502,-12.010591736406065,-10.308938575156764,-14.319982981699614,-19.915736763665546,-25.216510316064056,-23.474945113680338,-20.314366181175355,-6.108026286072682,-22.028958125053624,-28.373133898367282
40,-15.914433321092025,-13.559975774623927,-25.86174953452073,-13.645683173747333,-11.722712500561508,-10.509536942481951,-15.218213577266697,-21.65406685857782,-26.981173309557978,-24.86912995902822,-21.347035709447884,-6.369190610761423,-22.887138147761036,-29.198771087081443
41,-16.071813951354578,-13.18542547328297,-25.931143578624468,-13.564558566955979,-11.288098299579904,-10.558529536207018,-15.891101091659772,-23.05646329915108,-28.48980185993561,-26.00291164758121,-22.078972456408145,-6.320917073429765,-23.483555331773033,-29.652047084929567
42,-15.909079779478779,-12.583428771977646,-25.670499768517782,-13.237674165062684,-10.705011140807736,-10.447357264422775,-16.313611176030314,-24.08388670655208,-29.70514136191039,-26.842556832014623,-22.487331867095577,-5.96338783106764,-23.79264826903818,-29.729904644945037
43,-15.429300149756926,-11.750015191932961,-25.081359765554158,-12.666869538406953,-9.976487463501199,-10.173351647556101,-16.46874625553504,-24.708810755752012,-30.59915536777889,-27.363703515085593,-22.557840607662122,-5.304383404393924,-23.797487194607523,-29.437768082760854
44,-14.64310769906853,-10.687618128680572,-24.171723440180127,-11.860197225443239,-9.110089802555892,-9.739493690202865,-16.347705518369114,-24.915704420684207,-31.153684619798806,-27.552008516333835,-22.28545118083824,-4.3592275511503615,-23.490579894643695,-28.7894826332542
45,-13.56845188146664,-9.404890352013403,-22.956023621219934,-10.831588363375511,-8.117500359695258,-9.15400132726904,-15.949808337442265,-24.70112801974301,-31.36073534903279,-27.403388094889614,-21.674645491387917,-3.150529609214053,-22.87425655208104,-27.807023267986025
46,-12.230119745196713,-7.916287705578891,-21.45493169052293,-9.600324481483032,-7.0139753680169115,-8.429766846258216,-15.282189373442089,-24.073456095617612,-31.22238623239399,-26.92384147140998,-20.73935558147506,-1.7077095864120588,-21.96059766317381,-26.519957495417042
47,-10.659028470026504,-6.241439728711145,-19.694978851339826,-8.190335110069432,-5.817687726483711,-7.583668551914407,-14.359279425586925,-23.0522537816741,-30.750326147178956,-26.128874231125067,-19.502496670383447,-0.06630333144971788,-20.77090400009685,-24.964662556516103
48,-8.89130824393539,-4.404340896776241,-17.707988124597215,-6.629352506467102,-4.548990736198388,-6.63578335912867,-13.202091313178943,-21.667342741199704,-29.96505526093931,-25.042563512983847,-17.99513445897145,1.7329427556639707,-19.33474213042861,-23.183313755081265
49,-6.9672052202118175,-2.432406123540697,-15.53032117260349,-4.947961942889247,-3.229637341782222,-5.60852902016812,-11.837334759539827,-19.957598119248313,-28.894798006986882,-23.696326484080302,-16.255331339188,3.6451678742018765,-17.688628195338417,-21.22267492797301
50,-4.929841910885164,-0.3554381605995832,-13.20195164488129,-3.1785879406903397,-1.881987725046631,-4.525766218889099,-10.296388612542493,-17.96952066151958,-27.57418747869778,-22.12746602764768,-14.326732244673119,5.622656778949872,-15.874433047823825,-19.13273268913765
51,-2.823876794945227,1.795446434258646,-10.765383641808649,-1.3544547158815863,-0.5282346265015235,-3.4118917767813706,-8.614163032543509,-15.75563037740475,-26.04278734411583,-20.37757297316233,-12.256960189896391,7.61623083265845,-13.937602595793068,-16.965222593335636
52,-0.6941070322939455,3.9888900844905937,-8.264441239928836,0.49144483590970217,0.8103283024545098,-2.2909548797515895,-6.82788888672167,-13.372731655450965,-24.3435206974687,-18.490864201544696,-10.095895427355622,9.57673203730393,-11.925289435660513,-14.772098309112986
53,1.4159407968168731,6.194328347670018,-5.742963487340038,2.3273410785152646,2.1139734180706116,-1.1858286890059575,-4.97587653335756,-10.88010492350267,-22.52107592370302,-16.512532189834147,-7.893912407331751,11.456555662031496,-9.884487704045144,-12.603995540675193
54,3.4653856846161917,8.38295326430132,-3.243448705096531,4.123612487149752,3.36512218912294,-0.11746969605045132,-3.0962906057198123,-8.337685464624958,-20.62035734265064,-14.487174965406478,-5.70014704765536,13.211179715454481,-7.860254999134355,-10.508742330993552
55,5.41728397965392,10.528577726022153,-0.8057016932992417,5.8536161550243255,4.548827022568133,0.8957041598334569,-1.2259897753357825,-5.804293780485329,-18.68504284638582,-12.457366840860063,-3.5608644929014184,14.800631560756855,-5.894095601450288,-8.529967707282559
56,7.239784917336041,12.608374760038272,1.5344533054467537,7.494395790577314,5.653135369946794,1.8382895893838822,0.6005207381163677,-3.3359819864435045,-16.756302421575278,-10.462420584036145,-1.517994744542983,16.19082487222092,-4.022569434510755,-6.705861565528253
57,8.907093022309457,14.60346611868672,3.746323807879905,9.027237537150835,6.6693210448784015,2.698208818939197,2.3519817957105738,-0.9845555516715813,-14.871720861888559,-8.53738106811136,0.3921011188720147,17.354696315654184,-2.2761810078763602,-5.068138966661948
58,10.40018005438932,16.499334972376776,5.8052918398850775,10.438043856331651,7.591970763498459,3.4668466351697456,4.001085928172999,1.2036815416189508,-13.064454878410658,-6.712278141341768,2.1395802042580088,18.273073586839324,-0.6785905676786842,-3.641259207843058
59,11.707195156886227,18.28603995584126,7.693480671781509,11.717499247171228,8.418919670260117,4.139017625811451,5.524976839339267,3.188926545594528,-11.36263907850174,-5.011651654922931,3.70174303993545,18.935216539220804,0.7538255144960218,-2.4419417010479627
60,12.82353543078177,19.958213854622183,9.400091772556689,12.861009774863481,9.151037553786507,4.712779721357033,6.905538213846243,4.938609344411948,-9.789038563208623,-3.4543452179287635,5.063314658748987,19.338990663343104,2.012056570467659,-1.4790060651937142
61,13.75155872725983,21.51483965156996,10.921379081806725,13.868410338660757,9.79187579886224,5.189119304605921,8.129480195000637,6.427858264166875,-8.360931754841683,-2.0535503763295853,6.216382797738059,19.490654473945476,3.0941931967984386,-0.7535447987111149
62,14.499942959862267,22.958807939647407,12.260252315668648,14.74344730060807,10.347192357508606,5.57153778619788,9.188240601249728,7.639713143159582,-7.090198789235326,-0.8170727469347998,7.160014138887963,19.404265872001126,4.004846822717972,-0.25941699838315363
63,15.082719084977493,24.29627166170947,13.42552631735781,15.493057957909016,10.8243781150817,5.865569844810697,10.077721538233655,8.565101935388787,-5.983588800151678,0.2522130890977004,7.899585152473711,19.10073470813179,4.754298849826339,0.0159662677425188
64,15.518026528500956,25.535826612322122,14.430857210154993,16.126481615788524,11.23181353919765,6.078261255489229,10.79788264928432,9.202596312448492,-5.043140782034787,1.1557545737998398,8.44587593390093,18.606568565001766,5.357436377523313,0.09060915152794274
65,15.82665891418539,26.687558784109253,15.293426568972569,16.65424906230997,11.578189223128684,6.217631201102968,11.352212999761395,9.557960707187256,-4.266733424119633,1.8985938714199035,8.813984761862326,17.952375848560308,5.832539647712321,-0.013293078773933912
66,16.030482887371825,27.762010865895135,16.03245069515443,17.08710721789179,11.871827056105877,6.292141092563316,11.747106100716142,9.643511197965424,-3.648737026471395,2.488560699484738,9.022128266545403,17.171204054932748,6.199991194997765,-0.27070430284687347
67,16.15082232320583,28.769127938549936,16.667602746514707,17.434942766367488,12.120039766926425,6.310189568528535,11.991166585266745,9.477306520768492,-3.180735613589308,2.9354273922708534,9.090396109352682,16.29680070208816,6.480977924477632,-0.6551531576624735
68,16.20690373113974,29.717245455475368,17.217440877875454,17.705771786904453,12.328565405579303,6.2796517834929615,12.0944818651404,9.082202261573938,-2.8522814524903617,3.250071696980005,9.039529047517393,15.361889058627947,6.69625491750392,-1.1401211446382302
69,16.214456123350296,30.612180627513748,17.697935798373376,17.90486091009042,12.501109833807337,6.207480173427546,12.067896976490038,8.484808718895465,-2.651639428821438,3.4436944280069595,8.889785158024681,14.396549994447053,6.865033889664404,-1.700342238069133
70,16.184550091689374,31.45648139388804,18.12118643993994,18.03403897930827,12.639024355446868,6.099382769494651,11.922334322665247,7.714400588995892,-2.5664769587340017,3.527137582150437,8.659951267502988,13.426795235497336,7.0040499417029665,-2.312948740382431
71,16.12274722632925,32.24887604596543,18.494403159874203,18.091247432930558,12.741137558407866,5.959592967527645,11.66820017923973,6.801830671287858,-2.584457445999034,3.510342937166469,8.366545892681915,12.473406913120662,7.126847871289337,-2.9584071124817823
72,16.028614133671034,32.983953327830825,18.819224564043445,18.070364269157142,12.803751191872223,5.790741210098404,11.314915259973983,5.77849910151291,-2.6937018758149427,3.4019816398668135,8.023246981773475,11.551104364701686,7.24331494119395,-3.6211986358633266
73,15.895636541569493,33.65208962711045,19.091416800412397,17.961321780090177,12.820800468724482,5.593834346649471,10.870597234190658,4.675423462577104,-2.883093537436948,3.20927280450941,7.64056301207301,10.668081737682218,7.359471840651489,-4.290212486964752
74,15.71154825863098,34.239627383550406,19.300982961508563,17.750522539199785,12.784170196806818,5.368342609326314,10.341910163937424,3.5224436999939104,-3.1424144314446427,2.9379947810387335,7.2257500319252355,9.825939003491824,7.477518181953096,-4.9588333296398375
75,15.459066506596072,34.72929647546494,19.432685494074914,17.421541220623478,12.684149970775666,5.112387725498195,9.7340817823214,2.3475809794173146,-3.462317498376375,2.5926775343554227,6.782961068817751,9.020005313654405,7.596113454292222,-5.624722098780249
76,15.116999419614691,35.100857405830695,19.466957406912368,16.956081677834362,12.510004457805632,4.823019677273046,9.051076458519768,1.176554199870636,-3.83415485037099,2.176949509672068,6.313599154251754,8.240028705480436,7.710859336203914,-6.289307368061254
77,14.661664367901366,35.331931532381205,19.381150043419396,16.33513979285105,12.25062845133789,4.4965648711766395,8.295900381383808,0.03244400753278196,-4.249697167647144,1.693998472069162,5.816831655899786,7.471181523993097,7.814935419665194,-6.95702540761987
78,14.068530067870004,35.39897052784403,19.15103857053383,15.540304747615279,11.895250982374515,4.129025565218638,7.471006346463053,-1.0645162637709376,-4.7007913421625425,1.1470947664666244,5.290212727727444,6.6953089193802935,7.899829378111903,-7.634367708706804
79,13.313976246511746,35.27830767406624,18.7524855008763,14.555118258382624,11.434149586194264,3.7165097566041343,6.578759916840304,-2.097047980788221,-5.1790091440800525,0.5401201839066332,4.730355457327699,5.892332435438433,7.95609750725687,-8.328810402875144
80,12.377057154593139,34.947231168186825,18.163152730835144,13.366407070570297,10.859336594483688,3.255672145666499,5.621928265562468,-3.05085546104995,-5.67533601918672,-0.12195076744079444,4.133599209302469,5.04171624523693,7.974095773790347,-9.047705151245314
81,11.241161306416084,34.385025886165764,17.364156055123445,11.96551018229636,10.165184410503333,2.744148728519097,4.604157467496381,-3.9145883584217174,-6.179935742331762,-0.8326573412137354,3.496631276444043,4.123911177768405,7.94463588121616,-9.79720403673886
82,9.895476270247089,33.573942459552846,16.341569962016273,10.34933604859425,9.348963914316716,2.1809679285950736,3.5304106124285113,-4.679739779991284,-6.682007508492517,-1.5837681564356936,2.8170409023680087,3.1217075449190874,7.85954156163002,-10.58127558663976
83,8.336187755526947,32.500065848786065,15.087708441142803,8.521200838848385,8.411276157722371,1.5669191539139207,2.4073443971216264,-5.340473634813563,-7.169734016542273,-2.3651095162279576,2.0938005025981354,2.0214449689837353,7.712099961147359,-11.400852218235944
84,6.5673609673518945,31.154065552832773,13.602124264310824,6.491412194085097,7.356360808091594,0.9048567238535089,1.2436043848635097,-5.893374917738967,-7.630308391951657,-3.1644992985852114,1.3276772500965797,0.8140402119200058,7.497415275508295,-12.253136845799824
85,4.601467266533001,29.531815019321634,11.892283224340312,4.27757305087981,6.1922665806851445,0.19991585877407778,0.0500202297949836,-6.337125557999165,-8.050026548501654,-3.9677775233138544,0.5215769295576919,-0.5041988130549793,7.212675315155258,-13.131089746877617
86,2.4595320751493475,27.634869740825952,9.973882664085002,1.9045888073023058,4.930871408960054,-0.5403804147753085,-1.1603159371074336,-6.672122163721221,-8.414437285589402,-4.758929252995105,-0.31918534061759335,-1.9310006717920096,6.857339223497032,-14.023114172650944
87,0.17089288247122486,25.47079321625765,7.8707970602021335,-0.5956299489112038,3.5877446403015667,-1.3061391405336433,-2.3721010695530276,-6.900065093174536,-8.70855028731133,-5.520301676243163,-1.1867015449428897,-3.457823761472403,6.433249464499628,-14.912957831816426
88,-2.227430019552302,23.05331851420569,5.614647750485436,-3.1847674331980693,2.1818500744875435,-2.0852482997403796,-3.5680106368069913,-7.023556833380154,-8.917108258541404,-6.23292148312182,-2.0703951313589584,-5.069834302496926,5.944665493816944,-15.779845417261695
89,-4.691732951916116,20.402332302288787,3.2440086526474277,-5.818993538875347,0.7350965031944987,-2.8636606218913068,-4.729027684523729,-7.0457498193146515,-9.024931843524572,-6.876919551673693,-2.957077261489229,-6.74618046992079,5.398211754152634,-16.598853777410227
90,-7.172966075302364,17.543670258579418,0.8032749816217694,-8.450122403638172,-0.7282491877691466,-3.6258020424513484,-5.834906382969733,-6.970079318453406,-9.017344280200073,-7.432067121326756,-3.831157444242921,-8.46056380124906,4.802730503540789,-17.341535256179828
91,-9.618359952952977,14.508719291041137,-1.6587623921629095,-11.027002578834923,-2.1822630153607037,-4.35508856782405,-6.864757438587435,-6.800106776996848,-8.880676717070118,-7.878420480420281,-4.67502378360745,-10.182095312804906,4.169032187984159,-17.97678497984728
92,-11.973276506568764,11.333832190848856,-4.090578999364395,-13.497089130050359,-3.6001483832360397,-5.034527872788224,-7.797735073999459,-6.539484868044878,-8.602844772848913,-8.197059497320797,-5.469594520779886,-11.876407166925967,3.5095435268161057,-18.471933721830542
93,-14.18320428087525,8.059571560527901,-6.439743793327131,-15.808135504839788,-4.95506836064931,-5.6473757092062495,-8.61379809713069,-6.192039545192221,-8.173973553536827,-8.370890422350577,-6.1950241256042,-13.506972866576726,2.8378652461568667,-18.79403044046904
94,-16.195805974430456,4.729809424776868,-8.654828925481116,-17.909933392005684,-6.220988073139727,-6.177813260907273,-9.294511422194445,-5.761948864783999,-7.58703467303795,-8.385468303085274,-6.831527494501948,-15.036572134432012,2.1682643933750243,-18.911260624011547
95,-17.96291861453616,1.3907156438241242,-10.687312291483494,-19.756023174262197,-7.373490407262977,-6.611610373265133,-9.823849061575206,-5.253985199070441,-6.838447751706661,-8.22978247333042,-7.360269031991383,-16.428823031708767,1.5151366863335023,-18.794431458456167
96,-19.44240435440061,-1.910327702725116,-12.493378641078529,-21.30529613162047,-8.390530912003008,-6.936740125417132,-10.188954446248292,-4.673778328750413,-5.928592561379415,-7.896942491875107,-7.764252576736784,-17.64969523775546,0.8924798649444443,-18.418444557566254
97,-20.599753777074294,-5.125846915601546,-14.035525843957904,-22.52341214981785,-9.253101467949067,-7.1439112275084,-10.380809307560186,-4.028052951417005,-4.86217808476269,-7.384703311513154,-8.02914503582706,-18.668916403840512,0.313418420316907,-17.7636725520713
98,-21.409355211861175,-8.2093937669419,-15.28389061111812,-23.383963985858557,-9.945777208738432,-7.226986409740779,-10.394760361458019,-3.3247961955923233,-3.648422511230058,-6.695778359503869,-8.143972193594793,-19.4611896115812,-0.21018696361308606,-16.817158264518785
99,-21.855363705690397,-11.11662449084919,-16.21722388241738,-23.869332647512923,-10.457128087731231,-7.183258892198875,-10.230856487569618,-2.573319153167459,-2.301013682418195,-5.8379075074111695,-8.101639288142898,-20.007154801986506,-0.6680249863658381,-15.573565441200397
100,-21.932131061110834,-13.806313534013812,-16.82346983727239,-23.971198719727767,-10.779985577401444,-7.013566531541872,-9.893959707427591,-1.7841907836835718,-0.8378408491357091,-4.823671465394286,-7.899249410570433,-20.294049397921864,-1.0515112228128112,-14.035827573086431
101,-21.644190589938514,-16.24128421691851,-17.099931330924022,-23.69069932123511,-10.911565028856458,-6.72223447096068,-9.393610620563745,-0.9690410444844348,0.719487759519127,-3.6700706024386864,-7.538215460741568,-20.316049795896152,-1.3538720818292382,-12.215463466920317
102,-21.00582196853213,-18.389246329247335,-17.053033966587677,-23.038245154731555,-10.85345284651488,-6.316850970775244,-8.74365068907225,-0.14024947322618841,2.3463053558272082,-2.3979092805771813,-7.024181540882389,-20.074301043196762,-1.570163607145708,-10.13255077654392
103,-20.0402476789988,-20.223534188242105,-16.697726409834807,-22.03303188809639,-10.611472791135155,-5.807895358254439,-7.961626495446717,0.6894484179362358,4.015672927889846,-1.031042164583878,-6.366783547215293,-19.576662403439077,-1.6972599585386576,-7.815367923252318
104,-18.77852962417684,-21.7237369521921,-16.056573001595098,-20.70229183093158,-10.195446914401503,-5.208248973299299,-7.068021438694109,1.5073949233544017,5.6992318714606975,0.40445538250546836,-5.579284766644179,-18.83720950018325,-1.7338439629917877,-5.299728831369487
105,-17.25824218846254,-22.876207609357003,-15.15860563776297,-19.080335575993132,-9.618865027139929,-4.532627669721956,-6.0853755535815095,2.301439736521515,7.368064358900497,1.881133963976329,-4.678121464803842,-17.875539926194115,-1.68042193913289,-2.6280440957416054
106,-15.52199849072231,-23.674431201441486,-14.03800661477056,-17.207431786390416,-8.898474254791825,-3.796977606084524,-5.037362468135735,3.060324454701431,8.993510674875619,3.370984147176886,-3.6823886204867846,-16.715931064805634,-1.539370602879699,0.15185143701432863
107,-13.615902937127583,-24.11922954515572,-12.732694681598778,-15.128570208289986,-8.053798890201104,-3.0178754719050005,-3.94789294996643,3.7739884640438164,10.547904603666868,4.846179823804461,-2.613290187041056,-15.386398909064225,-1.3150091946708071,2.9880592800347165
108,-11.58799738717968,-24.21878043030161,-11.282884181394346,-12.892150111014079,-7.106600991078946,-2.2119703299243763,-2.8403066060860342,4.433773286801378,12.005201927683851,6.2797259086653,-1.4935730400637963,-13.917705860210885,-1.0136775235157254,5.826115906503235
109,-9.48676073869608,-23.988433677270585,-9.729682310053242,-10.54863354933344,-6.0802935359246435,-1.395496743388008,-1.7366978220866032,5.032516328543649,13.341492183751237,7.645999486868812,-0.3469588939445701,-12.342363155830837,-0.6437916759720083,8.610575799888249
110,-7.359712782682436,-23.45031377742204,-8.113782258736725,-8.149199920464234,-4.999319901472153,-0.5838782128595095,-0.6574015740785903,5.564540823717281,14.53539877167567,8.921187965536081,0.8024164031211782,-10.693668770636227,-0.21584492803344255,11.286624122708847
111,-5.25216348163394,-22.632708647126762,-6.474300303751861,-5.744435811061057,-3.888515671144375,0.2085722038888101,0.37935675890564335,6.025563693157914,15.568385016425223,10.08364000244434,1.9305511964555815,-9.004814245431273,0.2576771413508711,13.80166468541553
112,-3.2061385472018684,-21.56925518077686,-4.8477925191664974,-3.3830919718260786,-2.7724707847734313,0.9688587996889272,1.3576623711497589,6.412553696913908,16.42499134137443,11.114152611418262,3.0141124503253782,-7.308084439635382,0.7624918423067156,16.10683129458057
113,-1.2595006501587866,-20.297942682031337,-3.267471858825729,-1.1109360016495473,-1.6749108926679193,1.6854316708244834,2.263991314023021,6.723576370449518,17.093029999901567,11.996220164681098,4.030957249957472,-5.634163391906383,1.2828398485782764,18.158375559410196
114,0.5547273166718009,-18.85996342045541,-1.7626301916066045,1.0302760749375026,-0.6181159710292599,2.348256450359097,3.0872055212967338,6.957658974266861,17.5637590894322,12.716268241878502,4.96064337769472,-4.0115486168419485,1.8019349117988668,19.918891717179086
115,2.2088433307744735,-17.298445925948993,-0.35825472069671765,3.0036929173736997,0.3776079067543411,2.9488464825009753,3.8184978447362594,7.114699132596666,17.8320481879662,13.263887827320467,5.784929387202377,-2.4660671585094533,2.302534633562351,21.3583473887359
116,3.6807686138749367,-15.657112545304852,0.9251837518608166,4.7781153150283036,1.294390609087392,3.4802761638859865,4.451316554177294,7.195427811370482,17.896535915568396,13.632074393361188,6.488260114519398,-1.020481098724042,2.7676113370480206,22.45489672053965
117,4.954194457248898,-13.978908993285176,2.0718004328361386,6.328591022777269,2.1171837488892145,3.9371891923172595,4.981289504877196,7.201424084616142,17.759767205266026,13.81746391882975,7.05822706777687,0.30583130151608956,3.1810900536839988,23.195458342400546
118,6.018597295497308,-12.304659866552184,3.0702549252874416,7.6368499674400745,2.834062789893898,4.315809194003752,5.406157370164733,7.135167927767379,17.42828686389253,13.820545683017423,7.485985570442452,1.4971296767862472,3.5286105983349088,23.576044449800612
119,6.86914061163619,-10.671809255142788,3.913624092533861,8.691570150026358,3.4364397170253143,4.613953586515976,5.725714639357719,7.000109049277806,16.912657751242612,13.645821136540691,7.7666025376833545,2.541504381949114,3.7982629670638737,23.601828773304792
120,7.506472794457217,-9.113308034627549,4.599204980918823,9.488461461384762,3.9191812163667934,4.831045475702747,5.941748343417081,6.800725591376778,16.227368787177973,13.301871099744247,7.899301796825522,3.4310017394029173,3.981240215324808,23.286941268195697
121,7.936419741760127,-7.656707482672703,5.128252162487947,10.03015324700806,4.280627206126523,4.968113629996485,6.0579593027558385,6.542547626411168,15.390602146460056,12.801292295963197,7.88757063530701,4.161666539310752,4.07235201093017,22.653978718611008
122,8.169564045892376,-6.323511259362194,5.505646247490134,10.325873475030585,4.522504477547791,5.027767563107262,6.079849826451211,6.232126703316242,14.423840659536792,12.16047053355452,7.739094640657176,4.733482684352242,4.070347374813031,21.73322612643314
123,8.220702649048537,-5.128823794911384,5.739489587286728,10.390914085981505,4.649731595885728,5.014134032372979,6.014564999166337,5.876942384338233,13.351313241643625,11.39917183986595,7.465499326483591,5.150196269345219,3.978008241171985,20.561595797439495
124,8.10818315769442,-4.081313163715759,5.840631376347882,10.245888900318468,4.6701154010518025,4.932743538119026,5.870680835847468,5.485247075036592,12.19929430158523,10.539952375874861,7.081895270225101,5.419015772574193,3.801995754744981,19.181309418776863
125,7.853133115127884,-3.183482977077906,5.822134196338306,9.915805742157671,4.593946342505948,4.790360664778932,5.657939812124017,5.06585890101372,10.99528859942488,9.607408637313727,6.606244316099589,5.55019790255207,3.552455234018328,17.638369980311516
126,7.478611125151367,-2.4322246930899514,5.69870282352964,9.428989909035657,4.433507818487429,4.594759128452677,5.386940843913517,4.627916986131358,9.767142951706639,8.627306345334198,6.058582335819851,5.556539900066775,3.2424084003994444,15.98088952390355
127,7.008718617206227,-1.8196028991332691,5.486100438572529,8.815908390939327,4.202521710245725,4.354449632980073,5.068795945943937,4.180614037491849,8.542129708468854,7.625636518437739,5.46014528190309,5.452806086219326,2.8869786150656087,14.25735057602399
