,AF3,F7,F3,FC5,T7,P7,O1,O2,P8,T8,FC6,F4,F8,AF4
0,0.5662551016368943,0.5177694065841444,3.3179229998077893,0.03053976805630412,1.0781788620008486,2.5262208880017805,1.8692665945929492,-0.039177393905657075,-1.378940083893614,2.6605223257259123,-1.3913975747583383,1.6753293271903833,0.9802558423586337,-1.9297266996720637
1,0.5120175553622117,0.8901073958657613,4.405884630243801,0.46484784868636825,1.2307761836954747,2.888182753245267,3.6511749923716943,-0.014402887434473731,0.48904526525003483,2.9055871546035466,-0.7182285747773013,2.5523253685964415,0.917173682758143,-0.8282057469394253
2,0.48141711763172157,1.260045380592073,5.496268850533768,0.9012660363934141,1.3816443210565093,3.2640259167005397,5.414068950563201,0.008693027243047213,2.341481689612741,3.1641002429573475,-0.06453138257226525,3.41288960252609,0.8645464849918745,0.26016631221992975
3,0.4711542105090072,1.617874975370115,6.576470745618926,1.3270774962191643,1.5227298009131542,3.640910233593762,7.123326250414487,0.02913154692202386,4.147717467806346,3.4256412816052864,0.5412127762873773,4.238583202016191,0.818252551917638,1.3062749648838101
4,0.4769329716163032,1.954081443424494,7.6336494714063345,1.7296180170193414,1.6462585979545372,4.006055993240664,8.745713643559478,0.046042356384036094,5.878501766895279,3.67978412903042,1.0720268656572594,5.011243254995132,0.7736924003951435,2.2818785651103495
5,0.4935347155204567,2.259553903797206,8.655033787557908,2.096633363522757,1.7449639534810502,4.3471839931828855,10.250341817518358,0.05868925894466714,7.506748661255794,3.916433904957555,1.5034567765012947,5.713415920324882,0.7259145265889483,3.160441569957062
6,0.5149260395416257,2.5257856980577977,9.628226407563863,2.416620528093444,1.8122909716257594,4.652914829531014,11.609521156544178,0.06649280855299047,9.00819955263658,4.126120865013068,1.8144526264414595,6.328776896641582,0.6697443610579119,3.917908511154348
7,0.5344011758080596,2.745060975391404,10.541499158928536,2.679142096858659,1.8425725873750616,4.913114766168538,12.799490454389135,0.0690491756112565,10.361965562299225,4.300243105136473,1.9880776179396553,6.842530470406822,0.5999134213401329,4.533399342735192
8,0.5447533969691452,2.9106230629700875,11.384069882020812,2.8751036054469044,1.8311736684037885,5.119179823819783,13.800997722439874,0.06614420012079548,11.550939325402549,4.431255724525025,2.0120218573205424,7.241779976222524,0.5111872213612287,4.989812919593657
9,0.5384658623817656,3.0168196661667195,12.146350893118028,2.9969849927752183,1.7746019063872978,5.264254142217076,14.599719222324639,0.05776125130978987,12.562071962295875,4.512808063698104,1.8789104568559993,7.515862065193288,0.39849133473640663,5.274329218568382
10,0.5079107072414265,3.059220473033928,12.820159256774529,3.039019733812769,1.6705859166934138,5.343382991349542,15.186509792603607,0.04408137070526885,13.38651668196546,4.539833701026407,1.5864067287294141,7.6566355855934525,0.25703546114643433,5.378802916446429
11,0.44554706618458884,3.0347044624644472,13.39888140689699,2.997318922159685,1.5181223821607615,5.353604122667808,15.557484120266661,0.025474486148645226,14.019645818172444,4.508600175828538,1.1371220015248842,7.658714658584357,0.08243574590315167,5.300041976734851
12,0.34411273430150924,2.9415162485903257,13.877587855360114,2.8699412630583856,1.3174943282369664,5.293982224045349,15.713934437692409,0.002481303960599214,14.460952713716008,4.416726351218666,0.5383526646350157,7.519635483099208,-0.12916387353996325,5.039965767256264
13,0.19680862250894274,2.7792922899428163,14.253096867905441,2.656912262597854,1.0702611288615818,5.16558969702721,15.662095191392938,-0.02421342935983084,14.713853376930178,4.26317501082176,-0.19832848528957459,7.239947717586864,-0.3809699267837621,4.605638478376515
14,-0.002520850797129939,2.5490587344266955,14.52398891652315,2.3601966658937807,0.7792182962401953,4.971434135575588,15.4127697996444,-0.05381471377589209,14.785404891035698,4.048227556681398,-1.0575961311174493,6.823224217523432,-0.675415688334736,4.009175472859522
15,-0.25920551485719606,2.253203515162015,14.690576564421017,1.9836281882197826,0.4483232597990392,4.7163310584514555,14.980838719824185,-0.08545615032362758,14.685957448963794,3.773446700870909,-2.020980356581785,6.275987517415963,-1.0140346115622403,3.2675225931255425
16,-0.5775589209678106,1.8954262248941451,14.754836898080558,1.532800460611953,0.08258362320958165,4.406721075323401,14.384671296174457,-0.11824183238310744,14.428754403774901,3.4416310395692324,-3.067528246582054,5.607556935691902,-1.3973318806525594,2.4021111165015765
17,-0.9606752866842582,1.4806701107371956,14.720315121731947,1.0149230943780825,-0.3120930788739853,4.050433513147549,13.645465941935788,-0.15128918625565213,14.02949142825488,3.0567624668542575,-4.174490291407507,4.829825201769299,-1.8246575950240256,1.438393698597723
18,-1.4102136623818948,1.01504112200935,14.592008226072679,0.4386469770060834,-0.7290850959360582,3.65640267551898,12.78654429312441,-0.18377048845755903,13.50584419580733,2.6239452006948745,-5.318004604243154,3.9569770067180317,-2.294087813821583,0.40526910388923615
19,-1.9261738616832933,0.5057190116658367,14.37623673439142,-0.18613661992278457,-1.1612700740004802,3.234347752832656,11.832625371155393,-0.2149506407576753,12.876974850821155,2.1493349855074046,-6.473754699218658,3.0051631323360213,-2.802322132853329,-0.6655941731495165
20,-2.5066742533914628,-0.03913580921804813,14.080510085410316,-0.8485180632241119,-1.601255028556874,2.7944323269787814,10.80910543476579,-0.2442188898879968,12.163029726341023,1.6400578938517663,-7.6175809639665255,1.9921421207827381,-3.344608481054485,-1.740523075725631
21,-3.1477480649550937,-0.6104793188972505,13.713386838916481,-1.5368073879097637,-2.041609078529684,2.3469231196164757,9.74136760721997,-0.27111260936981957,11.384642475792756,1.104118165532853,-8.726032538397734,0.9368968578970862,-3.914707393904702,-2.784679751013055
22,-3.8431811441903565,-1.1984891815310774,13.284325422961734,-2.238783771953629,-2.4750858457173144,1.901868531887267,8.65414206117062,-0.29533192417415394,10.56245696210804,0.5502929899320868,-9.776854445505295,-0.14077235255351958,-4.504908923514006,-3.7629604568032504
23,-4.584417307324821,-1.7926865200441606,12.803517005377845,-2.9419527800224583,-2.894824830309312,1.4688149372750081,7.570932557055069,-0.3167446843606784,9.716682866202456,-0.011989939835682374,-10.749412301045473,-1.2206808799268682,-5.1061148648972905,-4.640936808704017
24,-5.360555105339599,-2.382083369400435,12.281691470254083,-3.633808246009367,-3.2945240811753136,1.0565733734020064,6.513519283623936,-0.3353819529279538,8.866694583315601,-0.57279743798658,-11.625061269003053,-2.2827221581183053,-5.707996248171339,-5.385819860726349
25,-6.158452320202358,-2.955362618398064,11.729890455349356,-4.30209550272741,-3.6685794195109827,0.6730426682229624,5.501542574328171,-0.35142472738301683,8.030680993909604,-1.1218633399525577,-12.387466404579463,-3.307358788153273,-6.299230875939585,-5.967423240471044
26,-6.962944310681449,-3.5010927224254096,11.159206336361606,-4.9350720908142485,-4.012188423250409,0.32508827816237323,4.552168128461581,-0.36518307931754185,7.225350323670455,-1.6487917130448788,-13.022879350544589,-4.2761349561183915,-6.86781877970024,-6.3590970924869845
27,-7.7571720216721465,-4.007974454625915,10.58049160435099,-5.521761512073959,-4.321420257199628,0.0184699929242982,3.6798318558131413,-0.3770693008717716,6.46569106043159,-2.143291206800052,-13.520372815109663,-5.1721944990105895,-7.401465658879812,-6.538601302723249
28,-8.523006078995477,-4.465112443080467,10.004048948464158,-6.052194945580933,-4.593254662325971,-0.24219287166348533,2.896060945494974,-0.3875670114489689,5.764787572016207,-2.5954372776391885,-13.872029668755303,-5.980780659615277,-7.888016144270528,-6.488884714945481
29,-9.241545081678847,-4.862300740324616,9.439318256833209,-6.517634682549811,-4.825594481561798,-0.4534318450377002,2.209367159189587,-0.3971984811084026,5.133687971557407,-2.995954565597137,-14.073078264463627,-6.689686928343192,-8.315910993667398,-6.198736727147627
30,-9.893659800325587,-5.1903096834390485,8.894581505351368,-6.910771326009588,-5.0172559731439375,-0.6129263043970926,1.6252088041779824,-0.40649256933134675,4.581321499605257,-3.336507396397495,-14.121961406030517,-7.289625708939046,-8.67463704322211,-5.663279169376437
31,-10.460552160886065,-5.441161070663981,8.37670818371275,-7.225885325472482,-5.167940221385861,-0.7194932816108488,1.1460190088925475,-0.4159555071586596,4.114462758749018,-3.609983533822792,-14.020325502508108,-7.774484987749952,-8.955137949614148,-4.884270533716778
32,-10.924299669737826,-5.608379917712284,7.890961140374728,-7.458963292815686,-5.27818777288179,-0.7730706658575172,0.77129910387474,-0.42604619966738094,3.737740450677499,-3.810755658653737,-13.772919777632023,-8.141452795673993,-9.15015785754618,-3.870201855539712
33,-11.268361502728366,-5.687213114299016,7.440876039145735,-7.607761337455342,-5.349317755350321,-0.774690327821839,0.4977766300417418,-0.43715693391985827,3.453688785341413,-3.934906262483652,-13.387401869822808,-8.391002281496007,-9.254497574888596,-2.6361731316935524
34,-11.478029820623933,-5.6748074970034095,7.02821921305552,-7.671811078105093,-5.3833524479320145,-0.7264360913434332,0.3196273392847986,-0.4495996242405114,3.2628399114760804,-3.9804038765196967,-12.87405371630824,-8.526742716463907,-9.265171571890717,-1.2035496922572397
35,-11.540817226880298,-5.5703417944737685,6.653020967813389,-7.6523681961839545,-5.382928487031386,-0.6313821171304506,0.22875892400474893,-0.46359722077598453,3.163854719387776,-3.9472212968232596,-12.245418470470021,-8.55515100819044,-9.1814627052931,0.400591744938103
36,-11.446777560914045,-5.375108544659481,6.313675892788643,-7.552307192061763,-5.35119631805188,-0.4935093607771528,0.21515110988222064,-0.4792796383332941,3.153687110234904,-3.8373894769834016,-11.515874259271081,-8.485203708982876,-9.00487908854907,2.144208231218784
37,-11.188761554917972,-5.092543333889046,6.007099098051961,-7.375968196454952,-5.291709822975875,-0.3176003815958549,0.2672432973518393,-0.4966833743877382,3.2277744601198544,-3.6549835452681236,-10.701163539229483,-8.327931775963302,-8.73902317499526,3.9912001172446048
38,-10.762610680729074,-4.7281991913344426,5.728927193147219,-7.128962094630585,-5.2083081636138475,-0.1091151230676658,0.37235833548461844,-0.5157537980129523,3.3802459168454,-3.4060394165460197,-9.817897920410559,-8.095920609873417,-8.389386315469967,5.9024525345448815
39,-10.167292049227576,-4.289663594838808,5.473754126008831,-6.817940153118388,-5.104992008544819,0.12594801804951403,0.5171492913024033,-0.536348987073561,3.6041407710482467,-3.0984007693153846,-8.883057918577075,-7.802777246726203,-7.963082924098503,7.836972589204973
40,-9.404975677876754,-3.7864150347482295,5.235393338964096,-6.450335437628419,-4.985796764739084,0.3812005219495234,0.6880545250177175,-0.5582441105146949,3.8916308043340027,-2.7414974940400367,-7.913505450737869,-7.4625857109396225,-7.468537946923292,9.753083021686049
41,-8.481054042626496,-3.229616683645787,5.007158190329274,-6.03408586772298,-4.8546662471145545,0.6500158441010008,0.8717447969333393,-0.5811358121306859,4.234242089527252,-2.346059022030712,-6.925524637329362,-7.089370700698207,-6.915140973255298,11.609630640138317
42,-7.404103108427166,-2.631847323776345,4.78215215070653,-5.577351472410655,-4.7153311283566985,0.9256799962131097,1.0555452644440697,-0.6046468515519137,4.623072164965084,-1.92376979376961,-5.934404439330188,-6.69658895566136,-6.312881008731148,13.367166708412084
43,-6.1857839804428565,-2.0067741230200835,4.553559339425042,-5.088239819135668,-4.571197173553934,1.2015362891457373,1.2278161545326107,-0.628332133151571,5.048997723114586,-1.4868792421819421,-4.954075119530034,-6.296666774227025,-5.6719777269588505,14.989057291816044
44,-4.840684961460069,-1.3687769338257247,4.314924888269932,-4.5745533772906555,-4.425248450342547,1.4711213064370907,1.3782789981415684,-0.6516877338183447,5.502867079077004,-1.0477837526845137,-3.996809092344451,-5.900601007180948,-5.002527317907136,16.442484093363106
45,-3.3861053385910083,-0.732538284092421,4.060413499670826,-4.043571320468995,-4.279970416017554,1.7282905749098303,1.4982796288152658,-0.6741642728250891,5.975672011475986,-0.6186015828451816,-3.07299517626596,-5.517639163181942,-4.3141828815681365,17.699299977225508
46,-1.8417846928951418,-0.11261678752824086,3.7850336449512043,-3.5018762490137667,-4.137297187002913,1.9673333078837223,1.580982867286541,-0.6951849767263899,6.458695150960573,-0.21076297868152472,-2.1909937636939825,-5.155051862834784,-3.615889560482993,18.736708014454877
47,-0.22958440156516854,0.47697555683387316,3.484814936396938,-2.955233296726786,-3.9985864210093744,2.1830757145575754,1.6214957032479935,-0.7141674779001483,6.943630746305049,0.16536311123928496,-1.357078710426342,-4.818007754312598,-2.9156921646862095,19.53773902453536
48,1.4268699232233222,1.0231704126817847,3.156928335460329,-2.4085250503071762,-3.8646237762192115,2.370971754722515,1.6169163120491286,-0.7305472791143901,7.422677354386199,0.5007870078857437,-0.5754687459143705,-4.509556755574958,-2.220627217277463,20.091511197180193
49,3.1025763629472567,1.5141942815339744,2.79974349075104,-1.8657410893721984,-3.735656574373273,2.5271792725873317,1.5663072900685435,-0.743800274272636,7.888601109608967,0.7881467676344819,0.1515538966536381,-4.230721237792519,-1.5367025113225654,20.393266876296416
50,4.771568725116339,1.9398584086910624,2.4128240070994815,-1.3300164435161972,-3.611453476702116,2.6486186541254444,1.4705945780255594,-0.7534617954230929,8.334768854029917,1.0218788560090037,0.8234465164244735,-3.980686441511317,-0.8689572723133565,20.44419462086754
51,6.407349760295801,2.291778481331023,1.9968679982749018,-0.803709841066935,-3.4913847278190597,2.733010720924627,1.3323980202545476,-0.7591402252865806,8.755151884711958,1.1983085664278739,1.4411456286883921,-3.7570730327924386,-0.2215876486423563,20.25105637499146
52,7.983344698950784,2.563520834748237,1.553605596088095,-0.28851118354438776,-3.3745166537921976,2.778890458844449,1.1558031134951299,-0.7605240719354779,9.144302586531273,1.3156617369952825,2.006761812818313,-3.5562692575076835,0.4018822692858061,19.825647718079747
53,9.473374037945177,2.750675724772173,1.085666285386581,0.21443188809821823,-3.259714460950594,2.7855935642437673,0.9460850645079727,-0.7573823481139184,9.497307061013656,1.3740011866883826,2.5232485929255533,-3.3737989047574635,0.9984041352966365,19.184123739472916
54,10.852142949067787,2.8508610241806362,0.5964284164163682,0.7043772968622686,-3.145748066461863,2.7532141052191266,0.7093970114439105,-0.7495589903450972,9.809717273675428,1.3750925030215106,2.994062658100964,-3.204702736960296,1.565202152996887,18.34622575272424
55,12.095743115343899,2.863662535043306,0.08986299790707475,1.1808497158004747,-3.0313959508931103,2.6825338853539726,0.4524358453840323,-0.7369627981116623,10.077466910190802,1.3222060295605094,3.422831154506846,-3.043912655409125,2.099579697510029,17.33444623074354
56,13.182161490049051,2.7905201711253484,-0.4296158952195429,1.6435069490878527,-2.9155418857155504,2.574926756977986,0.18210147682452926,-0.7195548806161229,10.296776493890464,1.2198652638249994,3.8130410769604905,-2.8865984730980663,2.5987517999781535,16.173171117685886
57,14.091788798704423,2.6345719590725447,-0.9572825158260045,2.0920179292161913,-2.7972594160221167,2.4322434981351253,-0.09483280256792442,-0.6973357999359232,10.464055391226086,1.0735553519771142,4.167765360581573,-2.728467640930854,3.0597189890339713,14.887839246290813
58,14.80791811408759,2.4004694714146955,-1.4882039129669904,2.5259574999695706,-2.675879544277473,2.256684764666698,-0.3720212756240503,-0.6703344700486003,10.575810750144473,0.8894081732888016,4.489438978267121,-2.5660003771425925,3.479195925898161,13.50415700050359
59,15.31722062156963,2.0941786765405768,-2.0173134408216034,2.9447216971733416,-2.551038066834965,2.050671187408521,-0.643802727133654,-0.6386004568869277,10.628575459993112,0.6738825227268027,4.779695749229863,-2.396607428665438,3.8536040687414053,12.047402012848897
60,15.610182158847664,1.7227793165524299,-2.5394547821868465,3.347465735269974,-2.4227002116093286,1.8167209862189433,-0.9054019170656603,-0.6022008048200655,10.618867876219962,0.43345893478305875,5.039273163247364,-2.2187048326341134,4.179131792726498,10.541842482601735
61,15.681480757384836,1.294273699282436,-3.0494034349355226,3.7330654511479024,-2.291161490108072,1.557346403918288,-1.1530688667164632,-0.5612220584161609,10.543194271273467,0.17436798905901787,5.26798886117016,-2.0317083161124367,4.451858807719001,9.010288904795175
62,15.53028258844013,0.8174117327201171,-3.5418776124233946,4.100101685113963,-2.1570250028374147,1.274980338916817,-1.3841538443074413,-0.5157776413848573,10.398100439896119,-0.09763227401494831,5.4647884613574425,-1.835958058922894,4.667934935518517,7.473783124817319
63,15.16043157549269,0.3015329858766067,-4.011554615602249,4.446866111075819,-2.021156889663188,0.9719429438526709,-1.5971200357749071,-0.4660200074929581,10.18027272650788,-0.37741971333856983,5.6278600883316825,-1.6325914423395549,4.823796876019416,5.951416866796459
64,14.580507066539987,-0.24358011428861787,-4.453110964362258,4.771386391362122,-1.884623211763,0.6504541319562969,-1.7914993382791695,-0.41215620115110146,9.886682980525427,-0.6606085515765505,5.754806623693457,-1.4233861248289048,4.916401476685519,4.460260492639865
65,13.803725992809627,-0.8078485123458595,-4.86130344244278,5.0714682768946995,-1.7486130114669762,0.31269231368984496,-1.9677993768152537,-0.3544650699097239,9.514767972960561,-0.9435889884606719,5.842863023688095,-1.2105972157140434,4.943451655974797,3.015375272597788
66,12.847672672585817,-1.3810535340896959,-5.231102748694052,5.344752448394358,-1.6143531315301645,-0.039106572402610486,-2.1273715141713487,-0.2933143578455251,9.062631546426546,-1.223512061506878,5.889143549632156,-0.9968098841250426,4.903592651080142,1.629880083514902
67,11.73385109776853,-1.9530131644625428,-5.557882167128308,5.588784342094736,-1.4830203676597475,-0.40252141394402835,-2.2722502497430828,-0.229175941902902,8.529256282442557,-1.4982282775250602,5.890902757010004,-0.7848229135843376,4.79656153961244,0.3150455962225938
68,10.48706943328296,-2.513780982288744,-5.837652366648096,5.801095610520406,-1.3556559388197704,-0.7748058333651396,-2.4049740752761504,-0.16263745317797976,7.914710071239529,-1.7661898793290387,5.845794797332847,-0.5775705763432647,4.623280619036303,-0.9196055980940577
69,9.134681907140937,-3.0538651169139523,-6.06732243003564,5.979295964588801,-1.233086506836138,-1.1527546105351305,-2.528396654413093,-0.09440867624722686,7.2203318632884175,-2.0263273874981156,5.752117806315131,-0.3780810131598329,4.38589328294934,-2.066207048840792
70,7.705726512487986,-3.5644588981319516,-6.244958886184784,6.12117368055721,-1.1158553348815041,-1.5325961477529606,-2.6454953434723794,-0.02532162782273405,6.448881108792547,-2.2779115724002565,5.609032987628268,-0.1894607737641831,4.087747595168865,-3.1184710744579482
71,6.230005391846433,-4.037671026225707,-6.370010997028462,6.224801807743584,-1.0041667945238733,-1.909928201108952,-2.759182138558623,0.04367598493335014,5.604638128007632,-2.520412275756287,5.416750381083638,-0.01488946256096439,3.7333364089099135,-4.07162642794495
72,4.737156865337234,-4.466742077181639,-6.4434729264789015,6.28864514740039,-0.8978473552233591,-2.2797087654846306,-2.872120713116374,0.11153345535659548,4.693448068458101,-2.753365076034522,5.176674832954446,0.14239293918926987,3.3282034366433098,-4.922368433600633
73,3.2557643412932302,-4.846235486923819,-6.467961120660128,6.311660901508293,-0.7963262386411347,-2.6363067027630587,-2.9865525928983465,0.17711512632835774,3.722707744624919,-2.976255104740777,4.891506719668632,0.2791207539488566,2.8788233266336514,-5.668818104441215
74,1.8125401077806382,-5.172193302183843,-6.447696061559535,6.293384256952461,-0.6986386967846014,-2.973609505366721,-3.104135854477784,0.2392233069852218,2.7013003291450186,-3.188424374969004,4.565293027580473,0.3920687365441341,2.3924620273028543,-6.310486770163296
75,0.4316136776982919,-5.442248733231005,-6.388388509851033,6.233989886770683,-0.6034539546013958,-3.2851802286125635,-3.2258010032822773,0.29662618578627065,1.6394861920071973,-3.389005421326292,4.203425737305558,0.4781531207810903,1.877022359848742,-6.848243232132681
76,-0.8660536576767808,-5.65568871773352,-6.297038977691519,6.134322147096798,-0.5091280632061166,-3.564452496047516,-3.3516302862987106,0.3480912847326786,0.5487590298884341,-3.576880559396464,3.8125861099814045,0.5345652257397091,1.3408789930731462,-7.284281083105209
77,-2.0631139068320006,-5.813460886008934,-6.181664775894452,5.995890578848083,-0.41377954588192667,-3.804950986528232,-3.4807678315303185,0.39242487339312193,-0.5583249165559185,-3.750663353351039,3.4006352044357073,0.5589296698767248,0.7927068016291761,-7.622084115959563
78,-3.1461303613589813,-5.9181211982473645,-6.05097242283272,5.820831811320288,-0.31538348638828884,-4.000524377511152,-3.6113685851942594,0.42851707608135126,-1.668339930061064,-3.908697926715412,2.976452429715095,0.5494740137890601,0.24130649536235077,-7.8663877276610075
79,-4.105729165057542,-5.973721254785217,-5.913995295248527,5.6118423841003775,-0.21187816327927578,-4.145578099386914,-3.7405942867599964,0.45539140818799856,-2.767205354517096,-4.0490730622951725,2.5497250114832006,0.5051927503317754,-0.3045689335824516,-8.02313431409045
80,-4.9366113951056745,-5.98563718638255,-5.779716849533132,5.372088822901314,-0.10127754048052323,-4.235295329483318,-3.8646641861110016,0.4722565121192358,-3.840423138944736,-4.16965055480438,2.13069219292943,0.42598740069466223,-0.8363839621030935,-8.099420667077364
81,-5.637436333002254,-5.9603442110465545,-5.656697983025454,5.105102116257024,0.018217236841953095,-4.26583655386628,-3.97896591096737,0.47855710767036463,-4.87333950289269,-4.268109139484023,1.729849222327894,0.31276664809218807,-1.3459841057850048,-8.103434466929658
82,-6.210587781033237,-5.905142173919178,-5.552723537719781,4.814664069954206,0.14811372236883727,-4.234511009076224,-4.078227626139682,0.47402057932503944,-5.851429570565378,-4.342005620094023,1.3576179038940719,0.1674952615605428,-1.8257515373710074,-8.044374597902587
83,-6.661834805158292,-5.827838120793352,-5.474478650632428,4.504693020418155,0.28953680780903757,-4.139916861696342,-4.156747035249001,0.45869521317303885,-6.760601668194057,-4.388853866932418,1.0239928087323873,-0.006812983404391622,-2.268751291907117,-7.9323467109951755
84,-6.999897114373248,-5.736392708516414,-5.427261463929733,4.179136219421085,0.4431543129215913,-3.9820495921620007,-4.208666639598452,0.4329761148203168,-7.587516784303459,-4.4062206438710945,0.7381752913074358,-0.20615581458989918,-2.668865849608504,-7.778222503355676
85,-7.235924648603366,-5.6385385767709595,-5.414735382401204,3.8418757644749086,0.6091225229159316,-3.7623786542067705,-4.228278832471832,0.39761547708201034,-8.319917987926189,-4.391835232303219,0.5082109174445738,-0.4256467103287823,-3.0209139366523656,-7.593450091572828
86,-7.382902495399699,-5.541381488121651,-5.438722729052022,3.4966535555213807,0.7870533205282021,-3.483891477512465,-4.210340102045425,0.3537150152472769,-8.946963776687769,-4.343708411174344,0.34064869495994193,-0.6596483602970179,-3.320747404213402,-7.389804873141225
87,-7.454996671858064,-5.450999463955764,-5.499043045873323,3.1470178455604483,0.9760029831326029,-3.151102291954149,-4.150372118275822,0.30269980391781587,-9.459558006066912,-4.260256185848465,0.24024142387473144,-0.9019199494432761,-3.5653195044015984,-7.179075791700456
88,-7.46686232714689,-5.372060397056826,-5.593402745225096,2.796290146604092,1.174481240050025,-2.770021653740756,-4.044929309898571,0.2462742319545958,-9.850666858025294,-4.140424223284338,0.20970514083954284,-1.1457658291612025,-3.7527191699296725,-6.972690126117467
89,-7.432941518496267,-5.30748283880942,-5.717346469689638,2.4475481038495475,1.38047825058008,-2.34808133469059,-3.891817069065367,0.18636213899014142,-10.115610119180829,-3.983808937861221,0.24955244094395182,-1.384178264125754,-3.882168391118564,-6.781289161434838
90,-7.366781668034068,-5.258166233090046,-5.8642824718456055,2.103618479983728,1.5915068906881005,-1.894009234869885,-3.69025048251103,0.12503421974915216,-10.252310381805612,-3.790769882887041,0.35801017605979707,-1.6099724641111632,-3.9539826927066524,-6.614275854125043
91,-7.280407735985571,-5.222815206580019,-6.025593627777001,1.7670743730144742,1.804657916809837,-1.4176510641060167,-3.4409488881042294,0.06442644869027998,-10.261480808582482,-3.5625261277880154,0.5310273107662021,-1.815916836931572,-3.9694975405322706,-6.4793630522927765
92,-7.183780760134272,-5.19787786710888,-6.190842476521811,1.4402315449711836,2.01666595578334,-0.9297394620348346,-3.146165479039793,0.0066537176737775225,-10.146731168360958,-3.3012278099787915,0.7623739485922952,-1.9948645474038416,-3.930965920302613,-6.3821563491571025
93,-7.084372361680025,-5.1776110823466786,-6.348073568139323,1.125140026742454,2.223984756998491,-0.44161544443426504,-2.8096532558460083,-0.04627677702786864,-9.914573815875608,-3.009993701279246,1.0438279610115584,-2.139893472490686,-3.841434057931692,-6.3258080385420685
94,-6.986879275166776,-5.1542774648007486,-6.484210147617007,0.8235690461665314,2.4228706945944025,0.03508981138777204,-2.4365695061224186,-0.09254762983175074,-9.574316142316734,-2.692906419933939,1.3654414788358011,-2.2444604366099714,-3.7046031729081212,-6.310776549276804
95,-6.89309493064525,-5.118470481650435,-6.585535760465865,0.5369856164056959,2.6094738932968835,0.4888027184593406,-2.0333222805001414,-0.13060409881901355,-9.137833283277653,-2.354958898462245,1.715875812820563,-2.3025728654891213,-3.524685386498345,-6.334718984365999
96,-6.801947426569369,-5.059556328192611,-6.638245554064671,0.26652940963491917,2.779936259907027,0.9083724621574927,-1.6073653087639854,-0.15921364224296738,-8.61922399303027,-2.0019491167632157,2.082790080763699,-2.308977523177879,-3.306261657141208,-6.392534246807642
97,-6.709704429105449,-4.966213703352092,-6.629046741610642,0.012988537993453658,2.9304951410999496,1.283439438029989,-1.1669518203779863,-0.17750913096724238,-8.034362677417816,-1.6403246368660265,2.4532660215032673,-2.259362003744034,-3.05414895465502,-6.476562200056638
98,-6.610334990888557,-4.827045327648632,-6.545782309388228,-0.22321764772810904,3.0575906405283777,1.604791226835163,-0.720860668303864,-0.18501409362546953,-7.400370025647847,-1.2769831534632887,2.814249619263342,-2.1505603060629355,-2.7732826901432586,-6.576931465905965
99,-6.496007195583699,-4.63122884454705,-6.378047075987831,-0.44204207917187566,3.1579740526945312,1.8646898731459798,-0.27810859033856566,-0.18164956834787221,-6.7350315409389285,-0.9190391316234797,3.152989849108242,-1.98075019982909,-2.468618583764991,-6.682036125329114
100,-6.357691393908341,-4.369170919485447,-6.117762321039897,-0.6437940183085823,3.228814360128418,2.057154790388947,0.15233917147509543,-0.16772320264282942,-6.056196005470253,-0.5735690745214516,3.4574564100366074,-1.7496284466688912,-2.145055850525728,-6.779111523928047
101,-6.185833006102864,-4.033127544066112,-5.759675591301605,-0.8291001527268146,3.267799258915997,2.1781871705507707,0.5618499714452617,-0.14390231816266438,-5.38118416115825,-0.24734879925586606,3.716721473837882,-1.458550197795878,-1.8073812480947393,-6.854872774416395
102,-5.971056053840398,-3.617755590776556,-5.301755753935503,-0.9988424490340267,3.2732268950360037,2.2259243572960212,0.9423887179087387,-0.1111737191091585,-4.726232705016221,0.05340462350007427,3.9212945198150146,-1.110619858256539,-1.4602314678193629,-6.896176460039261
103,-5.704857985035436,-3.1205649558722666,-4.745459030631113,-1.1540758576527754,3.2440845747960325,2.2007162282219634,1.2867604201027927,-0.07079384154303864,-4.10599205476392,0.3232754270932812,4.063403298004214,-0.7107218279254605,-1.1080696000186305,-6.890666299688517
104,-5.380257809693323,-2.5422465481677174,-4.095849015770265,-1.2959320955853737,3.180111086626125,2.105119914735357,1.5888249837129904,-0.024233120079017772,-3.533090369069909,0.5578674584271495,4.137216704376772,-0.2654816712735261,-0.7551702688862676,-6.827367411251228
105,-4.992363176667925,-1.8868584142517533,-3.361562147214201,-1.4255182301140212,3.0818396978544684,1.9438134808940117,1.8436786380111896,0.02688204729530545,-3.017772758361116,0.7539907580474119,4.139005929521596,0.21684746227221535,-0.40560829830826317,-6.69720126105736
106,-4.538827452490573,-1.1618598624442498,-2.554618920137626,-1.5438201220630865,2.9506191974060623,1.723432783942129,2.047794893202344,0.08082752943529778,-2.567624075806204,0.9098086002248189,4.067239088802132,0.7265721893544633,-0.06324771023628094,-6.493402958110087
107,-4.020174236705918,-0.37799067133400227,-1.69008902864821,-1.651620533133463,2.7886106148923946,1.4523384898858311,2.199116636267702,0.13583894244294017,-2.1873848304585986,1.0249359414112347,3.9226036809121294,1.2528126649379727,0.2682696663861835,-6.211831677247281
108,-3.4399732368109284,0.4510014709718606,-0.7856247158470272,-1.7494397874784287,2.5987577130266417,1.140322507503309,2.297091741934294,0.19016810903423287,-1.87887016532715,1.100480073761,3.707952620077859,1.7838106304245502,0.58553531129913,-5.851171539612081
109,-2.8048578674674944,1.3087770918211385,0.1391188924206809,-1.8375036174246444,2.3847302141077598,0.7982653016144172,2.342647944467375,0.24213812401692345,-1.6409998189577768,1.1390165454470236,3.428173505521018,2.307277162588986,0.8853843542198636,-5.413023623344738
110,-2.1243817007783585,2.176951250803478,1.0631540678991311,-1.9157389269487992,2.1508399515030594,0.4377576513638681,2.338107720093701,0.290196088776375,-1.469942657025383,1.14449727671233,3.0899860157631855,2.8107652790744564,1.1649055659965748,-4.9018906117375325
111,-1.410718175842715,3.0357506263776592,1.964895899567637,-1.9837947265081999,1.9019315217892427,0.07070214223935833,2.287049269834196,0.3329619446066863,-1.3593739175325108,1.122091519881722,2.7016773151657842,3.282053891550923,1.4214522752205776,-4.325055168729141
112,-0.6782155169376224,3.864755375342901,2.8229350122482058,-2.041083396430523,1.6432502613461593,-0.29108957020358267,2.1941242470804223,0.36927138672897747,-1.300837814484974,1.0779633367177224,2.2727889361368288,3.709531857686562,1.6526560244163315,-3.6923528687448925
113,0.05717372356428766,4.643693664045702,3.6168180926303473,-2.0868370153611364,1.3802912773134064,-0.6362886959505052,2.064845517338431,0.3982107367420215,-1.284202910845746,1.0189923275008674,1.813770291183712,4.082572980879716,1.856444990772329,-3.015841688362226
114,0.7785618178980844,5.353252114664076,4.327805525168965,-2.1201742451696473,1.1186338706137269,-0.9544182973454639,1.9053582472905493,0.41914194429088314,-1.2981925397792327,0.9524478860396719,1.3356143073886935,4.391893451711607,2.031068977573628,-2.3093734701829822
115,1.4688601316786727,5.975862833906658,4.939574550211697,-2.1401744040208968,0.8637661845728221,-1.2361906063455514,1.7222054271242095,0.43171645000628256,-1.3309675485417736,0.8856307646733089,0.8494904734102636,4.629881886535034,2.175131974888877,-1.5880785587032697
116,2.111538948669437,6.496427313883631,5.438836146072948,-2.145956301640026,0.620905417704727,-1.4738059936798225,1.5220960512987725,0.43587724083009793,-1.3707342193260939,0.8254984519995684,0.36638987367156534,4.7908895212969025,2.2876317138947497,-0.8677827107466642
117,2.6913694070611593,6.902939352109573,5.815835295257,-2.136759747750769,0.39481960367200786,-1.6612067078923363,1.3116822577628577,0.4318489484296258,-1.4063468468201505,0.7782926209828741,-0.10320486618765899,4.871465638212964,2.368003399263101,-0.16438421524764707
118,3.1951039561498873,7.186973747780145,6.064708713970921,-2.11202699403495,0.1896580653425396,-1.794276646969036,1.097351418785476,0.420116379149976,-1.4278723343323836,0.7491883606360779,-0.5496139776856683,4.87052231007943,2.4161628125959647,0.5067738511046316
119,3.612056402155692,7.344015335862598,6.18368196486002,-2.0714797428634872,0.008799260149774354,-1.8709761304932961,0.8850397890146509,0.40139261029442574,-1.4270836974885956,0.741986796940883,-0.9642101954131719,4.789414197231948,2.4325435490926433,1.1314992761896945
120,3.934551268421811,7.373613204360195,6.175097795510422,-2.015185591130059,-0.1452736957796498,-1.891399324232649,0.6800745320359388,0.37657874794804064,-1.3978514005247182,0.7588744462189732,-1.3396157123457613,4.631923751078225,2.418124432181467,1.6972810396258158
121,4.158222381497386,7.279355876728681,6.0452771090403825,-1.9436071047665375,-0.2710590595216566,-1.8577431626869958,0.4870499792398209,0.3467182341104177,-1.336406755011643,0.8002721597776276,-1.6698407122485217,4.4041485456249445,2.374444620730235,2.1937284218857336
122,4.282150068347551,7.068673027699458,5.8042214208162575,-1.8576277770271326,-0.36807489782998426,-1.7741811846734494,0.30974189572395305,0.3129487253477477,-1.2414600648972582,0.8647920880021065,-1.9503620297551807,4.114293473390692,2.303604049761468,2.6129012081568925
123,4.30883439440048,6.752477134255181,5.465170768343309,-1.7585515888895633,-0.43684476537255784,-1.6466430967686108,0.1510607792184202,0.2764540537792088,-1.1141668607966413,0.9493128868469936,-2.178145939417729,3.772374858414175,2.208245718365819,2.9495209326782956
124,4.244008830780372,6.344664541802181,5.0440346510174825,-1.6480759256609168,-0.47883104565266976,-1.48250949127749,0.013042229050456948,0.23841815826805404,-0.9579471725595403,1.0491729984248517,-2.3516239506813084,3.3898462219011507,2.091515201020904,3.201059783946933
125,4.096305168815348,5.86150023362048,4.55871687348604,-1.528240391147068,-0.4963220084750144,-1.2902390675618605,-0.10313031312294692,0.19998252993831458,-0.778173831574489,1.1584710159475544,-2.4706336361303682,2.9791574094046873,1.956992673968942,3.3677094051894496
126,3.876787011659938,5.320914532735658,4.028359334433882,-1.4013560192462078,-0.49228274275013056,-1.0789512103447754,-0.19707691377437622,0.1622086017429152,-0.5817545702219787,1.2704524503903318,-2.5363371461477087,2.553261323553707,1.808594303222617,3.452236569405915
127,3.598376228424129,4.741743489441791,3.4725355388414485,-1.2699202471809936,-0.4701817783638585,-0.8579888136465659,-0.26915314735636664,0.12604640053033547,-0.37663810407024656,1.3779551269072494,-2.5511272475623348,2.125086809054007,1.650443482003666,3.4597371100115013
