,AF3,F7,F3,FC5,T7,P7,O1,O2,P8,T8,FC6,F4,F8,AF4
0,-6.385052042962832,-4.751355599665219,-0.8973997751963235,2.2014232807821403,1.220218432859539,-1.0331769411953713,-2.6235378209480813,0.4219238121735802,1.8258280461350875,-1.0913403375693405,1.791203728477636,-1.0704992729349307,1.518387675685259,-3.3355167052151975
1,-7.069616567425409,-5.2241620796972335,-0.6614559722455073,2.07070615373735,1.0220036307403335,-1.2685226958951181,-2.179021932084284,0.7361115172085524,0.3823517505235636,-0.691846396683203,1.6041005171804044,-0.988426986630335,1.0520869271531916,-4.259117912529815
2,-7.729252942834694,-5.661978386231708,-0.41643371808674445,1.9586291568601695,0.8412078345481016,-1.4816871917194931,-1.7397314131929293,1.0409300886722512,-1.0310341808403942,-0.2936209394890948,1.434986134841281,-0.9008528837163062,0.5956677567983149,-5.1659034636864885
3,-8.35612485426672,-6.052748091655149,-0.17076114543139997,1.8624590078763905,0.6807170674076128,-1.6736805201033478,-1.3159423349012902,1.3304496792438494,-2.385296685886629,0.10303783840661918,1.286190736979807,-0.8157995422864359,0.15829280765818757,-6.042636235226328
4,-8.943524242489795,-6.38540334777067,0.06763555725224785,1.7792513808411785,0.5428231603272401,-1.8457712785370148,-0.9171675658738719,1.599277451318785,-3.653300704917527,0.4977138168021514,1.1593350600505612,-0.7408840921003568,-0.2512619746696533,-6.87670825708817
5,-9.486013785150519,-6.650204777449388,0.2917197098794009,1.705990836824034,0.4292011300838221,-1.9993385493914546,-0.5518211643955468,1.8427012495058723,-4.81069887323202,0.8898303220487359,1.0553204779865712,-0.6829474707150565,-0.6248096551470173,-7.65634217589874
6,-9.97952755502682,-6.839038329064735,0.495653759783689,1.6397059062061092,0.34088810831749694,-2.1357558960933183,-0.2269365874276747,2.056827264206288,-5.836670695861349,1.2786170856694266,0.9743241805984809,-0.6477486690008203,-0.9549566811555312,-8.370779396666148
7,-10.421425266438137,-6.945657231562292,0.6750146208212843,1.5775540293665589,0.2782651966644916,-2.256319236069754,0.0520464302776663,2.2387006945073726,-6.714496626325999,1.6630832302627003,0.9157982373795132,-0.6397399356253818,-1.2353058564914374,-9.010455721342908
8,-10.81049805871952,-6.96586024244185,0.8269044972575077,1.5168736008097174,0.24104630485371636,-2.3622268463693126,0.28141371416258704,2.3863915994667155,-7.431973263860165,2.0419894027070358,0.8784721795315013,-0.6619336347917035,-1.460653127413715,-9.567164336248172
9,-11.146926544226543,-6.897601257504459,0.9499531970969599,1.4552029725802922,0.22827946791692671,-2.4546133317394623,0.45921827137626053,2.4990249516837837,-7.981687908943061,2.4138113767135825,0.8603593553920165,-0.7158659222073467,-1.627172539637171,-10.03420443494435
10,-11.432194723315964,-6.741029813717663,1.0442141164295518,1.390268576278231,0.23836566849664073,-2.5346316295013187,0.5852279593697076,2.576736732451967,-8.361170869924237,2.776690405669209,0.8587680055027008,-0.8016568251085401,-1.7325831496938493,-10.406512475411395
11,-11.66896614240174,-6.49846646410071,1.1109621807717722,1.3199458275115201,0.26909813074956795,-2.603569833045394,0.6607823238739264,2.620547267242667,-8.572933669940143,3.1283718116424826,0.8703188733382136,-0.9181605326848762,-1.7762910338557034,-10.680772134962453
12,-11.860930994949776,-6.1743209332980165,1.1524080043590537,1.2421970136173837,0.31772220536458423,-2.6629837396313034,0.6885697706811457,2.632156773249624,-8.624386033987152,3.4661407522386707,0.8909719149015388,-1.0631936873641281,-1.7594991084047815,-10.85549853824429
13,-12.01263415911142,-5.774963712012271,1.1713481912229449,1.1549907215185424,0.3810131663589864,-2.7148221749354464,0.6723438529695884,2.613682420242827,-8.527611184290398,3.786770638985198,0.9160653073811948,-1.2338235503765813,-1.685277623365913,-10.93109237600402
14,-12.129293425723457,-5.308562055128293,1.170776985781131,1.0562089664437841,0.4553673196480099,-2.7615214371379744,0.6166028784168014,2.5673674390362375,-8.298973579274106,4.086503644030623,0.940371098000337,-1.426692534366921,-1.5585883468389254,-10.909859406190648
15,-12.216613615588376,-4.784888314842967,1.1534893926434198,0.9435516552434918,0.5369013242794238,-2.806048747229279,0.5262596876965346,2.495298721341914,-7.958539567375567,4.361082668656582,0.9581736880265176,-1.6383512338344817,-1.3862547804609773,-10.795989549156964
16,-12.280596719321487,-4.2151031857981085,1.1217099099418877,0.8144522588053575,0.6215554007905143,-2.8518821791782067,0.4063287199737843,2.3991690939504795,-7.529309988909073,4.605849041620039,0.9633790173546509,-1.8655695447067489,-1.1768696868229929,-10.595487446570127
17,-12.327343131446048,-3.611511419481717,1.0767826787686254,0.6660214862161593,0.7051974599077053,-2.9029242111137257,0.2616554953827388,2.2801140727199747,-7.036290537708218,4.815910775299709,0.949662505911002,-2.1055957627335835,-0.9406314283305824,-10.316044466657399
18,-12.362836955636233,-2.987285135539706,1.0189563119693188,0.49503572310736693,0.7837264485734161,-2.9633549758319058,0.0967090586167496,2.138641426433818,-6.505452738765744,4.986375080550819,0.910661660368165,-2.356337345808449,-0.6891033992477953,-9.966842687767137
19,-12.392709912368996,-2.356150482940405,0.9472892492112541,0.29798375083630946,0.8531740977270427,-3.0374372586006313,-0.08454912028678699,1.974657745585032,-5.962657276484695,5.112629065104055,0.8402146186408187,-2.6164441937045053,-0.43489598660884615,-9.558285420208609
20,-12.421982547279109,-1.732036176787226,0.8596904616039045,0.07117970953133614,0.9098049587030456,-3.1292875316079054,-0.2787145888138831,1.787582888457301,-5.432616899437046,5.190646074908822,0.7326395472896384,-2.88528492902861,-0.1912767416623753,-9.101655710792212
21,-12.454786863766579,-1.1286863334993888,0.7530978104220766,-0.18905654717468068,0.9502154070678578,-3.2426264942037424,-0.4829104334710742,1.576533567255487,-4.93796766495621,5.217292431758835,0.5830430377020008,-3.162817457224089,0.028279214564316417,-8.608712475176054
22,-12.494080538293083,-0.5592446498967308,0.6237836739569976,-0.4861581428691965,0.9714328880955989,-3.380520137585614,-0.694688183967575,1.3405523870407468,-4.498498459347376,5.190609515392271,0.3876393558379815,-3.4493659208905068,0.21058002590151756,-8.091242191582252
23,-12.541369240710415,-0.035822318288709715,0.46776513524845187,-0.8230232983615142,0.97101621576511,-3.5451198655246627,-0.9118733576225878,1.0788575218407548,-4.130565670128054,5.1100479357629744,0.1440570805341003,-3.745326186610039,0.34322387225690787,-7.560591561175196
24,-12.59645930892475,0.4309322832004314,0.28128509244580313,-1.2017025108486017,0.9471557240826499,-3.7374091678095964,-1.1323732699507743,0.7910895421494543,-3.8466989034889933,4.976633439274874,-0.14839366270563692,-4.050830002580062,0.4150907669318239,-7.027211798876323
25,-12.657266068698252,0.8322396670727342,0.06132313598133028,-1.6230872563340109,0.8987692791278251,-3.956965716181895,-1.3539665255140942,0.47753488581969944,-3.6553888568792443,4.79304893597273,-0.4885199115955195,-4.365402078468954,0.4167869761475412,-6.5002463605060505
26,-12.71970134912547,1.1615476144942551,-0.1939070655349333,-2.0866275184111975,0.8255881863312711,-4.201751216899618,-1.5740937194758602,0.13930995475295707,-3.5610406694869066,4.56362458398891,-0.8731321832390739,-4.687643109231618,0.3410145914193015,-5.98718965142932
27,-12.777656966544352,1.4148217177762223,-0.4845135736822486,-2.590102115786028,0.7282266702017107,-4.467945298236001,-1.7896673814048023,-0.22150451221838804,-3.5640736914098747,4.294237568259687,-1.2970312670915398,-5.014965806782641,0.18284946089359153,-5.493635263472614
28,-12.823091404248867,1.5907539602212364,-0.8085677778943975,-3.129460095122483,0.6082292017818246,-4.749842282452893,-1.9969167479993386,-0.6017836473146978,-3.6611496797792853,3.992132256734737,-1.7530981667694188,-5.343403034085773,-0.06007681174029571,-5.023121371480462
29,-12.846217594104425,1.69088117761528,-1.161856504316587,-3.6987456332422073,0.468090743633549,-5.039829596492683,-2.191280600558027,-0.9973345376964785,-3.845514295141357,3.66567696482526,-2.232480855144925,-5.667499829202034,-0.38748515464503225,-4.577071388055858
30,-12.835782157690764,1.7196098874500325,-1.537762119602777,-4.290113750028347,0.3112461872169008,-5.32846308675693,-2.367359566282029,-1.4029284252414065,-4.107439222365195,3.324075269630878,-2.724864603120962,-5.980295306487375,-0.796436376763841,-4.1548215154518084
31,-12.779421008405906,1.684147500381779,-1.9272814546345585,-4.893939319069681,0.14202703811408737,-5.604647674100611,-2.5189374771503292,-1.8123895371531353,-4.434751596299941,2.9770496135820026,-3.2188075365786726,-6.273395720765067,-1.2813843779535767,-3.7537233373952477
32,-12.664073330113169,1.5943424686577072,-2.319187928430349,-5.499017351620092,-0.03441502917453655,-5.855922851935079,-2.639079011566347,-2.21874078853593,-4.813432348871683,2.6345145735468685,-3.702119911972645,-6.537136202348218,-1.8342827120901242,-3.3693085665704423
33,-12.476436064127515,1.4624372524112055,-2.7003347679380183,-6.092848675987678,-0.2122174886943158,-6.068843452973304,-2.72030765045997,-2.614404578300091,-5.228257044651376,2.3062566811546534,-4.162265196876218,-6.760826109675922,-2.4447352587556996,-2.995504440332515
34,-12.20344327892627,1.3027385691306568,-3.056090418569485,-6.662001796405864,-0.38494876706431064,-6.22943856921424,-2.7548635259204377,-2.9914530840377274,-5.663445196239185,2.001636002367129,-4.586763647971195,-6.933071490762565,-3.100187192510575,-2.6248917779902188
35,-11.83275703256008,1.131210636766066,-3.37088993326863,-7.192538222486688,-0.5457814688041478,-6.323726505310002,-2.7350342340927827,-3.3418974993503574,-6.103280393616771,1.729321307418138,-4.963583619156577,-7.042166652335795,-3.786158377481462,-2.2490019531487775
36,-11.35325672059881,0.9650002489002198,-3.6288783725096954,-7.670484500141115,-0.6876940514446462,-6.338261550671803,-2.6535430180309407,-3.6580004626810294,-6.5326658048989055,1.4970664178685962,-5.2815104260374195,-7.076543660962709,-4.486525416369822,-1.8586515643696897
37,-10.755512109110734,0.8219074144188526,-3.81461443036739,-8.08232991723655,-0.8036950684047958,-6.2606886888479245,-2.5039694381563384,-3.9325917786774105,-6.937587887071873,1.311531465377948,-5.53048554957255,-7.025263082010511,-5.183859111335009,-1.4443125558595302
38,-10.032222287156499,0.7198205929926749,-3.9137955298430254,-8.415525280915006,-0.887061127725016,-6.08028368940843,-2.2811701745273885,-4.159365957315802,-7.305474007554554,1.1781496712864103,-5.701909620090653,-6.878522751855872,-5.859820875392307,-0.9965112189646728
39,-9.17860007319483,0.676139810190953,-3.9139610462549106,-8.658956123863094,-0.9315776048492063,-5.788456794146461,-1.9816637773166046,-4.333141968467551,-7.6254442605123876,1.1010372546967524,-5.788901970608169,-6.628156633125781,-6.4956162821995305,-0.5062442276954605
40,-8.192680466339386,0.7072132484605023,-3.805129900159168,-8.803364035585135,-0.9317703440072704,-5.379198023769982,-1.6039439680104173,-4.450070572877077,-7.888470628415192,1.082940672069413,-5.786509834742573,-6.268095232286733,-7.072499002820161,0.03460353780615546
41,-7.07553395418517,0.8278125791998043,-3.5803335121872473,-8.841693343725176,-0.8831173604779198,-4.849442153648942,-1.1486921377002512,-4.5077815840828155,-8.087464975860193,1.1252117573970168,-5.691863002936687,-5.794763174361234,-7.572315399245245,0.6328546654612116
42,-5.831371311084989,1.0506688456673088,-3.236014355982087,-8.769346991191357,-0.7822319280671484,-4.199333384748073,-0.6188708927315493,-4.505471114956017,-8.217319699828641,1.2277985528333453,-5.5042739097553515,-5.2073965450313855,-7.978078106841509,1.2936611191153804
43,-4.467534671513919,1.3860846249943386,-2.7722720870533903,-8.584343636451782,-0.6270115284813496,-3.432374596983501,-0.01969510044751729,-4.4439353879624415,-8.27492106013104,1.3892395575216039,-5.225286117699269,-4.508269654718728,-8.2745537506161,2.0201620604496155
44,-2.9943781371851785,1.8416309021484245,-2.192951488615739,-8.287375872125045,-0.4167497158246872,-2.5554532379621846,0.6415083432125622,-4.325561018816611,-8.259146618951403,1.6066529853889733,-4.858674818229485,-3.7028261095222175,-8.448844925109778,2.8131850962916483
45,-1.425048682147395,2.4219300548350438,-1.5055778244987945,-7.881775953028169,-0.1522096886898278,-1.5787436413096163,1.3555293957871628,-4.154281044090446,-8.170847847948334,1.8757193945576347,-4.410402443821323,-2.7997124804866833,-8.490941903700152,3.670997305646048
46,0.2248161961988366,3.128520933638002,-0.7211540687210651,-7.373400015418924,0.16434039009454535,-0.5154920979972213,2.1115643539151345,-3.935502305846035,-8.012810231134516,2.19066344398532,-3.888531845920284,-1.810714857749738,-8.394217320285748,4.589112532251518
47,1.9374550043608438,3.9597993666442024,0.14616073110600014,-6.77044400983962,0.5291296506522387,0.6183043909411244,2.8975391471883682,-3.676004885002785,-7.789678005884629,2.544247009938502,-3.30309803016697,-0.7505988524577865,-8.155836758215345,5.560163797975434
48,3.693395105779982,4.911027559979532,1.0794723230948702,-6.083204580466752,0.9369239920764593,1.8043115485084344,3.700445872889643,-3.383809791819083,-7.507829595543658,2.927790470981898,-2.665936380371284,0.3631478149793059,-7.777058276236619,6.573854244621449
49,5.471898162084849,5.974407537175814,2.059654072072979,-5.323796751050147,1.3811032790308486,3.0223466496961153,4.506680000926179,-3.068008525763071,-7.175193357215793,3.3312402223632005,-1.9904618716820226,1.5106725919119486,-7.263394811138632,7.6170046374938405
50,7.251428978580025,7.139215423289678,3.0659169152827475,-4.5058385322136925,1.8537770842997163,4.250923361011249,5.302372248629816,-2.7385485288766342,-6.801001579607438,3.7432973873811233,-1.2913925155409758,2.6702171344712675,-6.6246173445886765,8.673717179930618
51,9.010141154300657,8.391994012709569,4.076432225692115,-3.6441112937702558,2.345938776280158,5.467830759093074,6.073712368484589,-2.405972414514308,-6.395491637489103,4.151615900731656,-0.5844129240204028,3.8186758466187447,-5.8745852811992165,9.72567187730562
52,10.726372715304947,9.7168005127423,5.068991554929292,-2.7542043471153805,2.847655629903455,6.6507232289989435,6.80726207974923,-2.081115232238615,-5.969572631323425,4.543069917069897,0.11422010803695046,4.932244168801733,-5.03090267563398,10.752562278937669
53,12.379142925618718,11.095505481604345,6.021683859467429,-1.852152187668001,3.348290641082372,7.777698899834206,7.490252642603667,-1.774770569207405,-5.534479593943998,4.904083703228108,0.7881213074157408,5.987137876503051,-4.1144114468301805,11.73266393053684
54,13.9486391106594,12.508138573659517,6.913567136438639,-0.9540724623972018,3.836750810910262,8.827848389902105,8.110860660314898,-1.4973407090743067,-5.101434109760368,5.221013465806272,1.421256147645836,6.960356183352593,-3.1485423303899944,12.643515102181391
55,15.416679842174675,13.933276364765254,7.725308423206317,-0.07581189628511324,4.301756647520115,9.781761949192145,8.658454517119944,-1.2584878025109196,-4.681322582413445,5.480569105443174,1.9984389568770535,7.830454770064874,-2.1585504183399884,13.46267871884175
56,16.767138200725668,15.348466629602946,8.43976489180677,0.7673934037948968,4.732127743370091,10.621989581708139,9.123804215253354,-1.0668027866596903,-4.284396205699971,5.670262486813267,2.5058314954630614,8.578290853263017,-1.1706660810272558,14.168548090536843
57,17.986307288427508,16.73068249657651,9.04248052236878,1.561237602526217,5.117079034646426,11.333453297082304,9.499249739934996,-0.9295072259261985,-3.919993510417307,5.778866371358344,2.931422023766225,9.187702063289917,-0.21119474260947962,14.741156702102346
58,19.06319159447169,18.05679976802896,9.522078153788295,2.2926400628683106,5.446521530149285,11.903811551477924,9.77882672104564,-0.8522005160650143,-3.5962875137292856,5.796865411298935,3.2654637242568634,9.646084869329256,0.6943998917613304,15.162953725814674
59,19.989713033677983,19.304091241877607,9.87053488070631,2.950012102835338,5.711359858760346,12.323772813146737,9.958351554539012,-0.8386613353117804,-3.320062798829959,5.71687907635418,3.500851660552228,9.944846303259887,1.5223951623576044,15.41951192996199
60,20.760828470588795,20.45073218455126,10.08333804017581,3.5234933470142575,5.903777207799302,12.58734994721075,10.03547035627299,-0.8907085678193748,-3.0965307314439543,5.534037024817242,3.6334199830283254,10.079713336237285,2.2516589417104296,15.500142062481126
61,21.374563490338257,21.476309951908505,10.159526974274128,4.005155968298658,6.017496546144551,12.692042783836008,10.009676892225018,-1.0081242703558733,-2.9291923944808795,5.2462893313343715,3.6621446921537797,10.05089456853266,2.864418055292221,15.398394713635033
62,21.831971520412754,22.36232693103889,10.101629988582978,4.389174012094122,6.048005689576923,12.638934614900709,9.882303687616464,-1.1886406203321154,-2.8197592424665814,4.854634648210555,3.5892395850006005,9.863095551977025,3.3469139045381984,15.112433990412262
63,22.137026544760374,23.092679653286936,9.915505902704835,4.671952039784342,5.992733135393234,12.432689708730669,9.656488081214775,-1.4279936926089725,-2.768141190233683,4.3632478136275425,3.420133598311149,9.52539101005482,3.6899120338284574,14.645266648794758
64,22.29645364282694,23.654090631499557,9.61009751123408,4.852204060182185,5.851162581204515,12.081443153641462,9.337112460609504,-1.72004687213429,-2.772509361455033,3.7794876382085363,3.163319438457723,9.050957126072722,3.8890330899264542,14.004809134339423
65,22.319497999495706,24.036466355654543,9.197103133037245,4.930972319519272,5.62487736651592,11.596580890733936,8.93071650075091,-2.056983603441344,-2.8294346356280387,3.1137699695064396,2.8300691498438666,8.45666876969996,3.9448790274516963,13.203777726013548
66,22.21763168603788,24.233156176927384,8.690573347069556,4.9115767627946605,5.317531073116615,10.992414860964962,8.445378407075287,-2.4295638839645486,-2.934094920960886,2.379301413019755,2.4340217849021717,7.762571299285272,3.8629409273496265,12.25939492222234
67,22.00419843972149,24.241091960275128,8.106442333051923,4.799489315939686,4.934745559836889,10.285763735634456,7.89056103445288,-2.8274340859566687,-3.0805370633842637,1.5916819490639014,1.9906586277707001,6.9912428989420405,3.6532907844471,11.1929162620248
68,21.693999909819002,24.060796757325928,7.462006345037888,4.60213230737493,4.483941801783927,9.495453279800502,7.276918181593609,-3.239476529461191,-3.2619749285829527,0.7683965257945602,1.5166902200216275,6.1670696022850775,3.330075969936197,10.02899350142834
69,21.302832241524936,23.69626163800336,6.775365631485643,4.3286072833693545,3.9741121233088674,8.641753037074691,6.616058173408105,-3.6541829149121634,-3.471102339628077,-0.07177525729626236,1.0293864443483793,5.315460630776369,2.9108494160525695,8.794901052585159
70,20.84698788311724,23.15470123293716,6.0648500562984795,3.989367838293543,3.4155449095638466,7.745768694315165,5.920266533397325,-4.060033589681561,-3.7003976278614172,-0.9093971318907684,0.5458860753119954,4.462035890697995,2.415778806776638,7.519661509773392
71,20.342741923624203,22.446207588092715,5.348451612246347,3.595855484231382,2.8195144599673543,6.828812368492853,5.2021959603529,-4.445863339405639,-3.942397254704172,-1.7250273319635527,0.08252419846746699,3.631819198970546,1.8667825733678467,6.2331113508153795
72,19.80584400644943,21.583326704865122,4.643287867996869,3.1601195274794946,2.19794920512444,5.911775685415577,4.47453834198648,-4.8011950713568,-4.18992106231859,-2.4998527909225183,-0.34578674092841594,2.8484691564092204,1.2866391776824222,4.964948785781999
73,19.251036192979065,20.58058277650505,3.9651187182766927,2.6944406715280715,1.5630911695793888,5.014531920318019,3.749698586543021,-5.116525676775682,-4.436240429645329,-3.2162829262323887,-0.726093456538868,2.133575160683092,0.6981105877019673,3.7438030247546386
74,18.691614785247356,19.453973159355424,3.3279347617244404,2.210974649966588,0.9271584239735287,4.1553925113796355,3.0394920162601453,-5.383552952572238,-4.675190195312987,-3.8584863555280036,-1.0478362344653729,1.5060402969692621,0.12311323899466324,2.596359355759794
75,18.13905063075019,18.220454100923366,2.74362967084033,1.7214275093283706,0.30202043590275307,3.350639373535515,2.354884694610984,-5.595338187380079,-4.901233280217064,-4.412859627960674,-1.3031705543142877,0.9815666053814974,-0.41803809094857347,1.5465680962778847
76,17.602678350331967,16.897434260139622,2.2217619031919975,1.2367692937178336,-0.30110590100877727,2.6141481640326845,1.705789263050822,-5.746405423820254,-5.109492023009283,-4.868421183692119,-1.4871725105702502,0.57225190937192,-0.9072950070331761,0.6149582160296568
77,17.08946108061415,15.502291051675542,1.7694045530013207,0.7669892878521475,-0.8719334607333663,1.9571104889991828,1.1009191595632908,-5.832784232061063,-5.295760774374582,-5.217124933524708,-1.5979290455334687,0.2863022243010138,-1.3294349907991616,-0.1819300785174372
78,16.60383474485994,14.051924684899895,1.3910778837170237,0.3208946833975501,-1.4013497493380547,1.3878566950899065,0.5476942758994363,-5.8520062057157585,-5.456509262239422,-5.454084988870463,-1.6365149725444508,0.12786137460562705,-1.6725028377473565,-0.8319829379284998
79,16.14763501799299,12.562366324736287,1.0887580951075109,-0.09404465039422719,-1.881623218374623,0.9117762812307445,0.0521842136339406,-5.803065577751369,-5.588877255028248,-5.577697813521185,-1.6068573867593903,0.09695986118527304,-1.928119098230648,-1.3278096596887226
80,15.720110347832563,11.0484583714745,0.8619573196045408,-0.471800891891595,-2.3065635905977433,0.5313299944139451,-0.3809266103995081,-5.686352359921462,-5.690652579041336,-5.58964492843917,-1.5154871753721064,0.18958612322044857,-2.091638875807197,-1.6668863426890406
81,15.318024249118766,9.523624102661984,0.707871511571366,-0.8078368857839562,-2.6716281134597804,0.24614586280221082,-0.7483643317507456,-5.503563605663882,-5.760221235684868,-5.494762450378054,-1.3711795908870112,0.39788268017647294,-2.1621470784171435,-1.8515348363376738
82,14.93584832037921,7.999739563565055,0.6215929165507807,-1.0990935406849904,-2.9739666184816427,0.053190265976838715,-1.0482865853319674,-5.257595433640179,-5.796481999096636,-5.300773773832708,-1.1844918351339804,0.7104661494250277,-2.14228459087082,-1.8887303570710334
83,14.566043275594868,6.487112879485742,0.5963817077679135,-1.343913944658448,-3.2124013942820584,-0.052996035511910164,-1.2802961846696934,-4.952415878649788,-5.798726545028084,-5.0178956531089,-0.9672141938990042,1.1128640029806052,-2.037912082216305,-1.7897402238242304
84,14.19941869577664,4.994565989851639,0.6239876456199912,-1.5419080917984789,-3.3873430374259286,-0.0800087352770301,-1.4454394118520575,-4.592917771913481,-5.76649610924906,-4.658342010145992,-0.731761080401789,1.5880528249055408,-1.8576320029131648,-1.5696077660406345
85,13.825554260790403,3.52960235760059,0.6950079911464051,-1.6937701872764472,-3.5006497363534907,-0.03725155457283593,-1.5461801932726893,-4.184753149770201,-5.699433811051402,-4.235761409645323,-0.49053796654385434,2.117073910843079,-1.6122030248081,-1.2465074643742495
86,13.433258193909827,2.098633625025106,0.7992634467286154,-1.8010684755091557,-3.55544331497069,0.0644163368672232,-1.5863447436384988,-3.7341559647533167,-5.5971562433039495,-3.7646516180399368,-0.2553272258711899,2.679694297081885,-1.3138924788401751,-0.8410077093915467
87,13.011035311295267,0.7072315651153291,0.926171343901238,-1.866032266825469,-3.5558990723249577,0.21304271801946995,-1.5710355973943728,-3.247765380864955,-5.4591669632131685,-3.2597960543834565,-0.03673728173579792,3.2550773434767426,-0.9758179551325575,-0.375283923562369
88,12.547539305938248,-0.6396284122648702,1.0650965429389914,-1.8913597520388674,-3.5070268642488402,0.3959431743771694,-1.506516687681281,-2.732463882999584,-5.284826591611428,-2.73576034935585,0.1562468432631462,3.8224291015370992,-0.6113263583567031,0.12767506975749804
89,12.031991367251528,-1.9373592293679711,1.2056660051735937,-1.880063220236149,-3.414457978171199,0.6000529607918383,-1.4000717488084524,-2.1952409513678193,-5.0733803009753755,-2.206472759424955,0.3165867352338901,4.3615951555426,-0.23344737280696815,0.6448312857599677
90,11.45455705805136,-3.1816056706865163,1.3380406626037724,-1.835358362375135,-3.284247242038395,0.8122653891871091,-1.259838064248044,-1.6430857934006566,-4.824028350131563,-1.6848936063188003,0.4393793873093013,4.853594598180949,0.14555802283398236,1.1538074518895673
91,10.80668156591159,-4.368144381820485,1.4531446017783864,-1.7605952848319992,-3.122694163304912,1.0197534448586079,-1.0946177270060595,-1.082905330974091,-4.536015428877627,-1.1827625975997058,0.5219186354862534,5.28108854023374,0.5145494070565274,1.6335284076465058
92,10.081387271162326,-5.4928368274198665,1.5428544703866849,-1.6592227621293554,-2.93618231400281,1.2102714742655707,-0.9136690293016201,-0.5214591973834642,-4.208713791535189,-0.7104042731522419,0.5636462874274131,5.628786276662675,0.863765905949259,2.0647864374053273
93,9.27353664608845,-6.5516268858780835,1.600151510285476,-1.534774300838642,-2.7310337507194498,1.37243432426862,-0.7264804017999473,0.034697502587616245,-3.8416830083094884,-0.2765727312097983,0.5660136796500339,5.883791940296603,1.1850035780634625,2.4307241472975463
94,8.380059210802145,-7.540573196162351,1.619236216394017,-1.3908645923976959,-2.513375383633396,1.4959728056885004,-0.5425284603863321,0.5792711767335594,-3.4347023392602734,0.11167454455855873,0.5322727304776096,6.035889700204003,1.4717205852454434,2.7172264020548638
95,7.400135920562836,-8.455907461330224,1.5956032014043944,-1.2311875769288654,-2.2890163158081944,1.5719659022305457,-0.37102150872817474,1.106290317134157,-2.9877858182596917,0.44907168171722167,0.4672107364760695,6.077759503867151,1.719074534687483,2.9132107347226555
96,6.335330655189865,-9.29411240453072,1.5260734275255523,-1.0595110771970764,-2.0633377401511397,1.593050481187969,-0.2206312170351126,1.6101692074838336,-2.5012001534209136,0.7321958346785938,0.3768383072048903,6.005111909863151,1.9238928073164736,3.0108064388730824
97,5.189658574061799,-10.052014831799864,1.408783989385385,-0.8796654465459645,-1.8411984676695536,1.5536079414168156,-0.09921768235333406,2.0857714381120305,-1.9755076120938941,0.9594590160312433,0.2680380623527452,5.816732481811785,2.0845776977161297,3.0054175239798795
98,3.969585242832391,-10.726888454045243,1.2431416967981255,-0.695523719713331,-1.6268590662982554,1.4499245036729145,-0.01355597234077658,2.5284697605928113,-1.4116498335132752,1.1310289827691993,0.14818446213584102,5.514433365662969,2.2009535903422606,2.895673028527091
99,2.6839566471329763,-11.316557826791374,1.0297532275728658,-0.5109692254918229,-1.4239264757679078,1.2803181692007475,0.030924365838196164,2.934200436642235,-0.811077123409573,1.2486782763674988,0.024751250409267466,5.102919024684183,2.2740705206929,2.683277591076141
100,1.3438654476925225,-11.81949126696086,0.7703481077245208,-0.3298455484556734,-1.2353197110735814,1.0452217291729475,0.03037139958285671,3.2995112318875868,-0.175915148298202,1.3155722176945048,-0.09507079331395882,4.589580647264888,2.3059842423306374,2.3727829465781953
101,-0.03753912335047407,-12.234869786747261,0.46770899640577646,-0.15588492395721412,-1.063256427473107,0.7472092891827872,-0.017304459442037484,3.6216012774094835,0.49084979170136916,1.3360151815895185,-0.20472049141359042,3.9842366596724776,2.299535022318709,1.9713045527476154
102,-1.445291564686887,-12.56262205941223,0.1256172687747671,0.007385022001118049,-0.9092596915718193,0.3909550369470616,-0.11231320381849162,3.8983491934746475,1.185192123307442,1.3151773556083628,-0.298554952364957,3.298834784392689,2.2581447110254067,1.4882056066756475
103,-2.8628971485416885,-12.8034208765717,-0.25118647993775767,0.15675132981276566,-0.7741839507274354,-0.01688251168076414,-0.25295256207840566,4.128325238405638,1.9019009329859777,1.2588217386014242,-0.37206542676751536,2.54712625006045,2.185644758840187,0.934764640139874
104,-4.272664231925253,-12.958642358626966,-0.6570347134986542,0.2894337824624522,-0.6582586807188563,-0.46785115176913084,-0.4356696418068605,4.310784926249554,2.6344880243685735,1.1730456069599415,-0.4220144436012442,1.7443178283919973,2.086139062268365,0.32383587035221884
105,-5.6560804487776055,-13.030294141389547,-1.0853704308640042,0.40320030727288647,-0.5611475582507878,-0.9519643550822214,-0.6552165118306065,4.445644981666053,3.3751641462755018,1.0640446578208702,-0.4464960369811301,0.906704141993595,1.963897754209775,-0.3304938691574204
106,-6.994229501558942,-13.020922625805557,-1.5288039899254375,0.4964687017102504,-0.4820203975154715,-1.4580180014332718,-0.9048890812466602,4.533446235383057,4.1148892639272505,0.9379036147651653,-0.4449258288703736,0.051281808698138205,1.8232734699083657,-1.0132507756437095
107,-8.268241839280611,-12.933511939875888,-1.9792024471409468,0.568384451881582,-0.41963456532170107,-1.9739500595133823,-1.1768305388064253,4.575310716357922,4.843496134426395,0.8004152897147507,-0.41796980764313396,-0.8046516089090355,1.6686308955998899,-1.708922555644581
108,-9.459768144779229,-12.77138795570617,-2.4278213752020577,0.6188662728646989,-0.372422087177376,-2.487227801007175,-1.4623762137887277,4.57290073747583,5.549882640289496,0.6569303167841792,-0.3674207663389127,-1.6439081067056407,1.504282810361136,-2.4018097562799015
109,-10.551460187918353,-12.538139130999525,-2.8654843047431995,0.648613964483233,-0.33857817099755166,-2.9852472776018746,-1.7524164017670598,4.528385717563597,6.222266828370484,0.5122402219437986,-0.2960311674112337,-2.449820874741882,1.3344294645339523,-3.0763788783928887
110,-11.527440579121777,-12.237562674177001,-3.282809405550826,0.6590766679031308,-0.3161466637516077,-3.4557303783684308,-2.0377568258278718,4.44441808057584,6.848497459560493,0.3704955959934584,-0.2073123584221359,-3.2066475365263143,1.163100562599313,-3.7176149842739727
111,-12.373742405958925,-11.873640871236255,-3.6704778119819443,0.652382758137226,-0.3030984684481649,-3.8871060449336907,-2.309461755554909,4.324113776795144,7.416410243268149,0.2351583833166925,-0.1053131961232577,-3.899955688589462,0.994098921096159,-4.311370834624106
112,-13.078701636119533,-11.450549126681986,-4.019533512520675,0.6312349727541329,-0.2974004013196795,-4.268864626287462,-2.5591707715233736,4.171027451952825,7.914215624844608,0.10898353321128583,0.005605337853996176,-4.51698220705498,0.8309430927555882,-4.84470908537536
113,-13.633288280953455,-10.972693993638664,-4.321700583097845,0.5987761353121873,-0.2970739629090919,-4.591877421129554,-2.779384664713683,3.989109456301891,8.330899998300998,-0.00597732845852876,0.1209823518844963,-5.046957719754647,0.6768057250125673,-5.306232361133098
114,-14.03136525388018,-10.44477559209255,-4.569699694416867,0.5584323594889584,-0.30024513404307085,-4.848675593116603,-2.9637171294639844,3.782634031885319,8.656621457093022,-0.10835678896342359,0.23644342933287585,-5.481385874477057,0.5344470904208721,-5.686392246392418
115,-14.269866364346942,-9.871864674659882,-4.757543379912001,0.5137420226020905,-0.3051868577870653,-5.033682449154202,-3.1071066047567206,3.556095446177054,8.883085050634442,-0.19743960208975017,0.34785655366185336,-5.814264609135267,0.40614804820602635,-5.977763628446566
116,-14.348887831576153,-9.259481546371816,-4.880790028023831,0.4681797552946509,-0.3103553862580189,-5.143390903476651,-3.2059790540964843,3.3140788167869673,9.003889172502767,-0.27311548194219937,0.45146010964543687,-6.042236188317764,0.29365056923120497,-6.175268248522718
117,-14.271691642874725,-8.613663251943642,-4.936740373814876,0.4249847536302995,-0.31442084404880927,-5.176475904028816,-3.2583506935984126,3.0611206229771546,9.014840219433578,-0.3358122382649177,0.5439683710595891,-6.164655947289045,0.19811457800327076,-6.276332820221522
118,-14.04462307893566,-7.941006750068601,-4.924566094835971,0.38700188644897154,-0.3162917620983135,-5.133831681363725,-3.2638612134839806,2.8015774491438643,8.914233736887608,-0.3864059585840944,0.6226584181058159,-6.1835752085480875,0.12009738316255682,-6.280971890455185
119,-13.67694707368511,-7.248678030536058,-4.845365668123904,0.35654300977905246,-0.31513302152896805,-5.01852639441,-3.2237321424728798,2.5395200216301914,8.703096142102341,-0.4261084242895403,0.6854391988174275,-6.1036388168233,0.05955830726071294,-6.191790749048269
120,-13.180608143692949,-6.544379495665739,-4.702146139035499,0.3352753184827793,-0.3103764174769585,-4.835671406468504,-3.1406500731978317,2.2786644623206826,8.38537327681004,-0.45633606443485253,0.7309011750643862,-5.931900508822638,0.015888384834893615,-6.013906534759461
121,-12.569917600812085,-5.836270568348577,-4.499730799022569,0.32414349077258364,-0.3017228192177132,-4.592208131215901,-3.0185798480340487,2.022345406335488,7.968042943502672,-0.4785686650976704,0.7583446003149582,-5.677560605275962,-0.01203592896387213,-5.754786166325799
122,-11.861171565825282,-5.1328397560466,-4.244593540797265,0.3233321785198959,-0.2891347495897138,-4.296621424803309,-2.86251891988705,1.7735272699450422,7.461120941191592,-0.49420937319635827,0.7677851259827305,-5.351632057522017,-0.025776115237834903,-5.423999976173417
123,-11.072205251291184,-4.442730277848802,-3.9446228886118644,0.3322742077045755,-0.27281835476915817,-3.95859418564132,-2.6782110324743607,1.5348415407164324,6.877526820622996,-0.504459804934474,0.7599357752428594,-4.966543876019789,-0.027234189160680725,-5.032892252876354
124,-10.221893467959474,-3.774525849235014,-3.6088234357578166,0.3497069348039826,-0.2531944621091264,-3.588622273437821,-2.4718437427034994,1.3086312206752941,6.232779187740493,-0.5102249564776444,0.7361633603259191,-4.5356956724225155,-0.01854025072884335,-4.594175406068332
125,-9.329613551167144,-3.136508199151119,-3.2469688341309735,0.3737745372614572,-0.2308597352865731,-3.1976110514835288,-2.2497574756563936,1.096981119264018,5.544502457193893,-0.5120616699615463,0.6984153938170353,-4.072982719349521,-0.0019357380156026418,-4.121462488714146
126,-8.414692539401278,-2.536402032919545,-2.8692260123676565,0.4021689425074851,-0.20654030468139936,-2.796474246012047,-2.018191127754419,0.9017169276474881,4.8317475880766505,-0.5101804548535926,0.6491129062971417,-3.592315287588322,0.020333785481415744,-3.6287605673055707
127,-7.495862694345666,-1.9811243189650762,-2.4857722186652538,0.4322985202277053,-0.1810410128736144,-2.395752906706401,-1.7830802039449656,0.7243666243109926,4.1141560940307125,-0.5045025341167962,0.5910083911463788,-3.1071562704820113,0.04610476974218843,-3.129951449076859
