,AF3,F7,F3,FC5,T7,P7,O1,O2,P8,T8,FC6,F4,F8,AF4
0,2.4399298379331915,0.3750097458546137,-2.588476062919623,0.3590087135195062,0.20703936149845012,-0.3842018559597676,-2.112851202520077,-4.266535061510334,-1.3849472045642974,-1.6652811711161333,-2.474628423819487,-3.1794968312813996,-1.6561477357030756,-0.30932572201097097
1,2.322215023941991,0.6129569505722716,-3.2547571866976477,-0.13978664392585194,0.15090742118999853,-0.02723270420148615,-2.4409399209721374,-5.8055961194544565,-3.1725890141235666,-2.6736658023372413,-3.700074704710718,-4.17862961463139,-2.7217793945893347,-1.6348180141138087
2,2.1983782090234323,0.820770308396916,-3.9254972107640156,-0.6465224447057608,0.08764378276034201,0.3342072215843125,-2.772831247068599,-7.347302954074075,-4.9432480014014635,-3.663254960168147,-4.921517028779555,-5.18169089107332,-3.7771442967198294,-2.9519751095838456
3,2.075872434448279,0.9780869103919985,-4.591671990663593,-1.1671687403945978,0.011255265790862052,0.6979198687067043,-3.102467740745896,-8.86669232937964,-6.665124038670197,-4.607088832670105,-6.119075806689352,-6.169247014782005,-4.803630404570835,-4.235852959045274
4,1.9621444886194184,1.0664616555377915,-5.244443562981113,-1.7068856420287712,-0.08355728401947879,1.0613927130454817,-3.4241774890162984,-10.339422807267294,-8.3080260883393,-5.4802895430724705,-7.273730352116651,-7.122744775366686,-5.78355418750842,-5.462872253956449
5,1.864210085382401,1.0699895152131125,-5.875475880097849,-2.2697899028712545,-0.20115829459805176,1.421812649118095,-3.732889592111526,-11.742531273742753,-9.844377493244467,-6.261116504227207,-8.368065125383717,-8.025316936261762,-6.70088759566569,-6.611821883649198
6,1.788235861819765,0.9758270385108091,-6.477237931721843,-2.858775233362692,-0.34477731175598064,1.7761051007676776,-4.024299040753591,-13.055088617865348,-11.250068629788224,-6.931842698913307,-9.386922782825971,-8.862491948532652,-7.54190738563989,-7.664755851267853
7,1.7391453755160444,0.7745917778629922,-7.043283080023572,-3.475394081691267,-0.516360189609465,2.120997699230713,-4.29497422122623,-14.25872851543517,-12.505120827726996,-7.479412871132846,-10.317934494127947,-9.6227755014971,-8.295736278922302,-8.607744132645907
8,1.720268170299603,0.4606229820238938,-7.568491861409815,-4.119804680080508,-0.7164817555667579,2.4531040507426773,-4.5424049848284085,-15.338035383649833,-13.594143143624088,-7.895861639537473,-11.151908357320357,-10.298078447447573,-8.954752711634097,-9.431444000307721
9,1.7330527084815424,0.032093170796995314,-8.049263685298182,-4.790782503258669,-0.9443277688696644,2.7690211175534274,-4.764992279682592,-16.280789744642384,-14.50658087071661,-8.178485457101365,-11.883066652670973,-10.883972454000642,-9.514853871304501,-10.131464547416439
10,1.776863525585339,-0.5090328335021639,-8.48364199836607,-5.485791354519304,-1.1977503814472068,3.0654337935311404,-4.961982206720173,-17.07807992227412,-15.236768876280035,-8.329776282962143,-12.509131355883147,-11.379762188311547,-9.975564693864964,-10.7085048590322
11,1.8488792580650482,-1.1571880151904175,-8.87135895021367,-6.201107031083448,-1.4733969970008118,3.3392213506147637,-5.133349186990473,-17.72429696299747,-15.783812472331611,-8.35713631321775,-13.031264811428313,-11.788371835558513,-10.339993364412198,-11.16825689161724
12,1.944102087664245,-1.903532316897056,-9.213789699836312,-6.931985360428499,-1.7669077425916413,3.587561170863967,-5.279635374004503,-18.2170338722765,-16.151323054461752,-8.272401086691115,-13.453878442197617,-12.11605359857755,-10.614641094380836,-11.521076908361458
13,2.0554820396106646,-2.736403748500271,-9.513812565951254,-7.672865273271065,-2.073171836948685,3.8080251736330943,-5.40175627080163,-18.556910110206314,-16.34703561475896,-8.091202236047762,-13.784326444544352,-12.371935135655193,-10.809079967811604,-11.781442230333713
14,2.174152190081133,-3.6418671313573823,-9.775578301105353,-8.417596019788911,-2.386628056473382,3.9986645012912776,-5.500784889479441,-18.747338212889826,-16.382331526140394,-7.832202096104649,-14.032503555916913,-12.56743100360084,-10.935517149021596,-11.96722144273661
15,2.2897633686663066,-4.604329750891383,-10.00419915103697,-9.159675903566548,-2.7015896266613915,4.158079108066449,-5.577728136785427,-18.79424325901236,-16.271684489609452,-7.516232127667347,-14.210366598962736,-12.715550029619651,-11.008266593765585,-12.098795340713899
16,2.390899707519547,-5.607189340776889,-10.205375501200281,-9.892488705566805,-3.0125700397825126,4.2854704461150614,-5.633309572535833,-18.70574057216103,-16.0320428171447,-7.165367085998861,-14.33139940839435,-12.830136080591414,-11.043150833972547,-12.198072799303485
17,2.465550204975315,-6.6334796007685215,-10.384984110947158,-10.609524168597643,-3.3145846478952747,4.380676488052596,-5.667772674615671,-18.491775063879203,-15.682159799152462,-6.801967714619162,-14.410040780232997,-12.925083696428192,-11.056856008764578,-12.287450577801202
18,2.5016074045991803,-7.666481441669489,-10.548656360404113,-11.304571084022975,-3.6034043433285334,4.444188501243887,-5.680718381462007,-18.163727791511473,-15.241886794236693,-6.447726637452403,-14.46109562023461,-13.013572108214866,-11.066263564219511,-12.388768754449398
19,2.487363235986226,-8.690273008231763,-10.701376806331288,-11.97187525622415,-3.8757423397490607,4.477148625526064,-5.670989898405358,-17.734000410437112,-14.731449738942894,-6.122754558588111,-14.499150222209686,-13.107360666456515,-11.087781983040452,-12.52231365654261
20,2.4119745299718867,-9.690197075558737,-10.847131025487796,-12.606258434841598,-4.129362022877822,4.481326994195106,-5.6366163447326345,-17.215593822083893,-14.17073623779039,-5.844745322696296,-14.538012706774039,-13.216184846055658,-11.136701298029383,-12.70591716095417
21,2.265876453836946,-10.653230154410718,-10.988627083297603,-13.203196857661467,-4.363101609222885,4.4590774883537065,-5.574824378486376,-16.62170122033941,-13.578624440913527,-5.628257018282478,-14.590198071891924,-13.347284236193861,-11.22659172268663,-12.95419446649521
22,2.04112961369235,-11.568243609570589,-11.127107817831416,-13.75885939560193,-4.576818915929141,4.413272576598788,-5.482123233469258,-15.965336790140057,-12.972385298624811,-5.484141589762376,-14.666473887199569,-13.505083065573661,-11.36876553642903,-13.277952216383255
23,1.731693754411197,-12.426153223185876,-11.262262841146889,-14.270106364758323,-4.771266197404467,4.347219783404308,-5.3544639132002185,-15.259019208676873,-12.367186662469232,-5.419148311540084,-14.775478489643906,-13.691032109601935,-11.571818820831886,-13.683786854605248
24,1.3336269092522137,-13.219959185055776,-11.392240561146625,-14.734451198212597,-4.947909784928046,4.264564344062118,-5.187467854577917,-14.514523521431732,-11.775720950396215,-5.435717769364035,-14.923419515533142,-13.903609996473133,-11.84126679658838,-14.173880860122567
25,0.8452140634952215,-13.944682540514775,-11.513751750936873,-15.14998800450057,-5.108711333994452,4.169183840723405,-4.976713981288149,-13.742705807839808,-11.207967150051857,-5.531972396216038,-15.113856270959946,-14.138471602242475,-12.179282529643844,-14.74599209020374
26,0.2670340755359158,-14.59720678568192,-11.62224793585889,-15.515288689038105,-5.255887078579006,4.065080729291094,-4.718066078270643,-12.953393974058937,-10.671084340193671,-5.701897127994095,-15.347564414439251,-14.38872076374025,-12.58454331984028,-15.393618982647732
27,-0.39802368088019585,-15.176036005074016,-11.712152129961542,-15.829274618935816,-5.391660046973882,3.956277301914199,-4.408016890032542,-12.155329055583673,-10.169422627377248,-5.935691578559184,-15.62247736028933,-14.645275808298054,-13.052183866996089,-16.106314065483478
28,-1.144782452490574,-15.680985237672827,-11.777118261936966,-16.091070423574266,-5.518019317934575,3.8467145903333018,-4.0440237634305065,-11.356138788127106,-9.70463357268737,-6.220267045679039,-15.933698392310832,-14.897292973416052,-13.57385313099358,-16.870113503222026
29,-1.9658352946475572,-16.112824733390728,-11.810299185379368,-16.299851143627254,-5.636500591300044,3.740153059133232,-3.624813425289696,-10.5623299362994,-9.27586641316572,-6.5398598212449075,-16.273581535283206,-15.132616480376948,-14.137873803638566,-17.668052690107253
30,-2.851637380293331,-16.47290563874526,-11.804609642633201,-16.454697397364697,-5.74800260664965,3.6400710802070613,-3.1506385539344954,-9.779294931131625,-8.880044109299238,-6.876735095965658,-16.631885662768347,-15.338233216031025,-14.729507553327291,-18.480745173431718
31,-3.7906406187562247,-16.762797914975966,-11.752977501917256,-16.55447513477542,-5.852652756033597,3.549558835336706,-2.6234737531984367,-9.011337055459984,-8.51221868956061,-7.211959164119253,-16.99601146686186,-15.500720890232111,-15.33133197388273,-19.287010393571983
32,-4.769480850487313,-16.983970384434553,-11.648582137877886,-16.597755970357845,-5.949732009413537,3.4712095389557156,-2.0471423225256635,-8.261723196471573,-8.166005127374177,-7.526218141825567,-17.35133149154506,-15.606687219530219,-15.92373338247011,-20.064541160373462
33,-5.773226688463442,-17.13753776023172,-11.48508182776592,-16.58279085413952,-6.037664574747545,3.407014037831017,-1.42736805262836,-7.532772803283005,-7.834086679789483,-7.80065776752412,-17.68161797282871,-15.643201500446631,-16.485512281049925,-20.790602748999593
34,-6.78569402906489,-17.224091623999307,-11.256832231637572,-16.507544582049128,-6.114072543333189,3.358267046320293,-0.7717488096603656,-6.825986966729422,-7.508774090337908,-8.01771223213055,-17.96956303054161,-15.598218713155132,-16.994586926887273,-21.442752600255286
35,-7.789823549445917,-17.24362369904964,-10.959096575057067,-16.36979270384377,-6.175891085332828,3.325493412120374,-0.08965149054015303,-6.142214765131527,-7.18258979189788,-8.161883478647646,-18.197374531054116,-15.460992395433035,-17.4287687901741,-21.99956508639901
36,-8.76811300844941,-17.195542636588833,-10.588247022384419,-16.1672772180355,-6.219536325504696,3.3084015880292528,0.6079687534702101,-5.481847823654025,-6.8488401072817355,-8.220429610557767,-18.347422664542044,-15.222468923940122,-17.766575940892825,-22.441342288706746
37,-9.703093227690111,-17.078780778131854,-10.141956669310796,-15.897913619957064,-6.241116117436275,3.305869503366791,1.3088186698147293,-4.8450299402234815,-6.50213577716403,-8.18392406442421,-18.40290865584984,-14.875653824383205,-17.988048411602094,-22.750790651335734
38,-10.577835018982007,-16.89198380901791,-9.619381205336516,-15.560038769384471,-6.236673191931268,3.3159657250251864,1.9995771937912454,-4.231866446665435,-6.138823832760311,-8.046655523103842,-18.348526846232136,-14.415939572193134,-18.075531529726476,-22.913643870957245
39,-11.376471693570165,-16.633771831312117,-9.021326701776877,-15.152685654657263,-6.202449744902755,3.3360065789684845,2.666255062041073,-3.64261681630021,-5.7573002846027155,-7.806849536710943,-18.171092282914124,-13.841382824510664,-18.014395800807506,-22.919212249162623
40,-12.084717157859382,-16.303054230898695,-8.350394947617803,-14.675867067203932,-6.1351615348549515,3.3626479171822425,3.294592943448271,-3.07785399193714,-5.358182130549122,-7.46670371224809,-17.860106757014577,-13.152916888376167,-17.79366350460692,-22.760836896768303
41,-12.690354359524937,-15.899373828963503,-7.611092108216788,-14.130846124727697,-6.032267696944691,3.392008201105779,3.8704879496104376,-2.5385763173124234,-4.944328816351369,-7.032238446469033,-17.40823774535217,-12.354483506783584,-17.40651390409018,-22.436225091928605
42,-13.183665540923535,-15.423250372844455,-6.809882738743672,-13.52036883413867,-5.892220306669744,3.4198173186830236,4.38043798088452,-2.0262636593116476,-4.520717350967829,-6.512975817883382,-16.81168841659939,-11.453068364511969,-16.850643203165,-21.947643542943847
43,-13.557776088905664,-14.876491202555734,-5.955171008318358,-12.848833620807717,-5.714675932168349,3.4415835900981793,4.811991201588645,-1.5428769744762483,-4.094189369132614,-5.921470824469081,-16.070442871636807,-10.45862807101615,-16.12846285329917,-21.301950942491317
44,-13.80888782223303,-14.26243838295296,-5.05719461948274,-12.122375452127839,-5.500650555310272,3.4527708639819163,5.154185389581072,-1.090807163313429,-3.673098309415829,-5.272729207689553,-15.188377463784924,-9.383902374603773,-15.24712868900115,-20.510459423585036
45,-13.93638462203554,-13.586126349287358,-4.127823666920157,-11.34884798498641,-5.252600297549624,3.448978991324232,5.397960652078845,-0.6727822566119208,-3.266887939285951,-4.583551482684812,-14.173234874723192,-8.244112879931201,-14.21840148339689,-19.58862463041271
46,-13.942802605739713,-12.854331726790972,-3.180265482429738,-10.537695816734399,-4.974414513003302,3.4261233150706585,5.536529005494238,-0.291742054047744,-2.8856311910952557,-3.8718429449945537,-13.036462767268802,-7.056557681262503,-13.058346478135544,-18.55557467799242
47,-13.833667176786694,-12.075506539771027,-2.228685689325246,-9.69971897527013,-4.67131510889399,3.3806101453564983,5.56568442994201,0.04931164743055435,-2.539554326705053,-3.155926136147447,-11.792924206674176,-5.840119076464385,-11.786885633662544,-17.433497928947734
48,-13.617208187101442,-11.25959585224243,-1.2877633226543193,-8.84674101146008,-4.349665089384829,3.3095040976909096,5.4840368429232536,0.3474815737652998,-2.2385679747500404,-2.4538869542986417,-10.460492711174098,-4.614707287531663,-10.427221074798654,-16.246916580846055
49,-13.30397096974997,-10.417749755340527,-0.37220308242709826,-7.991199369879979,-4.016698380766794,3.210680109687653,5.293153830604197,0.6001504834833742,-1.9918234278396691,-1.7829787434360471,-9.059549977840762,-3.4006657103161024,-9.005150690640262,-15.021876697718795
50,-12.906345709432575,-9.56194748721413,0.5037690018014299,-7.145682630690289,-3.680190259443774,3.082950081426767,4.997596179375048,0.8051577921930568,-1.807309230257733,-1.1591011299762302,-7.612408062862989,-2.2181629631727042,-7.54829782153502,-13.785086342314424
51,-12.438041425717564,-8.704558255525756,1.3268985703271272,-6.322444006853648,-3.3480919764102564,2.926153721263805,4.604838136600743,0.9609694896226842,-1.6915000209373932,-0.5963635447453951,-6.142679328825215,-1.0865951258165338,-6.085277864753822,-12.563033170626618
52,-11.91353372876356,-7.85786812680739,2.0853568342561952,-5.532923105913271,-3.028154169351102,2.7412060859510974,4.125070860665633,1.0668335539078264,-1.6490677549241262,-0.10673831379597926,-4.674616865396892,-0.024019193582397163,-4.6448261650421925,-11.381111935307464
53,-11.347516869369692,-7.033604347399008,2.7691299791778254,-4.787307158718714,-2.727562060819364,2.530099334434148,3.5708966855364235,1.1229131540686517,-1.6826645892059173,0.30019506756004005,-3.2324462592418914,0.9533634176283913,-3.2549135911345033,-10.262791123844124
54,-10.754389910084889,-6.242487712432809,3.370323253450819,-4.094158616357721,-2.45260236590486,2.2958613928617395,2.9569310624161353,1.130390843096234,-1.7927848434217226,0.6174153254404436,-1.8397073670974273,1.8316564569543201,-1.941878127130371,-9.228846617470538
55,-10.14780400660618,-5.493840863592977,3.883364944781866,-3.4601297541257834,-2.2083782726994934,2.042477785166747,2.2993364259981206,1.0915393255573849,-1.9777086093583913,0.8405379880078107,-0.5186226490407713,2.5996365785906166,-0.7296022218453829,-8.296688923451434
56,-9.540293411706612,-4.79527672028697,4.3051013386650645,-2.8897787898616882,-1.998585460911993,1.774783693386162,1.615315727697607,1.0097574981619393,-2.2335226864544024,0.9678133613827832,0.7104924981470062,3.249025797115428,0.36123309456740854,-7.479809508502446
57,-8.943007602063211,-4.152487022752162,4.634778510201721,-2.385496760806686,-1.8253589813814972,1.4983314836047947,0.9225920356050735,0.8895725659345525,-2.5542089158524517,1.0000516464833946,1.8297613742125414,3.77465598446066,1.3137850563376874,-6.78737097014145
58,-8.365555816541109,-3.5691453772937076,4.8739112152133135,-1.947548911148812,-1.6891975647930726,1.2192359850894094,0.23889547767080968,0.7366091530149137,-2.9317884084492665,0.9404829013630774,2.824201916527771,4.174513842214038,2.115544851742841,-6.223963797980359
59,-7.815967765655864,-3.0469313830210254,5.026044667712196,-1.5742275464433522,-1.588968313806678,0.9439974850332772,-0.41852799859092593,0.5575249219503909,-3.3565127808895197,0.7945587051474723,3.6820885760620436,4.449658224633682,2.758663727182372,-5.789547192285856
60,-7.300765302398501,-2.5856728071998414,5.0964218857650225,-1.2621056525856091,-1.5219909345801692,0.679301606043593,-1.0333782751026817,0.3599103331256701,-3.8170982635025146,0.5697018036465735,4.395203578911863,4.604008436281309,3.2400892320627652,-5.479582052308298
61,-6.825130043622697,-2.183592660745452,5.091576729236823,-1.0063732298964423,-1.4841968452338175,0.4317963920459629,-1.5907303392216778,0.15214876650622447,-4.301002379973601,0.2750104560270337,4.958965652060528,4.64401141993677,3.561503136732217,-5.285352102323284
62,-6.393142249189216,-1.8376385675672964,5.018879867553809,-0.8012319361885215,-1.470354499236368,0.20785025271684357,-2.0774299705635335,-0.056766840187781484,-4.79474341733071,-0.07907405731204072,5.372431018868931,4.578206094033567,3.7290661408503585,-5.194456336150651
63,-6.008058157118379,-1.5438640887488633,4.886070703568395,-0.6403187262174915,-1.4743481009398367,0.01329927451846314,-2.482452067287569,-0.257462776114222,-5.284259835735002,-0.4811257584334433,5.638169392739732,4.41671298881577,3.7529877195417622,-5.191444366415423
64,-5.672588454085615,-1.2978271028091837,4.700811162038807,-0.5171267064365528,-1.4894932651364534,-0.1468026907716851,-2.7972125893724895,-0.44045683267028946,-5.755301943867266,-0.9191050742228848,5.7620257031213455,4.170684988642788,3.646950428690006,-5.258557189751653
65,-5.38914131286809,-1.0949703502307557,4.470295846590025,-0.42539242046699055,-1.508871024348796,-0.26841419401163397,-3.015819843925728,-0.5964669855468865,-6.193844009704859,-1.3807292901907062,5.752784894541881,3.851758612160546,3.4274253428797414,-5.376530222729483
66,-5.159999602044125,-0.930954086624183,4.20094733887359,-0.3594232224992377,-1.5256613613648828,-0.3486982679842717,-3.1352477851292395,-0.7167439816273516,-6.586503077351442,-1.8538302795233894,5.621761256349043,3.471544103903454,3.112918539762149,-5.5254137152774705
67,-4.987411987412228,-0.8019191978012434,3.8982165374500757,-0.31434519392048615,-1.533458950190233,-0.38615938451958104,-3.1554140810695888,-0.7934107594907118,-6.920951099374937,-2.32668964609998,5.382335412598764,3.0411872770720563,2.723188235177213,-5.685367970173084
68,-4.873589518812315,-0.704668955736511,3.5664974123169197,-0.2862599345762261,-1.5265564508950535,-0.38071244306759633,-3.0791489479555723,-0.8197889318593787,-7.186307785988036,-2.7883435768465556,5.049462007521331,2.571027674484636,2.278469482445925,-5.837396838222891
69,-4.820610814257069,-0.6367666104708636,3.2091548029231487,-0.2723065773450004,-1.5001838289374647,-0.33367754605336797,-2.9120469646093734,-0.7906923439716766,-7.373500699910103,-3.22885124749809,4.639169689933249,2.070367347886322,1.7987393003329617,-5.9639915749915895
70,-4.830248408375679,-0.5965525793123991,2.8286542191622046,-0.2706328322852431,-1.4506953019694708,-0.24770220185865946,-2.6622029176363733,-0.7026701567205208,-7.47557664834201,-3.639521440167967,4.16807237225579,1.547353738212866,1.303050216619055,-6.04966668329633
71,-4.903735274991185,-0.5830885601617449,2.426775136778752,-0.2802849787014155,-1.3756985420942547,-0.1266201184635873,-2.3398430464978013,-0.5541867224965362,-7.487946933375383,-4.013092383794696,3.652907311877084,1.0089703339603524,0.8089547275241087,-6.081378160008545
72,-5.0414939329298285,-0.5960371132103344,2.004884801891614,-0.3010306741551526,-1.27412352089205,0.024738941604740456,-1.9568726746269627,-0.34573171253563567,-7.408550902088377,-4.343860151949738,3.1101121046328872,0.4611212723724169,0.33203728354911144,-6.048821278636197
73,-5.242851556192661,-0.6354856729292714,1.5642480027337977,-0.3331302140879897,-1.1462305750212498,0.2007717681132342,-1.5263681290719602,-0.07985989315363547,-7.237927516788872,-4.6277515948540895,2.5554497099957514,-0.09120880636828783,-0.11443572628546488,-5.944609397713295
74,-5.505764032614007,-0.7017252367194571,1.106348392459174,-0.3770726766486934,-0.993558936778289,0.3953410229384328,-1.062044360009893,0.23883570582451988,-6.979191829153745,-4.862339001156147,2.0036879439816033,-0.6437411092655487,-0.5197438569967833,-5.764338375959414
75,-5.826570510151939,-0.7949966396388498,0.6331975549549579,-0.43329443235988885,-0.8188186037535964,0.6020174687843265,-0.5777297372866648,0.6038114800574427,-6.637920524191366,-5.046795488132008,1.4683371527011064,-1.1926579179080794,-0.875820315603972,-5.506543987703844
76,-6.199797623152918,-0.9152202559783361,0.14760930153136398,-0.501898584019813,-0.6257303153692303,0.8143135603999009,-0.08687602261087468,1.00671677084562,-6.221956081243985,-5.18179215312196,0.9614472206624576,-1.7343488457294223,-1.1772463534716904,-5.17256196236559
77,-6.618029281892919,-1.061726829281277,-0.3465805972282721,-0.5823941980960183,-0.4188203943201284,1.0258994010503262,0.39787492473465874,1.437591030875221,-5.741140933902942,-5.269340181212554,0.4934629171932899,-2.2651679629127774,-1.4211425594703195,-4.766301551868174
78,-7.071854099102775,-1.233007679985089,-0.8443651972826853,-0.6734736858495985,-0.2031790981795659,1.2307948501162735,0.8650537678177419,1.885115248602102,-5.206991633492362,-5.312583883149763,0.0731346731201253,-2.7812183825880736,-1.6069697903442353,-4.293944530581147
79,-7.549898693218032,-1.426501970576044,-1.3394993604860352,-0.7728456466227273,0.015807050154874956,1.4235341446377316,1.304648605946841,2.33691876765947,-4.632320574765298,-5.3155540316737655,-0.2925196989526736,-3.278177617985628,-1.7362545081414058,-3.7635826926284355
80,-8.038951266425936,-1.6384367222946297,-1.8245218099632206,-0.8771382022251001,0.23273667198301795,1.5993013812794952,1.7083103482835253,2.7799403972309125,-4.030811291271518,-5.282893628835015,-0.5982074851852226,-3.7511737743921136,-1.8122542306461402,-3.184807587592303
81,-8.524175947758149,-1.8637316933058572,-2.2908678130400926,-0.9818834269476708,0.44247472409550365,1.7540364810921227,2.069479764706283,3.2008386009210072,-3.4165535969807737,-5.219569191955202,-0.8403126350323135,-4.194719499385463,-1.8395786896577486,-2.5682661215898297
82,-8.989414635536885,-2.0959768051138505,-2.729069126476353,-1.0815873636354625,0.6404182492471143,1.8845118072798253,2.383438360987947,3.5864404673984014,-2.8035473346127087,-5.130580099817429,-1.016811125636212,-4.602708175583711,-1.823782566856953,-1.925195715076819
83,-9.417569633353935,-2.327485762664764,-3.1290340429097236,-1.1698838790135475,0.822730981949997,1.988379420497055,2.6472850976940254,3.9242138157792263,-2.2051880431799793,-5.020677629205937,-1.1271555676085527,-4.968475175341386,-1.770947287604292,-1.2669540150094774
84,-9.791057081721757,-2.549426431809371,-3.480396955707185,-1.2397652420734724,0.9865318347841013,2.064188275412904,2.85984157391201,4.20274222809124,-1.633753508195793,-4.894104544888019,-1.1721357503816643,-5.284924969186674,-1.6872712510916326,-0.6045605189729686
85,-10.092317786246305,-2.7520259294637213,-3.7729227007248056,-1.2838774960349464,1.1300246740908833,2.111370173287755,3.021490726173234,4.412180216160622,-1.0999155595885732,-4.7543652782478185,-1.1537226747959115,-5.544721269040855,-1.5786881404066846,0.051730475587781134
86,-10.304368522393782,-2.924845425443502,-3.9969463028697056,-1.2948639815018603,1.2525609887951803,2.1301937634339825,3.133958042667652,4.544665703754595,-0.612305393360355,-4.604035864165034,-1.0749035630392434,-5.740532342185408,-1.4505309849513977,0.6928058061801796
87,-10.411373569290541,-3.0571162326655004,-4.143825151644813,-1.2657364272298186,1.3546323757484569,2.121687490684335,3.200048703717624,4.594669299807342,-0.17716184882898828,-4.444622260605986,-0.9395146021350842,-5.865318580142355,-1.3072566698726913,1.311000123989927
88,-10.399213516167103,-3.138125415613857,-4.2063791315610715,-1.1902510306803766,1.4377948630970525,2.087534577623639,3.22335804281156,4.559263788189037,0.2019108709147576,-4.27647512600072,-0.7520773119054305,-5.912645684318089,-1.1522428987226403,1.900318436913262
89,-10.256026515162752,-3.157636135147044,-4.179294570323622,-1.0632670320976143,1.5045311764462919,2.029945264415337,3.2079757087930165,4.438302035352277,0.5240572002691487,-4.098767361071954,-0.5176436523511273,-5.877004721786379,-0.9876668494477315,2.45656445582698
90,-9.972696167699787,-3.1063250173607044,-4.059469125451639,-0.8810665372890869,1.5580604519881305,1.9515131488752355,3.158205110537925,4.2344961033661415,0.7911481545660811,-3.9095370328409556,-0.24165389303678758,-5.754119374767138,-0.8144705279017423,2.977371445465739
91,-9.543260458047813,-2.9762159532100587,-3.84627646940787,-0.6416161964781796,1.6021080894409254,1.8550632246837389,3.078318043089573,3.953393831803224,1.0076268655761087,-3.705793480203413,0.07019078747053002,-5.541220644299508,-0.6324116170764743,3.46214051614888
92,-8.965218247297635,-2.761087454346436,-3.5417321262645243,-0.34475405155636074,1.6406511275368842,1.7434990853808485,2.9723595163064878,3.6032514014397417,1.1802344799761115,-3.4836799008355053,0.412042104696585,-5.237270140870618,-0.4401914783880738,3.911899146067408
93,-8.23971410146132,-2.456829712726977,-3.1505455394038377,0.007711253243156669,1.6776560706940244,1.6196562468857516,2.844011147908985,3.1948024549842224,1.3176354170732887,-3.238682322320798,0.7780092306886192,-4.843115059648221,-0.23564566001115178,4.329098161984911
94,-7.371588360592057,-2.0617284362757404,-2.680048713564104,0.4119966994775104,1.716826127488555,1.4861681283003052,2.6965151730745416,2.7409276677870626,1.4299652333628194,-2.9658724826373395,1.16226032246066,-4.3615612217296755,-0.015978422300651024,4.71736742289931
95,-6.369287248482593,-1.5766560705665507,-2.1399987204547184,0.8624383643761953,1.7613731789097433,1.3453507917734686,2.5326560654533337,2.2562335783917105,1.528327103510027,-2.660170842942055,1.559126492622517,-3.797355773932108,0.2219776954391984,5.081248958352258
96,-5.244637527174175,-1.0051577036232167,-1.5422599077636003,1.3516770229128574,1.813826524007944,1.199111676473586,2.3547924489226553,1.756554714617055,1.6242633105129374,-2.316616768875785,1.9632099933707736,-3.1570788467108324,0.4814934177493589,5.425921628465661
97,-4.012500707245548,-0.353428072767542,-0.9003810699547371,1.8709235311930872,1.8758863163279151,1.0488863542937263,2.164928101447067,1.2583971165327457,1.7292250372066935,-1.9306367829007387,2.3694923594817463,-2.448952925153403,0.7656763702887793,5.756924448413974
98,-2.690330873241878,0.3698147044089793,-0.2290916227137234,2.410285414560236,1.9483260212067375,0.8956063353679238,1.9648081278083689,0.7783441161144774,1.8540578440229403,-1.498307493342475,2.773431770335086,-1.6825876257879937,1.0772120646452636,6.079878603858158
99,-1.297665878194917,1.1535463276117537,0.45625247970308236,2.9591322431376637,2.0309460391023544,0.7397004183997279,1.756025564994876,0.3324471916313089,2.0085141757119027,-1.0166143711225852,3.171034413835835,-0.8686839294133823,1.4181133124344532,6.400203448202759
100,0.14441644879989446,1.9847287460843837,1.1402383929255968,3.506476409190297,2.1225793158473385,0.5811315399158615,1.5401246828821882,-0.06437432777394875,2.2008006905245154,-0.4837089839314176,3.558883900023298,-0.018725092387479342,1.789478028265299,6.722821033897554
101,1.613847044639571,2.848661349475908,1.8079460176123212,4.041347456163608,2.2211483240876833,0.4194697318807568,1.3186895699962808,-0.3989014293539332,2.43716817322051,0.1008344353078974,3.9341162204255653,0.8553186693516237,2.1912575846690125,7.051847029597355
102,3.088094084236074,3.7293752611328834,2.4454448500168975,4.553141587906801,2.323771099210204,0.25399932992943486,1.0934100985045636,-0.6601295629755025,2.7215549856430434,0.7357668120879801,4.294335108543431,1.7412487967703916,2.6220429361131816,7.390272558561681
103,4.544653340845102,4.610057189787058,3.0402120852482346,5.03193287686971,2.4269123099924452,0.08385544828811403,0.8661219351991354,-0.839707949110853,3.0553001849399024,1.4179274516274236,4.637472975868465,2.6268459860759568,3.078882655328518,7.739650683084866
104,5.961490887647247,5.473492080114107,3.5814555951668594,5.468738042881031,2.5265732289353093,-0.09181834084832038,0.6388220737313537,-0.9322838646958619,3.436947276635252,2.1420420054629448,4.961613401744458,3.5000239056714726,3.557153633938582,8.099810876482877
105,7.317435581062515,6.302515608394303,4.06033518121166,5.85573094709516,2.6185111461478296,-0.2737019454941851,0.4136647415976954,-0.9357333379894454,3.8621614194058846,2.9005807289762386,5.264798786008821,4.348937056338538,4.050508209993045,8.468631385177583
106,8.592523090683502,7.080467058214213,4.470083289953714,6.186404971204535,2.698474398639769,-0.4621336321844824,0.192942928852067,-0.8512637473408223,4.323780099056761,3.683704052869351,5.544848744388405,5.162057968355832,4.550918629128306,8.841900129434642
107,9.768295477552693,7.791631071783011,4.806031794383763,6.455681778940595,2.762435409693368,-0.6569630211873448,-0.020941756153287687,-0.683380275807722,4.81200955461722,4.479319004002788,5.799211816103945,5.928241463705555,5.048831579086975,9.213289728782824
108,10.828062080738652,8.421655559384675,5.065555402568477,6.659965588856888,2.80680308219671,-0.8574374155741702,-0.22552153075871265,-0.4397156935069982,5.314767373859497,5.273262871469745,6.0248679345285705,6.636792947598608,5.533434614619373,9.57446347264357
109,11.757129202306192,8.957933999003474,5.247945421404351,6.797144427151435,2.8285985459199576,-1.062133860868043,-0.41831934800927056,-0.13073027628981407,5.818157415421964,6.049620875041939,6.218293904341944,7.277555308512324,5.993025016014072,9.91531860194287
110,12.543006484976075,9.389942510444058,5.354229803107016,6.8665433857881935,2.825583810641742,-1.2689440166783397,-0.596921331459069,0.2307047500851214,6.307049119763684,6.791173190227694,6.375498587493101,7.841025335903831,6.415461434773807,10.224362003273958
111,13.17559587225425,9.70952375874444,5.3869563351951815,6.868838322815305,2.7963396078246214,-1.4751127910743893,-0.7590629836330086,0.6298214255987544,6.7657225488292205,7.479955043190397,6.492128004177583,8.318505207166831,6.788670727370493,10.48920182769838
112,13.647365293769582,9.91111045579285,5.3499556098374645,6.805940853471472,2.7402950517324376,-1.6773263182830667,-0.9027242153164814,1.0505443534121983,7.178536307522742,8.097904272208808,6.563634171863764,8.702288191398337,7.101177857451357,10.697127884964626
113,13.953505060562374,9.991881470132679,5.248099194966805,6.680866339617823,2.6577164252292365,-1.871840960146398,-1.0262257171051052,1.476130476353383,7.530579224464551,8.627565500290679,6.585497005997588,8.985871968880657,7.3426260879844625,10.835745934870385
114,14.092061017273464,9.951843667424495,5.0870662578058905,6.4975952966670745,2.549664397206449,-2.0546427686901048,-1.1283181351342992,1.8898338684255636,7.808276531328438,9.052818350871354,6.553486355623349,9.164188974431292,7.504257122765616,10.893627701909427
115,14.064035345485033,9.79383307324278,4.873129142687443,6.260935552927464,2.417928309614891,-2.221626136770361,-1.2082557892152117,2.275569960400606,7.999933299016688,9.35959739131208,6.463950417444615,9.23384097867529,7.5793254575752345,10.860939758135473
116,13.87344464421188,9.523430884049443,4.612965859343347,5.97638930629702,2.264944069102479,-2.368780801763905,-1.2658472288523197,2.6185544285364872,8.096208060247788,9.536572918702571,6.3141168118817275,9.193324648055064,7.563427694970763,10.730019477881722
117,13.527325931543203,9.148793896983445,4.3135054025796835,5.650027299535135,2.093700104865049,-2.4923776148545196,-1.3014753044738996,2.9058936228816648,8.090515029843202,9.575764019545135,6.102393153949246,9.043235830637988,7.454735478129857,10.495873284121854
118,13.03568327107822,8.68040411534594,3.9818095989933107,5.288371371076694,1.9076345334425353,-2.589145138066443,-1.3160807150486589,3.127104947131041,7.979352805394332,9.473057476480442,5.82865389524046,8.786441429588864,7.254128278145208,10.15657868451614
119,12.411368908300547,8.1307467520455,3.624991598538673,4.898285446620034,1.71052601775294,-2.6564304437300117,-1.3111066236551088,3.274546132454776,7.762551554712047,9.228606476159973,5.494498041495895,8.428206847539807,6.965227203589677,9.713574652725173
120,11.669892048403705,7.513928450970155,3.2501656492612634,4.4868729441432205,1.5063802346846762,-2.692337997223585,-1.288407981645289,3.3437320368255246,7.443422098069928,8.847081200402329,5.103457609590645,7.976263178305211,6.59433200212335,9.171824239582774
121,10.82914640744181,6.8452484989545646,2.8644163607026436,4.06137591418868,1.2993129397034735,-2.69584050664616,-1.2501358942231477,3.33351758906199,7.028782695774615,8.337740950001265,4.661130964946289,7.440793196818422,6.150261361931651,8.539830971915018
122,9.909046779052657,6.140736203800422,2.4747705790780383,3.629069253515144,1.0934298910042717,-2.666855537341575,-1.198612067283007,3.2461275005338868,6.528836604109319,7.714297908800728,4.175211784046806,6.834312341982247,5.6440943877000285,7.829490249355916
123,8.93106769095724,5.416668526213137,2.0881535428423907,3.1971434381886596,0.892704532630827,-2.606281617223356,-1.136209234723018,3.087019206440643,5.956878527647453,6.994549577898369,3.6553867554096744,6.171423700364302,5.088811981269579,7.055761887383566
124,7.917684771546732,4.689083768735025,1.711314120585209,2.7725719496746195,0.7008565317165337,-2.5159879592266012,-1.0652503951689973,2.864575934911263,5.328821620921773,6.199771982204951,3.113084798188518,5.468435623686697,4.498842311178501,6.236161367438916
125,6.891730437472384,3.9733089662500807,1.35071100457546,2.3619640224559566,0.5212366932001112,-2.3987537905707024,-0.9879341988699086,2.589640524340701,4.6625560231778564,5.353887394027314,2.56107607951535,4.742845380194154,3.889523559259272,5.390083631720273
126,5.875687207098781,3.2835193750667675,1.0123607019476624,1.9714077924851414,0.35672486699030675,-2.258157122316979,-0.9062881030008774,2.2749147459685,3.9771698788169374,4.482443941731185,2.0129367939142457,4.012708597964906,3.276506899413327,4.537990752376839
127,4.890951537968363,2.632347221985217,0.7016564527806965,1.6063119587043506,0.20964672124653846,-2.0984179540366115,-0.8221467028581942,1.9342605901023848,3.2920793026090163,3.6114647329601803,1.482411834592842,3.2959285434491647,2.6751302427865036,3.700509473164624
