,AF3,F7,F3,FC5,T7,P7,O1,O2,P8,T8,FC6,F4,F8,AF4
0,-5.307894018220304,-3.2476185530340738,-4.275175025004057,-4.366374775373998,-2.2908011677176727,-0.45721867667974886,-1.8801227185944822,-0.20825772030432327,1.4574883374666998,-1.5918501774665719,-5.155354514413391,-4.6044046524747415,-5.907011874814973,-6.799550976689452
1,-4.7591750793454075,-2.8777164382381,-3.088101359185287,-3.823569026059829,-2.2466331019863586,-1.1496533592333613,-2.697354261243523,-0.6491227225283781,0.07557340042842706,-1.9129350923458357,-4.842455579410944,-4.606434441197362,-5.763733673618874,-5.121881643620943
2,-4.222763466772978,-2.525812621994186,-1.924530113310044,-3.300037391637018,-2.200733109612735,-1.8316974587978727,-3.4959497415513363,-1.0748364646619135,-1.2793031559980066,-2.216457025367655,-4.5312342836809085,-4.613701341293227,-5.625216081265292,-3.4843876921779775
3,-3.710124262817033,-2.205653760350973,-0.8048093724784985,-2.807416842061772,-2.153157577301724,-2.4915076393625046,-4.26323916045698,-1.4766125959028318,-2.586635239106055,-2.4940561044259524,-4.2233310104912904,-4.62389540872816,-5.48385526925778,-1.9098294548803083
4,-3.2318066210875758,-1.9300159459347943,0.25212894827088256,-2.3564893540960776,-2.104120793106361,-3.11778480800547,-4.987708796188457,-1.8463532682664314,-3.827415788021397,-2.7383002567664563,-3.9204914829133655,-4.634479603941508,-5.332250685365843,-0.41917550734463355
5,-2.7971831211784237,-1.710339976467616,1.2292903823326344,-1.9569354305398772,-2.05402831045895,-3.700068799096137,-5.659411024965418,-2.176831201925146,-4.9846412215995,-2.942914796681255,-3.6246191232726868,-4.642794814124484,-5.163635288206102,0.968913139860041
6,-2.4142296776495935,-1.5564071550630723,2.112067458818016,-1.6171189644214357,-2.003498847062298,-4.2289977387721445,-6.270287866262283,-2.4618409175365064,-6.043735329148727,-3.102969826536782,-3.3377978213655806,-4.646146919502877,-4.972255301842599,2.23852529298962
7,-2.0893499964973863,-1.4760647533084892,2.888604329812748,-1.3439077277639058,-1.9533720177890794,-4.69652247554506,-6.814391080730396,-2.696312795309609,-6.992871453825187,-3.215014298096705,-3.062275788987147,-4.6418695788947,-4.753678551521763,3.376859357223133
8,-1.8272469808930891,-1.4750084302763637,3.5500677879168996,-1.1425317894112303,-1.9046992845735673,-5.096068897608852,-7.287987456524609,-2.8763842249246276,-7.823174210904569,-3.277145624891537,-2.8004041054089,-4.627359685349601,-4.5050154201453,4.374496710373518
9,-1.6308423394648432,-1.5566269053182915,4.090820173400131,-1.0164805965741819,-1.85871612082381,-5.422643771224673,-7.689544586823806,-2.9994235476129902,-8.528787840311338,-3.2890065241400563,-2.554528121176224,-4.6000860280463876,-4.225042797564278,5.22558793996364
10,-1.5012445622983426,-1.721912102942361,4.508493486867251,-0.9674384515493366,-1.816794578825837,-5.672882974504456,-8.019600226796786,-3.0640053972074597,-9.106808478735182,-3.251706636882662,-2.326835162357028,-4.557575007585159,-3.9142278433873043,5.927952901029599
11,-1.43776470856191,-1.9694362041545506,4.803967084290566,-0.9952579074732611,-1.7803770617183805,-5.84504449955616,-8.280526816997735,-3.069840718952287,-9.55709085932291,-3.167674539449454,-2.1191679061449964,-4.497380245112245,-3.5746547631068064,6.483095580997164
12,-1.437979571733192,-2.2953959255899434,4.981253394489607,-1.0979710161685734,-1.750894015841235,-5.938952061723751,-8.476210853559802,-3.017670339202929,-9.881952914813304,-3.040454296180286,-1.9328192715200545,-4.4170457808012955,-3.2098646161279007,6.896133045031609
13,-1.4978423599615132,-2.693723712116026,5.047297537377119,-1.271838769860466,-1.7296701918420072,-5.955898155186741,-8.611673053502834,-2.9091354237672737,-10.085810778821612,-2.8744672854006192,-1.7683301221901124,-4.314074772533209,-2.8246248813857613,7.175635188615003
14,-1.611840921627866,-3.156264658242349,5.011698202044141,-1.5114390281855523,-1.7178255522378432,-5.898517237977628,-8.692658634811428,-2.746639739323808,-10.174779499271837,-2.674762387371852,-1.6253132774798875,-4.1859160193117155,-2.42465043773252,7.3333705510815275
15,-1.7732020839131175,-3.6730163961631495,4.886358890234831,-1.8097927242967766,-1.7161774629381754,-5.770639784371598,-8.725227159483632,-2.5332170950835393,-10.156271382374888,-2.4467750348158193,-1.5023253574231712,-4.029978594857563,-2.0162997841662174,7.383954708655107
16,-1.9741381712327197,-4.232427050835116,4.685080335924814,-2.158527381097355,-1.7251506138427637,-5.577136221029848,-8.715368547889852,-2.272413564936102,-10.038616237770842,-2.1961093821256568,-1.3968027050056582,-3.8436809486470502,-1.606269994298073,7.344401988397354
17,-2.2061289343244623,-4.821744028656592,4.4231063039923875,-2.548076005299284,-1.7447006612005043,-5.3237571332481,-8.66866681937764,-1.9681893185528327,-9.830719004352623,-1.9283504408892354,-1.3050706296250132,-3.6245362869893634,-1.2013115027259804,7.233587278517347
18,-2.460229404854121,-5.4274041032558795,4.116636090298695,-2.967908274418975,-1.7742573232128644,-5.016973801717979,-8.590027028211393,-1.6248405823020293,-9.541763140766882,-1.6489070026493846,-1.222428102236394,-3.3702720308706327,-0.8079794851168993,7.0716310941491205
19,-2.7273917276317667,-6.035453072780302,3.7823180657084485,-3.406789642283438,-1.8126924502765833,-4.663821735382637,-8.483474866674012,-1.2469395226464395,-9.180963928823793,-1.3628831135331376,-1.1433039119511859,-3.07897802879765,-0.43243258137613283,6.879226890691066
20,-2.9987867325592656,-6.631981039355207,3.43673970888921,-3.853062537086971,-1.8583175406390064,-4.271749055818591,-8.352032882392107,-0.8392886946477811,-8.757373781416721,-1.0749755854895326,-1.0614751362943187,-2.749275259281696,-0.08028250432571371,6.676934724391817
21,-3.266108821398754,-7.203556874843063,3.0959308207770535,-4.29494207546082,-1.9089125148945003,-3.8484707655483277,-8.197672127352494,-0.40688632460483315,-8.279740355969132,-0.7893956929697238,-0.9703337795342324,-2.3804929898024376,0.24350957820010732,6.48446985597587
22,-3.521846028825549,-7.737643099299892,2.7748976813674884,-4.72081677933914,-1.961783834619622,-3.401829178400024,-8.021333811772212,0.04510144691895357,-7.756416818248903,-0.5098131708103485,-0.8631826677222216,-1.9728381490897018,0.5347005700443023,6.320018444602207
23,-3.7594967259637935,-8.222971422272696,2.4872061501182343,-5.119543319087217,-2.013846838246232,-2.9396606791624507,-7.8230131214190495,0.5113650591980031,-7.195321947430852,-0.2393202970690988,-0.7335388173385179,-1.527538051582313,0.7898109952036885,6.1996140491086225
24,-3.9737160869768835,-8.649860427822839,2.244630707064832,-5.480724061044082,-2.0617255485847155,-2.4696695437174476,-7.601896650209084,0.9864757365706116,-6.603946331706274,0.01958515030409647,-0.5754230791964382,-1.0469383995804369,1.006161871751938,6.136607234210971
25,-4.160379302358563,-9.010459883927991,2.0568842121262625,-5.794957207790037,-2.101862987618505,-1.9993099831362253,-7.356544291199456,1.4649112139045202,-5.989399845257963,0.26499666254444537,-0.3836184764698589,-0.5345426697492393,1.1819119240452294,6.141255941270842
26,-4.316554516711705,-9.29891002327541,1.931439684960056,-6.054050917099414,-2.130635508314348,-1.5356772362481428,-7.085104701624065,1.941083511819811,-5.358494810423388,0.4955716765911095,-0.15388456534652864,0.005014760158185526,1.3160984291804858,6.220456765810929
27,-4.440386508323452,-9.511408725700937,1.8734501990707322,-6.251194484448083,-2.144465426254987,-1.0854078868290802,-6.785551463705763,2.4093680493646166,-4.717858792642224,0.7104759960654661,0.11687971149619328,0.5660623429445271,1.4086800417300287,6.377627426952924
28,-4.530901650108118,-9.64618515436168,1.8857657676244333,-6.381081793361736,-2.1399272058893546,-0.6545896687515158,-6.4559267078130125,2.8641322116691166,-4.07407099194796,0.9092978094660996,0.4305269435626919,1.142045465516222,1.4605768370450527,6.612739508164548
29,-4.587754097644804,-9.703384707486796,1.9690378353725893,-6.43998535039113,-2.1138435128085207,-0.2486820313544574,-6.094580736471273,3.2997608399073064,-3.433816167048675,1.0919326508344582,0.7876032955259772,1.7257280289284445,1.4737010258246492,6.922489642845656
30,-4.610940201465192,-9.684875985309814,2.1218947975363602,-6.4257830261189355,-2.063368430499281,0.1275505514187952,-5.7003984109418,3.710676885866966,-2.80404862082406,1.2584447121073006,1.1873357534694575,2.309424001515698,1.4509705666097543,7.300588649454358
31,-4.600511239495573,-9.593994874276763,2.3411677378612232,-6.337942796441316,-1.9860560237978282,0.47009154582615137,-5.273003721973089,4.091358194655345,-2.1921548971429163,1.4089140699209741,1.6276579770981012,2.8852399220350553,1.3962978821629222,7.738143256142575
32,-4.556313434616782,-9.43524358144695,2.622145023557243,-6.1774720470815385,-1.8799132883021243,0.7757132110974139,-4.812932667210335,4.436355455705865,-1.606097887557788,1.5432834598659406,2.1052696540710745,3.445311591728936,1.3145482393423218,8.224104590721915
33,-4.477779248651861,-9.213963395813167,2.9588373740083336,-5.946836991416215,-1.7434373150952895,1.0420092494180269,-4.321762495624141,4.740320224235071,-1.0545192121099838,1.6612219377638835,2.6157266470638656,3.9820238245612805,1.2114668409782883,8.745760943584346
34,-4.363785711347949,-8.935998870909948,3.344240762308049,-5.649854978107669,-1.575637065593633,1.2674230510137696,-3.8021842851162155,4.998053648269445,-0.546774434485585,1.7620249956384342,3.1535616139337788,4.488209544047313,1.0935786250464083,9.289257742396645
35,-4.212585585744411,-8.607368606979517,3.7705910977462627,-5.291559273646949,-1.3760405744122082,1.4512721746118786,-3.2580073704785564,5.204584751780219,-0.0928800608026773,1.8445694231377092,3.712436516709884,4.957331160449531,0.9680682039648826,9.840132631822893
36,-4.0218082888800035,-8.233955643746405,4.229609458518795,-4.87803422964986,-1.144689065476028,1.5937647300299944,-2.69408925838869,5.355281964281488,0.2966374221618327,1.907335030549816,4.285328346323741,5.38365031425815,0.8426477004961858,10.383855435451286
37,-3.7885223832091546,-7.821230243199077,4.712738061782961,-4.416220145158335,-0.8821206024149131,1.6959990500935167,-2.1161924315810894,5.44599503420471,0.6109864209027251,1.9484953317481417,4.864746436947209,5.762390343397282,0.7254168855151159,10.906360595596894
38,-3.509351115167798,-7.3740196043245945,5.211365269382486,-3.9136917924207273,-0.5893473152268167,1.7599370613714131,-1.5307773209295232,5.473219287233524,0.8394352819653343,1.966068669126104,5.442974325573194,6.089889978276123,0.6247141300983879,11.394554706692361
39,-3.1806355681420957,-6.89634133201621,5.71703401240486,-3.37842103696816,-0.26783154475423815,1.7883451312642018,-0.9447465075639958,5.434272264807959,0.971701834860387,1.9581133925753043,6.0123229984285125,6.363739206691628,0.5489506384614802,11.836776445521986
40,-2.798643165133897,-6.391317675097034,6.221624293881365,-2.818539410768091,0.0805332526281332,1.7847024461680272,-0.36515824063946023,5.327474069565488,0.9983959754296946,1.9229473382486366,6.565377864958006,6.582882295951306,0.506417000854048,12.223183217702607
41,-2.3598186751388552,-5.861182860855638,6.717499695691922,-2.242117704554403,0.45343223111930153,1.7530832744913276,0.20107223494896145,5.152325427211546,0.9115091152195611,1.8593727763439842,7.095221195347459,6.747671861317727,0.5050528517734181,12.54604078461583
42,-1.8610689679730363,-5.30738554741517,7.197611690554943,-1.6569752830454572,0.8481282135931645,1.698023372816184,0.7474670341787245,4.909678873484069,0.7049447268540293,1.7668913658895244,7.595616016958146,6.859862822857733,0.5521782455431885,12.799900344234269
43,-1.3000637474715784,-4.7307752420772236,7.655562851660049,-1.0705238746240386,1.2614532109593681,1.6243813075532614,1.2682627559813362,4.601896561033933,0.3750755125696336,1.6458968454191838,8.061144660228148,6.9225437663069425,0.654196759973714,12.98166010628529
44,-0.6755268421884468,-4.131849958537097,8.085637502518196,-0.4896429759328339,1.6897995508064916,1.5372028403093516,1.7586609131875817,4.232983045600268,-0.07870441056048297,1.4978342759792647,8.487301455948462,6.9400113207901475,0.8162902657985847,13.09052045627225
45,0.012509969162690766,-3.511035509226417,8.482812908897683,0.07942035548468213,2.129120377684525,1.4415919566532884,2.215043743566782,3.8086755994700026,-0.6534823997578444,1.3253139172907484,8.870542423966457,6.917597862496016,1.0421299667109514,13.127848990260297
46,0.7625150114275547,-2.8689653290695074,8.842764472414894,0.6311351874760429,2.5749500285518434,1.3425876273316018,2.6351466963343233,3.336471690747134,-1.3424452065394858,1.132167795075522,9.208296525707853,6.861464298278005,1.3336278145885703,13.096973394566946
47,1.5713425985528233,-2.206732750938823,9.161875030136622,1.1607596841197807,3.022453346224626,1.2450432712992738,3.018177110638643,2.8255756061711343,-2.1346668970407894,0.9234402718846709,9.498945308619085,6.778369463280562,1.6907492695753399,13.002918878364492
48,2.4342023272491478,-1.5260938115890992,9.437252808293096,1.6644056050230456,3.4665094560043945,1.1535073349637204,3.364867724634344,2.286753606971753,-3.015103176662835,0.7053105606667079,9.741780130938643,6.675426811946358,2.111404222817641,12.852105204628403
49,3.3447080455727227,-0.8296065909591582,9.66675646944153,2.139092424160321,3.9018305584440873,1.072107473515315,3.677454743060025,1.7320974047618234,-3.964803196947934,0.4849528190496119,9.936946264693757,6.559857767589307,2.591427313291543,12.652017140262435
50,4.294996274807186,-0.12070161453491993,9.849020372627416,2.5827851653824045,4.323110867046678,1.0044452120948124,3.959573391200601,1.1747066507778907,-4.961325383505612,0.2703455540182603,10.085380032967883,6.438749441359922,3.124651432511483,12.410861268533132
51,5.275900732520771,0.5963142882219113,9.983469821269546,2.9944071341667247,4.725196093827144,0.9535107863321647,4.216069203481673,0.62831049994092,-5.979324994487101,0.07004488886562338,10.188740709238667,6.31882298742328,3.703070483993168,12.13722163295878
52,6.27716966616243,1.3163126214346832,10.070315818395938,3.373818149616744,5.10326095832626,0.921628298285086,4.452730521762354,0.10685443123787823,-6.991270050561168,-0.10706449003165654,10.249336368179646,6.2062183965714075,4.317081923314205,11.839726703511333
53,7.2877149533023315,2.0334459703279446,10.110522048048454,3.7217516238546633,5.45298147578793,0.9104390492884457,4.675955486379554,-0.375920098669237,-7.968239741599327,-0.25203017106499537,10.27004345447916,6.106302341736915,4.955796992295295,11.526740391795684
54,8.295884671207379,2.7412892641689868,10.105742408321154,4.039709531828722,5.770689788438118,0.9209259143425421,4.892373000011632,-0.8068796459787999,-8.880765515592062,-0.35609825442456305,10.254221791687419,6.023507103227595,5.607405544088019,11.206089829867913
55,9.289752942167274,3.4330126026826897,10.05823356272036,4.329821316019303,6.053501413984367,0.9534747126719589,5.108440292275938,-1.1738713561584642,-9.699687595277013,-0.4109819324606542,10.205627931179736,5.961209491226197,6.259581793024578,10.884842130375999
56,10.257422180504339,4.101581640974511,9.97075199720738,4.5946791981499215,6.299407680657637,1.0079613732497579,5.330040092118648,-1.4660587508107081,-10.397013172708467,-0.409130451952657,10.128330103012855,5.9216583691535165,6.899917371499801,10.569141188121009
57,11.187333018645289,4.739983224540821,9.846447628232024,4.83716653330534,6.50732926304375,1.083848209054454,5.562099308981896,-1.6742223232285267,-10.946770916784839,-0.34399486652937145,10.026628484312063,5.905957509148408,7.516368635230427,10.264113008068932
58,12.068574948325871,5.341472823648977,9.688764976990898,5.060296197671818,6.6771291814647284,1.1802705181218593,5.808249622934029,-1.7910284300162536,-11.325856738367758,-0.21028377455555905,9.904984489682697,5.914106459299474,8.097704741201166,9.97384269619276
59,12.891185543457002,5.8998355243312215,9.501358170521382,5.267071912744967,6.809584992110203,1.2960973242776086,6.0705489786332825,-1.8112668611835068,-11.514858594345647,-0.004199344555951219,9.767960817103988,5.9450956226847795,8.633940125997524,9.701417420445004
60,13.646419725956093,6.409645175834451,9.288019063365127,5.460378069632281,6.906320925325788,1.4299575056223248,6.349281734332722,-1.7320511828374934,-11.498835723719136,0.2763579853477379,9.620169900726754,5.997044216188788,9.116729965521747,9.44901884696985
61,14.326966187135515,6.866500148014057,9.052611270246034,5.642895719719735,6.9697022479860475,1.580232738587861,6.642853610154412,-1.5529690748929432,-11.26801331595952,0.6316296636669118,9.466223999257217,6.067363921866461,9.539702354712547,9.218039706589717
62,14.92708860704133,7.267212474845646,8.798999494936693,5.817036777269855,7.002695938861684,1.7450275386689942,6.9477940855424665,-1.276165094328597,-10.818341496845095,1.0599001601439708,9.310677812089432,6.152929229475881,9.898699457485185,9.009196601988704
63,15.442675556197253,7.609931298823452,8.530964627288077,5.984886829101495,7.008703318964742,1.9221306803733174,7.2588716643203615,-0.9063374197357119,-10.151861703611026,1.5574772652398368,9.157955867961043,6.250238463066904,10.191903983249912,8.822616686490207
64,15.871193656428728,7.894190266632937,8.252100238500823,6.148149242080704,6.991371764152504,2.1089809680008598,7.569316167478944,-0.4506338116459031,-9.276826520202357,2.1187687759876033,9.01226168146191,6.35555627783574,10.419837088615841,8.65788722825438
65,16.211551103839692,8.120879045804246,7.965693481643849,6.308088072306803,6.954394599299937,2.3026459842611744,7.8711292146981,0.08155980261272426,-8.207532608672407,2.736466525669676,8.877471488154532,6.465036472876439,10.585226891400517,8.514069720581935
66,16.463889905773197,8.29214826968674,7.674600503915844,6.465472574789693,6.901310500360898,2.499817622066326,8.155453006750406,0.6789327096924517,-6.963851800880874,3.4018363979105377,8.757019292275888,6.5748300867208105,10.692759478977145,8.389689884129442
67,16.62933248508819,8.4112626524702,7.381130903880028,6.620529831893167,6.8353150733625805,2.696824298732601,8.41296159226484,1.3286456522490608,-5.570480728238828,4.105096374277413,8.653780492734045,6.681185577294789,10.748732958425325,8.282719463860403
68,16.7097104064341,8.482418121787623,7.086956155254448,6.772912624372365,6.759096698140426,2.8896575877342148,8.634239678062736,2.0167791304840077,-4.055966547578372,4.8358480378854685,8.569959148141582,6.780545138085591,10.760638254321485,8.190565177773083
69,16.707300377237214,8.510536565120434,6.7930535987454785,6.921687111491225,6.674706183982438,3.074011452659309,8.810121747103725,2.7287969282323714,-2.4515937851380687,5.583515220082521,8.506980700835975,6.869635678762657,10.736689744366064,8.110076039996104
70,16.62458701764173,8.501047930094884,6.499692213888918,7.0653410803116055,6.583466205240732,3.2453353953109843,8.931977045339353,3.4499894836564797,-0.7902267806891826,6.337740019895028,8.465389333309677,6.9455476223030645,10.685327706654459,8.037574653133696
71,16.464065196342517,8.459665850274561,6.20646090849996,7.201811054501226,6.48592303311131,3.398906927613456,8.99194051036478,4.165869913703946,0.8948067071919017,7.088692090382675,8.444748609629867,7.005792040908535,10.614714872140844,7.9689127562611
72,16.22808894230867,8.39216129817331,5.912336106931501,7.328526613848812,6.381840566438932,3.529931142181997,8.983101684157644,4.86250755059302,2.570726674958887,7.827260776079628,8.443547027298752,7.04832809205435,10.532251013883155,7.8995473922419945
73,15.918770392764328,8.304139534491503,5.615783648087049,7.442472077624717,6.270235295770701,3.633673968272213,8.899669427169469,5.526796261299822,4.206169804962198,8.54511940894946,8.459116761164314,7.071558061867399,10.444131756431688,7.824632207433914
74,15.537930941665952,8.200827719400184,5.314889904177705,7.5402676333970895,6.149450209154521,3.705630936874818,8.737128532957112,6.146665073459924,5.771906037107384,9.234673902859582,8.487582376210367,7.074295002685725,10.354979973631337,7.739119344427166
75,15.087106538078976,8.086882103829975,5.007517431700826,7.618272846878829,6.017265073130249,3.7417262117100405,8.49239689162399,6.711245398028412,7.241414667970073,9.88892925700444,8.523863200826325,7.055715367051657,10.267578719042984,7.637871076170657
76,14.56760858475259,7.966223693237755,4.691480401406166,7.672714739832916,5.871039464669837,3.7385291371807785,8.163982126262988,7.211011519489543,8.59134485874509,10.501322441773755,8.5617546930424,7.015313459271238,10.182731299983583,7.515784844078649
77,13.980640112550349,7.841909819883684,4.364734041864718,7.699840083484145,5.70788317752296,3.6934697494262654,7.752127594554128,7.637908467854293,9.801887359204445,11.065574424139712,8.594107945535454,6.952873957556237,10.099265464094236,7.367937719460272
78,13.327463028016894,7.716046595058207,4.025570103156325,7.696087228050619,5.524846234496819,3.6050323943734988,7.258930955686787,7.9854743248955256,10.857076158544098,11.57560646670418,8.613112390599019,6.868472566368596,10.014185125332602,7.189754407338555
79,12.609605873020955,7.589743967838352,3.6728068361691464,7.658267201312294,5.319118064039146,3.4729082909747797,6.688415030735273,8.2489540406124,11.745024452087428,12.025547941289114,8.610667832018018,6.762504347741107,9.922956428503543,6.977196569677029
80,11.829093797824909,7.463111443638314,3.305957873534419,7.5837383580179125,5.0882230777250514,3.298092475818435,6.046530924482218,8.425391513765812,12.458084184792387,12.409839161841017,8.578813377330293,6.635727725806437,9.819898328303548,6.726962249097155
81,10.988675930043842,7.335289164078099,2.9253614059157074,7.470555486245517,4.830198536982309,3.082916245384865,5.341077436269637,8.513679387572868,12.99290777828949,12.7234091401502,8.510167831467584,6.489303482834516,9.69863531449338,6.436675793119969
82,10.09202258672244,7.204507157148087,2.532251166529114,7.317574612943439,4.543740706208067,2.831011582638698,4.581528549308556,8.514544901154792,13.35038759364179,12.961890138060072,8.398331691995788,6.324805009907598,9.552564676793763,6.105044136455867
83,9.143867069250133,7.068166280729808,2.128755049871173,7.1244995192882286,4.22830737326387,2.547208610880461,3.7787716696778553,8.43045626769383,13.535453457451718,13.121822048995133,8.238205502723728,6.1441793439218175,9.375293307163984,5.731956135493459
84,8.150073805414786,6.922937811419647,1.7178151933922128,6.891864599886234,3.884169196787226,2.237370792641435,2.944771350004227,8.26544520835099,13.556719260054981,13.200801357058602,8.026191402474652,5.949646936248889,9.161007505827701,5.318507569203888
85,7.117624605087574,6.764883113314983,1.3030330880730732,6.620959089362335,3.5124085122395297,1.9081752825749683,2.092183126186751,8.024853217882256,13.425983216079176,13.19754037679169,7.760261214555477,5.743539203105862,8.90475078203663,4.8669440097972645
86,6.054525185261715,6.58959797672934,0.8884523485004103,6.313706934999548,3.1148708812629105,1.566847763256751,1.2339468290697382,7.715018419524161,13.15760000294002,13.111819263588691,7.439891823289232,5.5280841071793265,8.602597401358425,4.380524867583715
87,4.96964279597908,6.392386664398511,0.47829856047352265,5.9725223887360634,2.694080240631039,1.220863066978103,0.38288765274387554,7.342925578107997,12.7677549868071,12.94433223757589,7.065884442044671,5.305159584011072,8.251723043565713,3.86332208756293
88,3.8724917134723644,6.168468311917135,0.07669965954906724,5.600162667407921,2.2531315894869737,0.8776255226110126,-0.44865194198915387,6.915844917061311,12.273680359929775,12.696447572743185,6.640097797016172,5.076041437173984,7.85038755309186,3.3199743686365606
89,2.7729862285867126,5.913213637620053,-0.3125882875602344,5.1995959811691375,1.795575068818235,0.544145878493613,-1.2491332516908566,6.440986864298392,11.692859740255898,12.369915586747053,6.165135420783789,4.8411752947082345,7.397855454058682,2.7554216487802003
90,1.6811808898803127,5.622404169381826,-0.6864258444976448,4.773897326500195,1.325302701044237,0.22673400857089812,-2.0080855074175807,5.925199983641622,11.042271540931345,11.966568335641153,5.644032328237172,4.600000876299197,6.894284506189307,2.1746451854805198
91,0.6070161481230268,5.292501112003572,-1.0424841159233365,4.3261778947382075,0.8464454169796264,-0.06927222136836197,-2.7163084589728173,5.3747375274284055,10.337722193933093,11.488058302221651,5.079984379659625,4.350851946872932,6.340610684180214,1.5824365946965908
92,-0.43991504903646456,4.920907655946446,-1.379370863446403,3.8595483487182443,0.3632842285269578,-0.3397222778403983,-3.3660122722533052,4.795113145985205,9.593316792583277,10.935680608991596,4.476154306990483,4.0909481693356655,5.738451689036099,0.9832152847626086
93,-1.4505677171034865,4.506206991132608,-1.6966782742293562,3.3771117790578713,-0.11982429666626997,-0.5817962285173393,-3.950896723364509,4.191057639464645,8.82110467651159,10.310313422733811,3.8355735911754394,3.8164863525556583,5.090042730612037,0.3809079577518426
94,-2.4166048695668847,4.048358304853822,-1.9949497803178313,2.8819784991700774,-0.5985113222578139,-0.7940658391782928,-4.4661748649857556,3.56657696657831,8.030920427346837,9.612494395585014,3.161142297042673,3.5228288766764555,4.398209375502224,-0.2211035643534715
95,-3.330514527415239,3.5488348274836796,-2.2755714565559293,2.3772923138181214,-1.068452551219028,-0.9764712893206703,-4.908549667172848,2.925098935704334,7.230419160824809,8.842629622253847,2.455712873609997,3.204777540696408,3.6663740348096887,-0.8199680339796517
96,-4.1856854499975285,3.010691839245895,-2.5405999934937893,1.8662575988397176,-1.5254228117798199,-1.1302195459270514,-5.276155014329896,2.2696843063816705,6.425282781938416,8.001310030556764,1.7222317135552057,2.8569133369217545,2.8985862289845823,-1.4132931204822192
97,-4.976446571754564,2.438557978295609,-2.792543068606328,1.3521589229294173,-1.9653507048240364,-1.2576173919489262,-5.568473945880687,1.6032696101088673,5.619554639324297,7.089692937305886,0.9639060328662323,2.4739777334221005,2.099562338725323,-1.9990308639037107
98,-5.698077184605894,1.8385489167164146,-3.034109698214252,0.8383689164146546,-2.38437352336344,-1.3618562331921322,-5.786246170317438,0.928905931692669,4.816047157950495,6.109897020018958,0.1843639700129926,2.0512688719319816,1.2747179687416212,-2.575337704949352
99,-6.346795892362487,1.2181075354712587,-3.2679489728471016,0.3283438909637868,-2.7788909338709953,-1.4467664715349764,-5.9313731727641885,0.24996142652029585,4.016763858861308,5.065358823699014,-0.612218327545756,1.5850262329259714,0.43017601417333795,-3.1404271391693936
100,-6.919736350365289,0.5857790955210321,-3.4963958219381768,-0.17439071291722033,-3.145614295837645,-1.516557158333219,-6.006823493541352,-0.42973515087382314,3.223285454532551,3.9611080410082202,-1.4210393704505806,1.0727795972144987,-0.42726258401518563,-3.6924312485657302
101,-7.414916999900496,-0.0490663518989951,-3.7212418323408443,-0.6662619303676168,-3.48160746641473,-1.5755534374650157,-6.016535232618759,-1.1058199292083795,2.437087586966054,2.8039350803593943,-2.236650401430897,0.5136422352895988,-1.290190533867623,-4.229283820854441
102,-7.831210794124715,-0.6765494815789669,-3.943547437943779,-1.1436753010173757,-3.7843155225848557,-1.6279416912272426,-5.965309851572382,-1.7733861895038725,1.659779762571682,1.6024439322691375,-3.0529838709493817,-0.0914664230774804,-2.15070409475013,-4.748633690305399
103,-8.168319427044795,-1.2866195107292506,-4.163508864628135,-1.6030442826269362,-4.0515802110013,-1.6775313670374417,-5.858691483858676,-2.427032223207908,0.8932744754900415,0.3670012548798324,-3.863419144968281,-0.7396773618372136,-3.00053957475292,-5.247793278114028
104,-8.426754568583275,-1.8693996046133365,-4.3803889153975595,-2.040823732642085,-4.2816441262737985,-1.7275427720737566,-5.702827863845512,-3.06094905840982,0.13990743914345535,-0.8903951915761209,-4.660868207894512,-1.426110473410134,-3.8312215959551525,-5.723724286155848
105,-8.607825854498996,-2.4155266745782,-4.5925151540796705,-2.453549019996628,-4.47314821601385,-1.7804301298369394,-5.504310864602014,-3.6690319337876667,-0.5974674724058858,-2.1563011200009035,-5.437864520311165,-2.1438928117666682,-4.634209003491104,-6.173059871685652
106,-8.713632076765716,-2.9164729448329285,-4.797342822668041,-2.8378819104635653,-4.625127971094549,-1.8377478058426961,-5.269995908235528,-4.2450017990838464,-1.3153901933278844,-3.416038456586043,-6.186642257221455,-2.8842517000800822,-5.401027266148212,-6.5921600002167215
107,-8.747048873708481,-3.3648357867366507,-4.9915738114399995,-3.190662966651242,-4.737012197302955,-1.9000651429876843,-5.00680122157164,-4.782526890187019,-2.009705157151858,-4.653919653718948,-6.899199813015931,-3.636676880439528,-6.123380147191362,-6.97719383136823
108,-8.711704268211404,-3.754581353061205,-5.171318454300247,-3.5089686788566152,-4.808625612609937,-1.9669328368091745,-4.72149159490262,-5.275338819320518,-2.6754747836392285,-5.853478219614462,-7.5673495897618706,-4.389146002640926,-6.793238110053018,-7.3242405971970435
109,-8.611933529272006,-4.081228426095226,-5.33228496327814,-3.7901706113373375,-4.840194325539827,-2.0369019052417605,-4.420457054445495,-5.717342383343761,-3.3069116944473778,-6.997711582812163,-8.182764114081548,-5.128408408560942,-7.402906548294861,-7.629399813825861
110,-8.452707282244607,-4.341962230113274,-5.469982134214322,-4.031993694849281,-4.832352334696645,-2.10759503873277,-4.109502652078805,-6.1027229912754635,-3.8973545980561854,-8.069351523877053,-8.737034834578438,-5.8403231202105665,-7.945083099283789,-7.888903444053714
111,-8.239531120478803,-4.535672972142255,-5.579923641446802,-4.232571310772871,-4.78614726582714,-2.175828952991662,-3.793668827501528,-6.426059383172825,-4.439316663235823,-9.051182148424344,-9.22176348048351,-6.510247684206673,-8.412918766924236,-8.099225916967598
112,-7.9783202417760695,-4.66291954908104,-5.657825430765577,-4.390495715737975,-4.703043955797573,-2.2377847162234836,-3.477101189529461,-6.682450951705784,-4.92463254915178,-9.926424433813033,-9.62870567104638,-7.12347424618242,-8.800100504322607,-8.257191004429552
113,-7.675257537046171,-4.7258243370953545,-5.699790453440532,-4.504863112439881,-4.584924514794002,-2.2892205203452827,-3.1629842306301694,-6.867667286243003,-5.344720956851501,-10.679199178951436,-9.949981588403661,-7.665707030335805,-9.100971575549657,-8.360076092398419
114,-7.336646648648052,-4.727909391432803,-5.7024770989090054,-4.575312800999719,-4.434082828151219,-2.3257180857394335,-2.8535463895656377,-6.978322227951751,-5.690964852580461,-11.295067286095914,-10.178359168812337,-8.12357099327818,-9.310699823835128,-8.405714189055582
115,-6.968771930530454,-4.673887153256209,-5.663249492690856,-4.602059366463821,-4.253210692369596,-2.3429504762222435,-2.5501355952772036,-7.012067103593379,-5.95519400979424,-11.761630048289284,-10.307603260280521,-8.485135800508727,-9.425494028637848,-8.392593133900743
116,-6.577775358301576,-4.569419990277049,-5.580309430930088,-4.585916229798104,-4.045373025388397,-2.336956576985514,-2.2533570982208144,-6.967790533202008,-6.130237800588488,-12.069156306870799,-10.332871828723968,-8.740434207003256,-9.442857332930267,-8.31995113237186
117,-6.169557464245838,-4.420863131880419,-5.45281067835941,-4.5283085986227745,-3.8139712870699154,-2.304406656950877,-1.9632609172570628,-6.845807802980128,-6.210503655181156,-12.211191437090394,-10.251129580254673,-8.881950537644622,-9.361857112911869,-8.187868124569528
118,-5.749706208487303,-4.235005208626566,-5.280955954386957,-4.43127408469632,-3.5626967227388615,-2.242844404462233,-1.6795648745687233,-6.648022208721226,-6.192530380180585,-12.185096824866788,-10.061542240480822,-8.905053169325807,-9.183384658530022,-7.997352634650483
119,-5.323454464726519,-4.018819646351406,-5.06607481255955,-4.297449765454808,-3.295477041430321,-2.1508929360854907,-1.4018991106192868,-6.3780429191093075,-6.0754658856919175,-11.99246823089797,-9.765812569040133,-8.808344178173849,-8.91037608443743,-7.750422266253439
120,-4.895663405756457,-3.7792382551340156,-4.810677173113127,-4.130044796194218,-3.0164205199375065,-2.0284143058240263,-1.1300566736990112,-6.041246665346279,-5.861424671731442,-11.639387092228237,-9.36842181863823,-8.593899496143687,-8.547967120264335,-7.450172226901414
121,-4.4708257826681725,-3.522955305226154,-4.518473494395829,-3.93279759411148,-2.729759917102958,-1.8766128358766787,-0.8642312568587965,-5.644772386832908,-5.555689771195196,-11.13646953015077,-8.876746243753628,-8.26737436196628,-8.103557734910385,-7.100821193519736
122,-4.053080502917314,-3.2562665694374764,-4.194349684896628,-3.709916326458828,-2.4397956443014754,-1.698072157784917,-0.6052185608650918,-5.197438664325458,-5.1667349866009085,-10.498692022852538,-8.301025876117121,-7.837952126931158,-7.58676749358741,-6.707719892679835
123,-3.6462287301292235,-2.9849440796410054,-3.8442841607342735,-3.466001422311257,-2.1508346230179325,-1.4967157107859077,-0.3545546676975806,-4.709574427768472,-4.706055264803717,-9.744988805707163,-7.65417167897723,-7.318120405836538,-7.0092691745233635,-6.2773070751537325
124,-3.253742458408822,-2.714144572402559,-3.475197119140794,-3.205949521392146,-1.867119541113689,-1.2776825210210816,-0.1145660710752281,-4.192755928751351,-4.187805694606197,-8.89763273994514,-6.9514080087415415,-6.723268097255287,-6.384496413155644,-5.817000723795561
125,-2.8787590371381695,-2.4483482512051578,-3.0947284273380187,-2.9348397761856364,-1.5927439330757678,-1.047115359540258,0.11168664616869041,-3.659449006876133,-3.6282626885677227,-7.9814269748066256,-6.209760313600681,-6.071110105342635,-5.727230631740382,-5.335018709324321
126,-2.5240586982143896,-2.1913243905978743,-2.71094935485349,-2.6578054190145646,-1.3315518767086654,-0.8118665413928305,0.32057659007167894,-3.1225653990934186,-3.045133947441924,-7.0227475069065095,-5.44741165990047,-5.380962117581015,-5.0530826408439085,-4.840131415617979
127,-2.1920260393825424,-1.9461208598435387,-2.332022670873578,-2.379895486044128,-1.0870259162188973,-0.5791364490974877,0.5081788937634207,-2.5949534585902727,-2.4567560403252906,-6.048486114148613,-4.6829634901479915,-4.672902831506895,-4.377894296221471,-4.341357595467986
