,AF3,F7,F3,FC5,T7,P7,O1,O2,P8,T8,FC6,F4,F8,AF4
0,0.14519022833109974,0.1077275173853385,0.15437988266524122,0.05132107103886694,0.01781225389186731,-0.09227533669988977,-0.051440654075897325,-0.021352460247040534,-0.15504760587023142,0.013568575838404501,0.014032928758623907,0.1350363032694666,0.07796280588970267,0.11516604872860497
1,-0.034732706467394514,-1.1108766303432607,-0.48943852311111863,1.9011898789354655,3.2788799652355536,2.667858114737428,0.6720173767881978,3.012155947483914,5.693353113750284,5.367143809920835,3.8601263866186892,3.902300993630716,-1.242237797486768,3.156994447232166
2,0.9923176848541977,0.06670252567016827,-0.05864810686590638,2.7021303485813166,4.358476810439116,1.5205218934982934,0.8189713648349631,3.6368706231684205,7.040851389857513,6.02417506853796,5.17803769036747,3.5887941493876427,-0.8426544350440681,3.0895719065791742
3,2.3618974505614085,2.637528621478299,2.1299325589808116,2.4437997521392703,2.492232931562882,-1.8413195361787869,1.167781227449421,2.2830675829093168,2.639680415260917,2.1963575560413533,3.0235655873909946,1.1056235707826514,1.903872064182664,1.588381983459265
4,2.3304926324617514,3.7019631947548057,4.729895658474856,1.4662044824859133,-0.7159732434469819,-2.7437034810859573,2.4394445200804484,0.9596418406266497,-3.713850868293535,-1.6468597604845046,-0.3838601586664519,0.8022467202473614,5.26655944593451,2.266290919539724
5,0.7378993929856313,1.9504158880439668,4.421197019994966,-0.3628419289525762,-2.555169605700096,-0.30718451970691457,3.0043566527397365,0.23709120569592562,-6.101192995377591,-2.191664957100464,-1.3909481262750847,2.221952498978361,5.850842116582571,4.269402577501114
6,-1.2312612661521245,-1.7621548658483668,-0.5014477642190136,-2.782641393662847,-2.1417468685091303,1.8504055566013937,0.237751213208139,-0.8614252974524664,-2.564158922154907,-0.7899586520409903,0.19370516312899058,0.812375634374345,1.6918615679693154,2.3723088594621746
7,-2.923567158998839,-5.5765188846973395,-6.965233252171781,-4.210998868474485,-1.1340338085182982,1.4208743738575866,-4.9719257281529075,-2.7088942637154747,2.758928843186925,-0.7541558659641293,0.08918914098079846,-4.3896469146629515,-5.380918828842212,-5.231467719704162
8,-4.046015707819866,-6.7473090177975275,-9.337184610590601,-3.0310449296750015,-0.89736397285815,0.18912526754295086,-7.315843222452858,-4.280622181570646,4.426570490044349,-2.5111942180730296,-4.166248537339184,-8.15162582401922,-10.670987751373238,-12.191718583482322
9,-3.30259489292399,-2.7813836978848956,-5.0755926442517305,0.3143593579819424,-0.4888027060806613,0.14027680469500786,-3.0358306110359634,-4.049419812753588,1.3721983148570864,-3.239350838011332,-8.026912559794763,-5.609174738901917,-9.803086158110744,-10.203204628420396
10,0.34323161710948263,4.838698452739556,2.8335070779532368,3.4462236300114366,1.1930837335447282,0.3057501542715343,4.369314326489895,-1.0229930041235658,-2.894131721977103,-0.8902263832447445,-4.789107172408693,1.6201733629181532,-1.9331842095223977,0.854169706407689
11,5.004902933025632,9.740405883241865,8.996698144989388,4.337758827731328,2.795159775922848,-0.7177472893854098,7.3670006760755165,3.945406543101769,-4.356108918332949,3.1388937915890978,5.0047224834998145,7.792785168730907,8.74484134150254,11.936884735487903
12,6.872378441824696,6.917157340458392,10.028797370713985,2.947622215274116,2.2270304791848186,-1.870795939004204,3.436451849224353,7.485740176204412,-1.8729225626921147,5.637912237841428,12.74295414685611,9.25892739192808,14.951962110244532,14.300129272652395
13,4.33389256771447,-0.8593178840784462,5.835250892984523,0.5532039499492123,0.02852251397525363,-1.4319807450287436,-1.9156801970419284,6.3028593794187895,2.436250768193174,4.743951089364191,11.003705840539771,6.133877371169105,11.603031477854524,7.461198156095191
14,-0.7044396914316634,-6.200617386966519,-1.6578711118473324,-1.848798151371987,-1.3967553975886275,0.16308863048936137,-2.438536836995314,1.1119991242867857,5.226840230568201,1.0767027119566686,1.1015156089769294,-0.2000207767424284,0.3777715288456722,-2.575966426877688
15,-5.455827556171568,-6.031381469889232,-9.238571694729595,-3.8038878563411234,-1.3339427156485404,1.370473271817712,0.8466775119712768,-4.031143065477125,4.60013989152615,-3.255183669903686,-9.130476028828665,-7.646229766890852,-11.057322712826371,-9.782077072359357
16,-8.06511846702619,-3.7126576591731357,-12.566263276537448,-4.489523980857056,-1.1099293164200024,1.9536560243541634,1.4819609572722305,-6.595928001371766,1.0206985377673792,-6.076705860794639,-12.90438845551134,-11.974108433702497,-15.155617447168174,-11.380193211999815
17,-6.983788206135052,-2.482183430416244,-8.41345866078909,-2.870675805056206,-1.2707669013657117,2.216761095373789,-3.196589043782817,-7.060868054341125,-3.89678313883132,-6.157764385386692,-9.084749225937333,-9.033104737742951,-10.375832854466383,-7.724737847104324
18,-1.271734971100653,-0.9318451316811561,1.7032491516577484,0.8304241856170128,-0.8416859835983148,1.1404416189427866,-7.6177889473198555,-5.307296503379813,-7.933652424460055,-3.3780490392074256,-1.0433597212703931,0.18643028147654403,-0.9225498329941301,-1.27554689471717
19,7.130505867127424,3.462854248301576,11.401703603962277,4.665915083546948,0.5662071641945552,-1.9518896524142737,-4.551014804120391,0.3973273866255072,-7.58519630447174,1.8080400748058831,7.082909530687914,9.443936974747103,8.446964315999663,5.401026083837734
20,12.686613165556297,8.974541135646472,14.29879691460487,6.240253988734186,1.914863160541782,-4.613325956772258,5.096087260052566,8.660912441949844,-0.41309210751767894,7.817558157993652,12.129346302047457,13.084322169236202,14.736496261712343,10.809328363998139
21,9.85955601927691,10.085435199919262,8.652680100805426,4.1673174406437195,2.2155803822749167,-3.4226920271424564,11.788355365864252,12.76353626313332,9.53194149644422,10.464947832717648,11.172751097109698,9.634972687668274,14.147192094378093,12.45578588529622
22,-1.1339245569184575,3.3231115411250647,-2.3630226887620505,-0.9379320034985447,1.4348112289980628,0.9763442865403671,7.859704145379637,7.249213872019231,12.460135150135942,5.247607527356314,2.7958321448222816,0.47986633366925935,3.362036647614148,6.367074741821733
23,-12.38287523269018,-7.838664062586708,-12.636207020743703,-6.004844161200378,-0.08732057670617877,4.090935380797338,-3.2031783331498467,-4.3211353107103,3.858633407033469,-5.856406101144141,-8.761746820678473,-10.338866702768028,-12.57190028254377,-6.6150790818352405
24,-14.275857244145179,-14.544353108588682,-15.297718295034365,-7.0786987235705965,-1.8617600575251292,3.3198841568487074,-10.31774773632317,-11.843144390444076,-7.673712381546326,-12.80762323506207,-14.131242948086335,-15.226011580594538,-19.620366364873316,-16.41027196534781
25,-5.084212279788815,-10.433168320623599,-7.130537203274051,-2.9428757751370846,-2.8287455716444176,0.6524501831318502,-7.266403399260631,-9.424168175495822,-9.645882008562259,-7.8896953936257646,-8.032939477928714,-8.54022442636967,-9.652124771673828,-12.83517445422961
26,6.615985997414519,1.4136040708023252,6.428046464830165,3.024756095803141,-1.9430314465185499,-0.8806174723264284,1.0449204786011193,-1.184519528687844,-1.7822135706203857,3.5581394242766797,3.3700344355248015,4.74158150423046,7.274835655421271,0.8013489926800539
27,10.762058999908337,10.68195800398921,13.802125260550492,5.723250557550416,0.3568895763270794,-0.7753837170595532,5.458527221408015,4.4667651017900365,3.92935453151135,8.549508599174802,8.657121969389964,11.762612547644283,13.581688446982193,10.308899251178484
28,5.982613436322744,10.07525335390453,8.756319708825833,3.3239532345665865,2.129843366980891,-0.41545370740213405,2.9892633120690584,4.119876759242031,0.24167765294314258,2.8105844822412855,4.27185286714269,6.675489769821841,5.523927468880192,7.988411598268213
29,-0.7230888813724576,2.491352443145589,-2.072743910677837,-0.9407840142938826,2.007589600883121,-0.9750334538731341,-1.5235617165618351,1.377074236201933,-5.57530474690832,-4.243582692585219,-2.248475353620426,-2.021636634075202,-3.9624890174863907,0.7829906744391824
30,-3.0170524877383835,-3.1199340847692745,-6.757154173719143,-2.30345786369377,0.7357391452079234,-2.3788298044741367,-2.3613802295894235,1.0064351715997135,-2.9396427675811605,-2.7975152858403654,-2.2272019407659376,-3.072147886804035,-3.349101900323264,-0.9743373570583835
31,-1.21741890639802,-2.202444641987872,-2.2240136015179592,0.15517417783211554,-0.014390209517478152,-2.9652203820204686,0.9313863113275538,3.2110907883008237,6.665069764477836,4.681750658528256,3.9851010591998897,2.7542601609369983,4.086695888167827,3.04749318453859
32,0.27938128268662843,0.9993346934761828,3.2653104066627767,2.370191932450965,0.06019523776173012,-0.7611147097873617,4.046638190917059,4.025596590371486,11.7459022608052,7.918637051133373,7.771517174271715,4.991158806571613,6.685030029155376,4.616513645323569
33,-1.1551878389565,-0.09939908065343062,1.8402546615073576,0.39721312027810535,-0.29080885350651803,3.4137351076621267,3.0010186235009697,0.48437835146538133,5.987645702481772,2.2989919092606015,2.290355346086137,-1.3401948208653822,-0.7307208733798551,-1.5339779827454854
34,-3.9294465244043795,-5.388340534050066,-4.2941582393911,-4.135911471036047,-1.6881788720034692,5.52262981311808,-1.6369927815326608,-5.353293256967558,-4.609806774240034,-6.6018160281513145,-8.778151028309793,-9.19457212353279,-10.96048532168742,-10.767234822260466
35,-4.366665381650864,-7.803409589152596,-6.994669371809163,-5.534614090808374,-2.655775864914432,3.162399414080291,-5.320822385360251,-8.054107985375474,-10.108109049220404,-10.408420823333566,-13.879986207637186,-9.468094747056288,-12.331852721489565,-12.866633329248803
36,-0.7786649059292419,-2.464222092918853,-2.7764608747735817,-1.1466553682356397,-1.2266765874542558,-0.8462371447349022,-4.357439012358548,-4.705286085262212,-7.55182236072434,-6.2735578864257535,-6.523477456833515,-2.2896303172157677,-1.9427242921353074,-3.281331886809895
37,4.257316511242099,6.200003939695443,3.888831777816202,4.9318199337994,2.048499582355365,-2.5031091397104857,0.08365194746884823,1.6075775614845564,-1.7071065473484652,1.7763966134822853,6.294333621197009,5.140091568981527,10.15110202902645,10.117739618553891
38,6.183729852611983,9.150359765271007,6.765796930511802,6.476424852743727,3.873070778000312,-2.2852004868870615,3.4258758368674735,5.237545502585376,2.1222196489382372,7.367500475812363,11.95904708442994,8.274848283580864,12.160528751315873,14.410128467963125
39,3.5339507618812873,4.0891003639508865,4.6681217815356355,2.384772839098534,2.0122014048298373,-2.969080249532239,3.0059264487644244,4.296195644159069,3.091654952674521,7.334419219574931,7.104654280630857,7.851242633183546,4.313887427195904,6.684081688991949
40,-0.37940091304931395,-1.769568289204794,1.353769200473917,-2.4687982953918435,-1.4819001639998572,-3.6860499271755063,0.7575870064653563,1.8476794683009274,3.189792158736305,3.6029858812371955,-0.19521489611837506,4.8770268300712365,-3.110582423631829,-2.9867104574632197
41,-1.9235288332091407,-2.035118698171211,-0.2437914744862355,-3.5437661972615553,-2.662218543501533,-1.2567408467805883,-0.03752617734386357,0.9337877831353576,3.2676313495395775,-0.16465123986291919,-2.672316753845107,-0.9800496668777008,-4.183623634372188,-5.680677359118199
42,-1.7697214622556912,0.12818005264224527,-1.5892027256025658,-1.664614138170219,-0.9770038743671108,3.3251595667038996,0.6459140805321396,0.8236669412957325,2.4497833341091924,-2.636879936152677,-2.0023672845083755,-7.470875215049875,-2.8300672252349366,-4.003961631472413
43,-2.7509932134976616,-1.8332577713549534,-4.784111131716789,-0.4800377361669049,0.367052772614664,5.295453116970523,0.16237892356029116,-0.6112654139310203,0.6904245296285131,-4.225418618285306,-2.651023812385226,-9.459992041803549,-3.2209043774676407,-3.9287476797995526
44,-4.279955187525735,-6.422632455308154,-7.156417041283925,-0.8212375226054799,-0.28988357798764386,3.3139664687028327,-2.0324324467375012,-2.898795639300018,-0.5472133341488513,-4.28522177909945,-3.8964729315465645,-4.976444590686427,-2.916215271280973,-4.023017533361189
45,-2.7084704937087527,-5.917019658531242,-3.9451258720050886,-0.3808646531917534,-0.6234499195142368,0.9102654494201458,-3.01558421067945,-3.6411437366566504,-0.9676214813948862,-2.033800523625361,-2.7268028371755246,1.5376619337217408,0.48328940826844924,-0.4186194807254527
46,2.305505145699749,1.1993900294464095,3.5673140966178956,1.6111917776578428,1.16159483471896,-0.04204247872705235,-0.9151876077015233,-2.2182110207082797,-2.38898436014604,0.8070107993853156,-0.11827369130902272,4.4739031488164285,3.175665940010124,3.9404062611674577
47,5.898314090867786,7.257937413989071,7.910805170531499,2.7591698221301284,2.635936262911921,-1.727633791914052,1.8532518716484367,-0.3764435175153329,-5.080526305744553,1.8632011218635263,1.255045345327367,3.5630954820391163,1.6623833366694356,4.11801256000182
48,4.397875047398673,6.405547946057123,5.218846971448618,1.4049259176439615,0.9403781880993015,-4.656513708361153,2.0366167070031977,0.716231866125592,-5.525506202588616,1.828656041721967,2.259916254791243,2.6453572628486137,-0.32319885812934324,2.3204929846188476
49,0.15104033850528642,1.7710542711963593,0.04365445646978301,-0.7361447267728446,-2.1714862938288104,-5.166936709541559,0.17293753742661352,1.657694018866892,-1.0799335995852906,2.631832862152271,4.399806727316707,3.212951971242769,1.6976398857683375,2.9241182031159116
50,-2.4371063286638903,-1.0917131917099716,-2.147557623432787,-1.4073279160324441,-2.691886370846699,-1.4763442723823637,-0.8396379565320167,2.6915580648741035,4.934352170849597,2.9928454017972,4.766202826541925,2.4739408819579833,4.1803054584796975,2.843908189341411
51,-2.5016810194046655,-1.8146078493851516,-1.9929676421885352,-0.9115274819881072,-0.26051759172218686,2.67101625097906,-0.21528739801221183,2.707913375079375,6.888701626443266,0.39867259621978723,0.4982533449051212,-1.4888810270229276,1.1232305725460863,-2.873989947730844
52,-1.6618343680736085,-2.5945352367149557,-2.26754056107616,-0.6028163834330381,1.8360188367799615,3.6958820500214373,0.5467895575124235,1.2928348304163115,4.360607950304523,-3.262616871425358,-4.419485265914104,-5.5942254714333775,-4.884766348784944,-9.218023257477519
53,-0.4593263713486074,-3.092012218982046,-2.144537410225344,-0.399724058430336,1.613157145315245,3.0863626935142774,0.7976065984005706,-0.26161553006477606,1.3376177246401433,-3.42045111337834,-4.203349952613245,-5.333387510271643,-5.759754687002013,-6.403694993737608
54,0.9266122088537652,-2.135174536393195,-0.1886032385302203,0.2161584310532718,0.0737152606336299,3.0496219061655876,0.9715153720199354,-1.130101640927837,-0.9154339216239699,-0.28306913675901946,-0.9012973291643711,-1.085995837582349,-0.6511398563182648,3.9749931201309154
55,0.9863524561417975,-0.7063690989505615,1.2475807911769148,0.5752185754108987,-1.2911940112662363,1.8020526044541385,0.4329559498783599,-2.109048474426398,-4.132320780785307,1.0809634476984942,-0.8338426712783513,2.2442764443496324,2.9420983753023173,9.154866583479354
56,-0.7077080882307046,0.3764238801449248,-0.02442247985759055,0.20902502335976647,-1.6671267305041944,-2.1765198086874293,-1.6034384439044378,-3.2528103106984663,-6.403715755132863,-0.841572063023179,-3.06045926754204,1.9312877778385764,1.1789927617115243,3.1916906501290923
57,-1.5010071885334972,2.3367649213552433,-1.1149091855661746,0.1568844920462423,-0.3398854755858995,-5.194507112116452,-3.2869214892702345,-2.627099729430336,-2.861098480563183,-1.3983723512008193,-0.7516634965110972,0.6068952434849755,-1.001275738016888,-5.024510469665837
58,0.5728824257606482,4.875236226978061,1.322218434980317,0.9192836785419818,2.1245681913857912,-3.347203458234435,-1.8396942038816506,0.5108165013697894,4.712643493489003,1.9822223416333964,5.888213284030312,1.43438251925642,0.9447947295470376,-5.185869537258868
59,2.938341784558354,4.407488428069397,4.371432234739025,0.9304707648880216,2.8855636667468225,0.41564099501775026,1.6599093677106538,3.264971985320827,6.618359608218012,4.554498875074076,7.98122378076999,3.023841831813712,3.7419961301223346,1.025430851162901
60,2.0213561322066993,-0.5111078689220274,2.8169084140439202,-0.7120111824013703,0.05816116543865101,0.5008506256005059,2.968501047527643,2.5208062383191345,-1.3515796021398527,1.5217758786554523,1.7763329013980325,1.9835213205432534,2.247353323445162,4.8859375722071015
61,-0.9747038486196524,-5.243129349887864,-2.0447206280077537,-1.8820420705924883,-3.5836169495515513,-1.8232107712064018,1.02489996289822,-0.39563870518390676,-9.407623992121177,-3.7090715962855136,-4.969452967739808,-1.3076731134171533,-1.9904211244241052,3.0951472333736922
62,-1.9416015827652537,-4.674995692965956,-3.9870886193176385,-0.5401516656270393,-3.3737060000476196,-0.12627410617463572,-0.3942555154771975,-1.3107505897938334,-5.7772386048193285,-4.109822682039916,-4.903094591302592,-3.253204314340026,-3.4919577837516163,-0.6970997570641044
63,-0.46157844848533375,-0.3970258500087373,-1.6093932815746055,1.4199479905875836,0.7292509658295513,5.981331856585203,0.9485109568277712,0.9516889111379838,6.505427804878888,0.3617469207316979,-1.499265539156151,-2.7717042659924314,-1.646838818374682,-3.303163161692068
64,0.02164683998299406,1.915905042227498,0.08927264830614737,0.7605635649268502,3.6603097506431816,8.477210015749234,1.8544758284204108,3.0001893515380433,12.886358011118139,2.8442252767794995,-1.3169792282123565,-2.184600809726725,-0.8061013202024909,-4.521607726680342
65,-1.5633226461074852,0.6087023359511909,-1.3609829477986923,-1.6786040728621665,2.0867209358375263,2.1418935306607296,-0.828140868917619,1.5646033678546665,6.4061908718467615,0.20797145253823318,-2.42258461314277,-1.8789792720822833,-1.9265979072018364,-3.522032951909016
66,-2.140474356031974,-0.7555122867611805,-1.9225346390617046,-1.8134425792410331,-1.3041281171649604,-7.382149462147106,-4.283681025854258,-2.3335572427767577,-4.375979869407728,-2.4181450049267816,1.0364259526503399,0.9004065885845909,-0.53384461780228,0.9969586009843223
67,0.23859197990628211,0.48751611922635113,1.545788687038847,1.4312867840037673,-2.013115742221384,-10.348947110046968,-3.514440185236944,-4.832533280112072,-8.230033625578603,-0.06900896494979115,6.751697835512794,5.720765005915233,4.67216017609556,6.270068153039029
68,3.2465570451872092,2.6909301782675095,5.411731195819867,4.0192175251438185,0.13636874340493543,-4.489293810398947,0.8612505256623314,-3.638894473871033,-5.010077877777065,4.025822847836492,6.358451347976146,6.610630095299781,7.201934520667597,6.5270282990156865
69,3.68388438515528,2.831695221779086,4.490696154520995,2.0305217413528824,1.4821827202470566,3.469090928251906,3.2621000943324794,-0.026155233084104418,-2.123189652742879,3.238223004958516,-1.068799799482487,0.4379484970845282,1.8338917181946883,0.7260767461135569
70,1.3133076919196887,0.3410779386639062,-0.41857632255547783,-2.9637561823510676,0.057258481323987614,6.3080328575915425,1.4344443801861033,3.085574818880973,-2.0251491189412336,-2.1983614995582466,-6.436944563746386,-6.3470717331333155,-5.920528725169317,-4.915544106962576
71,-1.6293889635944045,-2.4667810637570855,-3.912451322960096,-5.261989566974307,-1.8941084178642107,3.613974401912609,-0.4797488355074257,4.04365645153303,-0.12644075187469028,-5.093115176182357,-3.553669064046742,-5.27425518042226,-6.321173936732326,-4.7273447061923
72,-2.981467088624032,-2.9721080316777364,-3.2330454033628793,-1.772921527694452,-1.3817523133426826,0.39530613016393046,1.094677571361401,2.9731777648953526,5.300070496803739,-1.823841866300163,2.2243887123631154,1.7659753483617147,0.24967862782221997,-0.738578056987315
73,-2.338031676466053,-1.3091127705340977,-1.1084073964354348,3.6178048322416747,1.097724260785146,0.06123832071055707,3.0633592663726463,0.3319737563051155,8.052504560249595,2.1811564105292893,2.1013623206356096,4.287114603795157,3.3039476019231437,1.0450189820979352
74,-1.0480710628566923,-0.16455204422292574,-1.1206198231561288,4.373766417130238,2.321254482487919,0.7472293166391736,0.42691574410115257,-3.036472706176964,2.9027170854072617,0.8624372615656548,-3.547691757343695,-1.8112645845047646,-1.74421737545177,-0.6423542107028724
75,-0.21295805400852608,-0.5370683796121758,-2.1619961480580354,0.10133072829409329,0.8631512025540469,-0.7124066744810581,-4.951412608626373,-4.489356264088555,-4.751668671148715,-2.5081076817838244,-5.585753384271262,-7.235134199519012,-5.515279146236187,-1.2182788048594748
76,0.9893341190662286,0.188692053989379,0.06200884021642748,-2.713495396198863,-1.0577431269837774,-3.4666059687460566,-5.738659662895115,-1.491651870551947,-4.93142712532951,-0.18681615184619993,1.247550936185961,-1.7942031563685645,1.338493517410156,2.171672844348474
77,3.168675538521476,3.262782204515782,5.526865842789802,-0.550106549815061,-1.0684443357789006,-4.051750485996133,0.10849636096656863,3.6684086743433806,2.1285137796850675,6.550925311204293,10.091074688875203,9.696739724791938,11.727504836325103,5.64568059074631
78,3.8054140626010513,4.514157016985531,7.539504517519211,1.6759689094342938,-0.14579057973433246,-1.7197186661428017,5.435990728266038,4.749687264701466,5.106999187904157,7.237047178485471,9.475163394414531,11.690481710064335,9.84403940236864,3.5715904438353663
79,0.2667575625799662,0.21148628862649482,1.5234837592797636,-0.8325398366474763,-0.5574018786595917,1.1440809341319296,3.7946318426453667,-0.17485572250323222,-1.91924327153492,-2.0036016081535606,-1.7965114647782938,-0.7118154809850444,-5.402182067371814,-3.188424750604157
80,-4.457065565321542,-5.21545266574397,-6.738316102949931,-4.004227963356246,-1.51022799566718,3.144987289353242,-1.3426484545300372,-4.9359811218146055,-9.723597954026985,-10.70124276323511,-11.685664444989676,-12.971408009000061,-16.03239659753396,-7.386575624307291
81,-4.158886832942241,-4.062359495472544,-7.4497229898679524,-1.311350746765736,-0.05705229487104409,4.489888277708114,-2.293776556502483,-3.4423504531387694,-6.585643874129639,-7.804809880510176,-9.288689533349666,-9.822474680262392,-8.698210704279134,-4.181553452760542
82,1.3114209047403418,2.606592498549384,-0.2764855710017454,4.844865199032118,3.434704646200572,3.913837441814604,1.0492231000401222,1.7035535885338975,4.776423191366618,2.886973066716822,1.5559499638012155,3.7715852835450487,6.976429948369063,2.9240225438271183
83,4.6213325146019315,5.332448904560328,5.091738475129526,5.933665073326597,4.2435363637229555,-0.32483060631923644,1.8298436674129008,3.4498648974866324,10.829663819211707,8.333302631389435,7.745692026830994,9.918391082043101,12.007479125324291,6.45391898267786
84,1.1657847556219152,-0.00680744929666241,2.5128821392015914,-0.027076055076275606,-0.28579157030865043,-5.730928572709305,-2.1718966993860813,0.5501926476628426,5.403128678013003,3.694431664780272,3.8021975843144786,2.555239406513372,3.1545734253176363,3.350068552753797
85,-4.288713371941389,-6.118017977675738,-2.961585940833672,-5.818758304026244,-5.881404089061871,-6.525280194773392,-4.774340938701303,-1.888811257116801,-3.6583088969815893,-3.3501026333438726,-2.7745147282995632,-6.302751801360104,-5.930617383499864,-2.7419497684489316
86,-4.4317306736783655,-4.9130573450242645,-3.4835052107655926,-5.25225331309228,-5.932275421976529,-1.1123894307317912,-1.1663767931489823,-0.764321095762859,-6.213526633848413,-4.3918157786694865,-3.104741691347779,-5.2311946257908,-5.223712123227228,-5.997757316336299
87,0.9528863118216238,1.8669450256849844,0.9799371782580394,-0.19113969381681084,0.16987420065095338,5.034181340675914,4.6109225623287795,1.6358422134621167,-1.4829264938129205,0.40467675900329403,2.064425576864351,2.5009018919934496,0.988998730037834,-3.429153317246882
88,5.659360830276356,6.5104244482863995,4.396468760453425,3.742140443874733,6.1624042060151165,5.8598547923953515,5.561690004990325,2.453098446448375,3.851319971516608,5.141284160084193,5.330797280012104,6.893601646735401,4.186760642327451,3.00437842307678
89,5.01827273476314,5.340653708177562,3.551691187795291,3.9546544131553505,6.258133406382331,1.389873374947392,1.0489141976114973,1.573061755513635,4.266775963310299,5.016662766288209,2.575466951497827,4.6353415959471,2.649296761283535,7.368005657930617
90,0.20941970257421338,0.8188934213707703,0.5916097790644936,1.6574880442120494,1.0409541702459904,-3.4917266604991544,-3.5957130234543193,-0.3615183765535723,-0.2643920030666842,-0.46369140953320204,-3.2528541563222686,-0.5820894731110723,-0.5257340581937813,4.676846606833552
91,-4.295535119371654,-3.3962187571142755,-1.9037565456651726,-1.049310430561508,-4.281121608459243,-4.598542151680006,-4.342410527465506,-3.0988894670125213,-5.493729137418055,-7.0814020978224805,-6.511527634719656,-5.140202043562375,-3.2380938778782142,-3.027204323985604
92,-5.319858124322126,-5.447859798966778,-3.7410113883059624,-2.7303986491536825,-5.552455088479818,-1.7022791712215521,-1.9520582211303625,-5.090028982058359,-6.643515000879363,-8.41606541316165,-4.586326408529684,-7.196190520598911,-4.307289979386671,-7.6775174447231045
93,-2.873857156482491,-4.511954802583876,-4.448505134711402,-2.6067428553636085,-2.704441474706396,1.983591018714439,0.6972409129448863,-3.9112973654340393,-2.6875941760128064,-2.284457733653859,0.33434927278769083,-4.860133399654168,-2.2537841440477653,-4.5684309079316
94,1.0800782057366234,-0.6160352742240603,-2.0841581828569367,-0.761845898968087,1.5199222108939645,2.9519195313497257,2.021766754264092,0.5618994590879901,2.61410306085386,5.578276342500342,3.9557277988523754,1.7735018482419393,2.24007306494647,1.8747916475704176
95,4.292090338848899,3.996166012110183,2.8723998225193452,1.570006968900103,4.252495498165508,1.0528254428624046,2.194344415662745,5.329682722789191,5.285885956307855,7.668513702621653,4.116598114320808,7.863106118745816,5.320023676523947,4.433571406227482
96,4.701913388689199,5.510073727415298,5.705896635752015,2.621643616478753,3.9663472575500194,-0.4520146595125215,1.6745348034865193,7.088557356404181,5.612594128909153,3.730007843874542,2.2357071912043303,7.5433369282600715,3.9870233348411066,2.2426366016718378
97,1.4086072902635458,2.368309145776173,3.05316846200491,1.499081742703473,0.8697717955084945,0.5574563228889503,0.44271929101670165,4.796314231015005,5.698911707072954,-0.21822394509491094,0.6564021237551618,1.005313825835498,-0.29370863069080394,-0.06884947293009432
98,-3.310278191057005,-2.2618002337691525,-1.8462129181924738,-0.8539772242966818,-2.918273795829949,1.8809811357627149,-1.1582405375440539,-0.1556672164879349,4.306619510503473,-0.9847570445471399,-0.2461953901150178,-5.093816223466992,-3.4925245758076575,-0.06763638505422058
99,-4.8292049088904605,-3.686383444091069,-3.283994887696993,-2.3222564746271006,-4.34295742130109,0.15715061571270733,-1.9074708700044516,-5.034129749185055,-1.6199735817952052,-1.4804616673082942,-1.501284642893035,-5.373189950883091,-3.5551731059439278,0.1318095550682551
100,-1.3515372355871063,-1.1989845053735582,-0.8275707476635015,-1.580575939910021,-2.1136471052352697,-3.9683960089184347,-1.1585230068104466,-7.21514089965571,-10.297520296636007,-4.203635030516134,-3.0957684234430474,-1.5206736550162936,-1.7865092099535718,-1.1830131841966083
101,3.197076375262524,1.5464069422641709,1.2491582166619173,0.6332379089392289,1.660409039809853,-6.020728214467339,-0.05770226099365122,-5.6159180676936,-14.320509100903704,-6.133384243601638,-3.3918897312824665,1.3030826642803224,-0.0017304691090836988,-2.0143245687022513
102,3.8487244937941965,1.6537392779587257,0.9451356289271335,2.262272298329723,3.58167453052721,-2.884832495693616,0.10008630616106151,-1.205698091537118,-8.531960187455377,-3.041391745310108,-1.1494182763576624,1.49991258482314,1.8821740705919916,-0.07199568740300813
103,0.6023146841867111,-0.014323194451713518,0.021655562808136963,1.7568773133414992,2.404423633609547,3.538566372436774,-0.0760285417415508,3.632728065942597,3.648427965832803,3.5908304812292604,2.2871552557244352,1.265342809493055,3.847911711160014,2.6003010773927153
104,-2.700790734781546,-1.385509116532826,-0.7610659380635545,-0.6143638001892867,-0.3508046690564176,7.961136609568212,0.6121196221044367,6.251620384464547,13.429330060863196,7.537504706869423,3.6509319449134665,1.242004972736864,3.249521155396373,1.5526959892577472
105,-3.5194361476138996,-1.811458048928811,-2.249293721476412,-2.70744205945185,-2.36196970828726,6.576658427557384,1.4758385422615734,5.220391931330863,14.723750987956617,5.482735110637279,1.5934087584764667,-0.3221576656137226,-1.5906110576049568,-3.0658162420898014
106,-1.8361735312464558,-1.081554544240137,-2.681174477207368,-2.1585674032390836,-2.2477700444513813,0.5949374383188599,0.9371635265005748,1.5986147694608084,8.098910304893721,0.6671914759112784,-0.928704285621093,-2.638463950387555,-5.964424536807777,-4.860214910515305
107,1.5173043794968406,1.1605230257365726,0.8434965753801132,0.888261479618479,-0.3095140617327135,-4.9972736149505455,-0.5780959950558002,-1.752530383658237,-1.428306887179048,-2.185054816870868,-0.3533030872848716,-1.7769977461544504,-3.206746057813198,0.3879018790862573
108,4.511915971272859,3.4154939894653706,5.66444792579282,3.188639745731417,1.60640321489187,-6.439209324735503,-1.0319507750388703,-2.91725703805511,-8.725464005558427,-2.833540617339944,1.8627891354795347,2.6843814626436493,4.2343668469436775,7.167891455151388
109,3.9524838151714965,2.761809675587302,5.019854705914478,1.9900291874031464,1.6691618856176662,-4.34585194504964,0.0197514505679233,-2.5283811826877365,-11.343530637739875,-3.8833463354408972,0.8642990750116714,5.041962657535373,5.755215735632548,6.15884443547925
110,-0.6667636203775732,-0.7497482962885536,-1.651737265991866,-1.251219791408982,-0.0074826526391396616,-1.4145332688315704,0.6777045749640056,-2.1198368424090623,-9.52406639310403,-5.043164095300149,-3.7422507395451756,1.1192100224955854,-1.7496964344508323,-2.7660947056725687
111,-4.882329718794033,-3.138609041474296,-6.417464568974008,-2.6515386677964945,-1.4923874458843718,1.39303054450412,-0.3812005398185846,-1.880043078615375,-4.428512969414168,-2.9161188082761154,-5.954515662945884,-5.00568039486865,-7.32490417909975,-9.06201215132455
112,-4.168950870804583,-2.109760239019985,-3.9361408221146132,-1.0878477844916268,-1.2063805605716873,4.490563931314297,-1.7827133162062612,-1.0375444370735283,2.6111360210953296,3.0536727993193398,-1.6891682254387677,-6.149060016195122,-1.68786036357384,-5.011632124246322
113,0.07123057025390404,-0.3744101303190121,1.3186315145321161,0.7908523310837011,0.5007407161540891,6.575171117740621,-1.2392183987840415,0.5360437833508463,8.953224477732004,7.842792312589582,4.751629271603553,-1.4813743359220901,7.703252933165575,4.036809750084138
114,2.7243955068466437,-0.6132459512234164,2.848092345445214,0.9198059238705787,1.8821081311502355,4.766900977184169,1.1831585247622487,2.4114386925310347,10.861659143225626,6.376052297404752,6.30118735550537,3.5412455920216734,7.031938894370312,7.101207091222741
115,2.1376866113957105,-0.6360006280839579,1.424876498311899,0.41599283090397876,1.4992840173721274,-1.3924973010218666,2.707146318940339,4.208590286723189,6.852465605151603,0.12175379366267364,2.5457537011591316,5.0783372041303485,-3.0048177242139937,2.244013089465369
116,1.1495796783283474,2.314693713139044,1.3624352256243666,0.7064955005899826,-0.47142709443601616,-7.756999743908695,1.1988720682881144,4.653130201213208,-0.06679489345692556,-4.592320267187746,-1.1571730566735687,3.930996036941941,-8.41621072186154,-2.3349815047909916
117,1.2117176303436783,5.2421559542609835,2.018496066033903,0.7499075368746939,-2.288407445849708,-8.668370143491085,-1.7420775386125111,1.7376996332005663,-5.142390355071502,-4.349293317448081,-2.3378020440730833,1.3231210654029577,-3.0375454967507665,-1.532565577243844
118,0.16680728081093937,2.878667151838437,-0.3594883859163438,-0.6644457120495127,-2.1507487665106937,-2.330803048438384,-2.291487573353703,-3.7499613437826556,-6.239651549360261,-1.7497551845352313,-3.293302769375142,-2.8402267408679247,3.7554454411901896,-0.0785376344063204
119,-2.706034551802585,-3.5268861170519434,-4.473620782571998,-1.8927920212853304,-0.00970532953720424,6.655125226106723,0.5914031555873248,-6.789837698411058,-4.5804023921593995,-0.393190433105271,-4.297447508785477,-6.405393984072272,3.1032468301291036,-2.6964452390446367
120,-3.9201053527781125,-6.662413833526495,-4.527910123803545,-0.7500241154511312,2.17284746192274,10.24667368885271,3.100295144498929,-3.8967508199813414,-2.4711469181984698,-0.1448626840272379,-1.8453348346277798,-5.081814784098488,-0.9158669972893498,-4.800990551493769
121,-0.983304695551936,-3.0775479993970793,0.7164694562559368,1.3480940339519136,2.287071452310213,4.17907373175733,1.192459642259201,1.2023268296410172,-1.3984447677154384,0.8172832674680757,3.917724198947478,1.0972764746903185,-0.7115420819167486,0.007525951317825068
122,3.020392961452692,2.450605089415333,5.248084217184597,1.133741784210309,0.3011147609847511,-6.4317574668387625,-3.5081208785058586,2.300486856690927,-1.031634777936534,2.092292309161686,6.642168750636567,5.839246505675218,2.2501444031376576,7.842419865325162
123,3.4857397177902256,4.040800056250944,3.9840178050657453,-0.9938160265876727,-1.6117427678943563,-10.542323421891759,-4.937170811080663,0.015431930493531015,0.7124118750540305,1.9338902622206424,2.6966573569060617,4.409387562010864,2.004790979696848,8.380362839080343
124,0.5317233756639665,1.7712650219708472,-0.8578104848203458,-1.2584289164719265,-1.4799155119322183,-2.994360205987289,-0.30048524787658953,0.41203364638323087,4.960779713601376,0.4089353135043601,-3.0288220846151974,-0.3461366769257991,-1.2995848003225927,-0.608328407713815
125,-2.0083600721002965,-0.5218245216410429,-3.8284904594283296,1.1203128935777016,0.1296307606567224,8.152146037592326,5.701392836653518,4.29513753048281,8.717907162414596,-0.8185432279440249,-4.5359774045671655,-2.904953844764731,-3.0548053532667057,-9.754794003858706
126,-1.8915968757659782,-0.8537091997476508,-2.9543452953001754,2.254939595872292,0.9049758099309788,9.802564679838573,6.075975143332661,5.079794017089015,6.981668129726297,-0.923309739900726,-2.468490705957738,-2.112890737138014,-2.0267145116098084,-9.437325222224006
127,0.06689862953719061,0.06301776636080855,0.07685767833050583,0.00957435845566793,-0.040832827622405664,-0.3713863456881301,-0.059231064146157156,-0.3192555265870079,-0.630918294448082,-0.3232178775481701,-0.14871349204433987,-0.055224392649061135,-0.14014532377458055,0.010013888065133016
