,AF3,F7,F3,FC5,T7,P7,O1,O2,P8,T8,FC6,F4,F8,AF4
0,0.016983243211730156,0.02146062629877761,-0.015531378986320614,0.009407903947340408,0.026368175875376928,0.03233944929996878,-0.007125170464681904,0.000978106148332607,-0.009381398725039722,0.032722707404902796,-0.0016463183757122468,-0.029094706221970343,0.031180134197594314,-0.07972902280933222
1,7.574468539348126,5.653365237862585,5.349902949182927,3.9340269405393515,3.918779391788526,5.134132340495859,3.0561627125773647,3.2717246522066916,3.4919924002018825,8.302031214184264,8.622882400802379,7.190201373088308,8.6101162864927,4.533567096116659
2,9.721667451342134,6.507025503680981,6.730437805692864,4.500063771877979,4.240121282441607,6.089306714132269,2.7071312140261745,4.652746542658678,4.35440158431801,10.175937130214148,10.57430594456867,7.678936749289385,9.11669380926673,8.031246584507986
3,5.128059253548751,2.0483046558594666,3.2768083216483443,1.6031146118576596,1.5048529303914584,2.2292847253077204,-0.37336333773569036,3.1816114262503516,1.6657824974510524,5.346446286201438,5.142245723980813,2.846066988422032,2.5515406433642562,7.091973712123044
4,-2.4438964839963964,-3.3480161299891136,-2.2275453283205793,-1.8931780015997335,-1.2256537961247624,-3.086944380561513,-2.525527590803293,-0.36751493701759924,-2.699685894135444,-2.085655391080167,-2.8286236539881844,-1.405844987041803,-3.6449940014822735,0.3631133960287245
5,-7.144033036240577,-4.68388736494373,-5.5948700155514075,-3.222906601186772,-2.283594413511357,-5.283228758402222,-1.4356901860477171,-3.2438860004883066,-4.650855077971606,-7.8854431659455795,-7.698727927130589,-3.031100109651998,-4.974374792226825,-6.910460265661598
6,-5.903917085101937,-1.6762998432733902,-4.376831770808949,-2.032372535822561,-2.050697894521783,-2.638185397460062,1.5719956702432116,-2.683896484378008,-1.362651001873426,-8.529667663749024,-6.689815242863754,-3.8218995214125266,-3.1658234942772068,-7.370734807963948
7,-1.0323525631311963,1.262069404512733,-0.034956282149552736,-0.032108504146880566,-1.1722439207846471,1.9242187025110622,3.039577810396343,0.4492458551227696,4.474248502132999,-2.6450558391343804,-1.233703833170507,-3.8142944410393125,-1.4135501664537449,-1.2495738924940896
8,2.412968680927502,0.8988769470138949,3.1290555469619745,1.0586459568151128,0.013600598958226878,3.6794737752330606,0.957749290948827,1.6476689743894002,5.94016709230918,5.364658725017608,3.726782312932925,-1.3191062319191755,-0.20984635464965784,3.2319608193274343
9,2.224308307169401,-0.7023980909899702,2.5091509375229393,1.0743274314532525,1.0429017878449667,1.2362682213190828,-2.7326414793634584,-1.221190991178741,0.031138564044686595,7.725680453958597,3.9091233070233184,2.500553468020889,1.5009255240676436,1.2460888578631353
10,0.9563440252776543,0.25668351669856604,0.17883945799944795,0.9338899282826965,1.5174504244269307,-2.080319085284464,-3.977475303272652,-3.8554725165138795,-7.209967794578317,2.62391838905838,0.5987189212417472,4.037746721034853,3.4301089238462317,-1.9610108396026682
11,1.3875677207703485,2.9767170304940707,-0.3982261008421951,0.89372596198888,1.290243540340304,-2.5465278583356135,-1.5922634098822102,-1.2328011610167644,-7.286979306457516,-3.173908882232089,-1.0178996280128212,2.216999241094627,3.5704173054929536,0.10387854559531529
12,2.067194520819905,2.662985577192302,0.5103686489978199,0.17101846544011123,0.3104765338617287,-0.2264558549124303,1.3567763478344537,4.277570350379917,-0.02491915818385429,-3.851452262812034,0.5944676858977755,-0.4614141376516019,0.6250166201784789,4.501992906949335
13,0.08257837814911653,-1.9442274289525419,0.11729575390760896,-1.2771454629916807,-0.9059389849303631,2.161273435478971,2.27391436244276,5.544602409759398,6.299443201001766,-1.568006545941613,1.2992996110953878,-1.6433600236596064,-3.456086466522943,3.6591616838054994
14,-3.1884133448596854,-5.356240423117898,-1.5128414426536136,-1.8566845089051256,-1.1344312566239287,2.69597327785891,2.319935331984478,0.9276156687745983,5.619272500493771,-0.5127824037813076,-1.2685577628294535,-1.170566842518705,-4.537151043487223,-2.0209568457977314
15,-3.2715894370717016,-2.5068851550733116,-1.51029484229246,-0.4795792242238858,-0.09153994693104925,1.130581744139166,2.8317927595906474,-3.5165166097313563,0.7563166827704,0.2935509590369132,-3.092150787278159,0.06826933120351816,-1.164591927499108,-4.399080194856873
16,0.3809038812611448,3.5374527300669385,0.4334114121105942,1.398075722440271,0.5581075619462389,-1.7015001557265752,1.865339784563768,-2.9144715823283094,-1.7976962187066738,3.0016310831498436,-0.41512809821568164,0.9794474021551253,2.9201611225037976,-0.4739751405309647
17,2.9823596527167933,5.280566234005353,1.2915461792884337,1.553910096519304,-0.4180931976862598,-3.6402402590183494,-2.046885666540439,0.311466154185188,-0.34620607219661753,4.557049082115813,3.3395827898750214,0.4719548893636587,3.296723375885326,2.8755127182817333
18,1.3697693608928043,0.9811531058350453,0.01981491017636886,0.10079383149598563,-1.4467748362195614,-2.3710448297260127,-5.545321264551369,1.193499047339087,1.144299096387081,0.9580945643773717,2.504122579144237,-1.2692888215944609,0.5555000878074525,-0.10599955068368551
19,-1.6099540585787915,-3.5813369165446103,-0.7988398526407082,-0.9898744882509816,-0.4000578210786148,1.330294256663482,-4.3723645922432794,-0.7701567172878259,-0.8990078200045467,-4.821055027969217,-1.9245448382122996,-2.272150159493167,-1.3743918133494741,-4.763161771178755
20,-1.7614371901919432,-3.505461214349863,0.20145730764225395,-0.8372149506623936,1.7585399050747534,3.519612329736408,0.16379430451230623,-2.097956156830427,-4.881393798359671,-5.748803148709448,-3.901256027861176,-1.024148863528575,-1.1827435065216905,-3.075443987474579
21,0.687268279178014,-0.24402857727988247,1.006198719327985,-0.16930518797237193,2.244476345957402,1.9889799473884235,3.1227708720888594,-0.7062978354459951,-5.748666373207538,-0.7180045078591634,-1.276132743980504,1.4729218808901847,-0.7319587760958672,3.832108125739817
22,2.3933443740842066,2.235222739511628,0.39140317687608667,0.5047893571718928,0.6633947318054526,-0.8483934792323913,3.0163292830932504,1.8287125408495055,-1.0416754916835378,4.0427894545861776,2.184403526398984,3.041918281756531,-0.5974605056209105,6.901886315897372
23,1.5667745307480923,2.442093270590894,-0.015844091787271503,1.0670842403644007,-0.8763071414803077,-1.6649004035059307,2.407198802118441,2.868099949175959,5.643131291732509,3.7001795956591477,3.067388542236663,2.7034555910435722,0.5367114293885649,2.233847245792754
24,-0.9043901547977531,0.898298594203261,0.35587315090993155,0.6664550874441569,-1.4116098454090609,-0.6000251860346891,2.187620743243338,1.6863012401630977,8.162154402797286,0.16634244315559882,1.721771177749814,0.700440465575418,1.9715499005358592,-3.6659773667155346
25,-3.1517872605360737,-1.6160888399849827,-0.5462619842835492,-1.1282467570012142,-1.8510488691871956,0.005369572193209077,0.181496185623962,-0.4824171010338265,4.31548311648246,-2.1044005949072493,-0.5059861168165586,-2.296078669543506,0.9695761216536172,-3.8762010127296
26,-3.242084135103999,-3.276924876901824,-2.6965499316460884,-2.362746614549583,-2.0160297816213184,-0.5396250394970459,-3.7723633370740095,-2.0987333009633353,-2.1935581177107393,-1.580861038619485,-2.7803940636400033,-4.536871751745393,-2.1795469234809284,-0.4833683553430445
27,-0.13891298083930664,-1.6879768095454344,-2.262192989742698,-0.6313416385617358,-0.2044398279048303,-0.7771450868330159,-5.607824699616558,-2.1965519843780377,-5.7611726309357385,0.46446933393539896,-3.1484527726787515,-3.471010383104743,-3.100377460696821,0.45496218425125445
28,4.208466362691607,2.4825939293838846,2.0305820745455425,2.791627227592875,3.203927839733504,0.36301311071930437,-2.223989912650702,-0.547781385509342,-4.037925131603748,2.2397413849582386,-0.026142828815247925,1.0840257713700157,0.44146648396689436,-1.0823531902839267
29,5.288184819652795,4.66153896398548,5.011743955745802,3.5734473403150404,4.542426716555775,2.0497897880536886,3.54736628853997,1.7269775829713163,0.17562436166161516,2.0261964724899855,3.8037703465144217,5.148336995723286,4.398708233450934,-0.4717007204821726
30,0.9887768444508681,1.7522085562517082,2.043565501026193,0.09308169071091703,1.4154473830172234,2.451118114134738,5.791174635705009,2.2411158759954914,1.815804677260447,-0.8600137789188196,3.2907882445021444,4.409508837118143,3.4812190595195225,2.433418875786283
31,-4.77650869553509,-3.2726494375991537,-3.3926517227888775,-3.857349610735302,-3.267079328708112,0.5653782553908436,2.4474104688491556,-0.2340260815265756,-0.6840160751632024,-4.2050617912395785,-1.4255151278937537,-0.4504228681620831,-1.6138200941576097,2.731054847404277
32,-5.861884802184702,-4.744665146283413,-4.242162898513812,-3.7710714352429773,-4.413716701513224,-2.5605938616794908,-2.687464644670193,-3.3188485997821138,-3.0139630400158244,-4.197350237638189,-4.255180189496732,-4.25305039718729,-5.068914066971192,-0.7339747379679536
33,-1.0363689531228777,-1.2740930043782164,0.058333268679805025,-0.008980450850826816,-1.304393855981051,-4.223864254520672,-4.647022991860747,-2.876766100665764,-0.3538267969585638,0.05081341535617627,-1.6881204262271754,-3.2658886189229195,-3.200353182053993,-2.63030237859594
34,4.558902819357147,2.940611004196712,3.312576350584419,3.1646505650823658,1.6673059583808458,-2.4230433442031467,-2.3131602871943437,1.6778828876694332,5.470174710574141,4.892360906098771,2.3995948510558107,0.771208175516648,1.6472389927385898,0.3547891292656265
35,5.091736760727628,3.3519840440448943,1.58570766776595,2.9064535770602644,1.2509878575643927,1.640352566435896,1.4075237984552973,5.471549958955325,7.306442298982422,5.911629841640747,2.845730696444101,2.988153069272004,4.25441519294191,3.516799362008444
36,0.12918297285442007,0.020185341139678757,-2.174157465696707,0.3649113083508403,-0.3667130899332347,4.302343665389366,3.228679472308413,3.5555715806494463,1.7713050623012203,2.1613964060476563,0.09782778574256365,1.0708643807584417,2.0683902309757163,0.9349330701144632
37,-4.8590524611547945,-2.721522884252833,-2.9370879521322864,-1.4840041185330106,0.5280668177279756,3.4474680392407144,2.548222124642993,-2.425373132856315,-5.980873770097964,-3.400511888404966,-1.8535516427891574,-2.1291335079588127,-2.267363812989991,-4.923487754336575
38,-4.071630290483934,-1.2680712583306062,0.26443664007468903,-1.1964153025656785,2.9551185638178876,0.6687717741855274,0.878535359681175,-5.578779857964518,-8.31564642267136,-6.412781522599395,-1.333613789385928,-2.162374921936989,-3.5439064462242555,-5.881117646491811
39,1.9857590906030287,2.613158359737311,3.868854769091694,0.03261580894007407,2.4103557303078404,-1.4554199928504827,-0.8116622746750058,-2.4032380293123876,-3.7205519316396,-4.265849246761356,0.29249816168948867,1.3220776698442047,0.15574138870279733,0.42624591155411273
40,6.323860059767996,3.4454917853370466,3.794253301052802,0.21735054279854749,-1.9096208719519046,-2.4731379082624922,-2.5397175558571243,2.6709923184914004,2.8133130963533217,1.6189727038968176,1.66380697622131,3.9625104024982525,4.582444137930842,7.061332427849574
41,3.3430464374753646,-0.7365224696048844,-0.51999427656391,-0.7954683583182218,-5.0101459140203275,-2.932383343922947,-3.3713439908386356,3.302414810602021,6.0924303904799,6.250451276191886,2.103236143780806,2.110718913978202,3.8788451593806186,6.7500231845554195
42,-4.159514396864502,-5.068738635990437,-5.252213021084479,-1.2610229304169893,-2.9655378938385852,-2.176556583139367,-1.726642713144199,-0.46479708600708197,4.663084822076615,5.130665677269225,0.5220655063977179,-2.726436642655102,-2.146010306541038,0.05349716061271411
43,-7.860868443835341,-4.013518472252094,-5.519499997320492,-0.1323877137327481,1.5286719584918034,0.3841044378930808,1.6290785396582559,-2.9768222085735485,0.11608336780209112,-1.0070435213854185,-3.043513095645498,-5.6475238802834715,-7.1656026740611605,-6.5548757409755805
44,-3.3893861203590863,1.2417220653513754,-0.37802220412606286,1.548631597907352,3.374535273656232,3.145169285694192,3.5514062490499554,-1.0282050104943747,-4.13852585942212,-6.109389325949806,-5.172669053849776,-3.433363575600617,-5.291413796402703,-7.320194074672527
45,4.774746382593609,4.699498112940885,5.620298587339944,2.2532886047690024,2.061584128150487,3.6792699532904827,2.514905976419736,2.3604724944287914,-4.428511657247498,-4.8521616485218395,-2.0013491786870796,2.4644017128705586,2.267448735368069,-1.4141310683710404
46,8.185802341375306,3.5016726240209453,6.684957077753918,1.5241784566725227,0.6366171620902449,1.4972114276030555,0.21872299505977139,2.8571808148857905,-0.5006863743656128,1.2908493416540616,4.647153447581449,6.9114470361437,8.2080141414103,6.120057925585876
47,3.517209905897941,0.3780945013843925,1.7490786217707084,-0.42083304220225787,-0.1728971830707124,-1.7966755467787723,-1.4631538025826005,0.5219492910411241,3.211932118213036,5.555548890777382,7.59926216222744,5.342140723960963,6.616923577229094,7.727243114283109
48,-3.8839263718050114,-1.4194022219405387,-4.377727778878311,-2.7752972113178815,-1.9051991377258255,-3.890122296162854,-2.2832259448597565,-1.3603137470289475,2.932899952085949,3.74001275674943,3.0200529373934946,-1.387222904716436,-0.8523030259691169,1.289848214047366
49,-6.147237130174507,-1.93126714444219,-6.057830132312551,-3.4693498601622226,-3.3252679996395167,-2.682479819149763,-1.8068738007572382,-1.3045339977352015,0.46921073546219844,-1.2430209962660042,-4.0991621921714305,-6.826627245584147,-6.757651325287931,-5.93111072156394
50,-2.0746072791803227,-2.4088259091514383,-2.5968212902509444,-0.9355101295835833,-1.1216260256795458,1.7966652391520639,0.6090460173376777,-0.874186122937116,-0.5948397540218991,-3.6837892080092542,-6.24326941389651,-5.604717478033757,-6.008722216275219,-5.694188470183628
51,2.0661041471163526,-2.395037844098598,1.6680378722902098,2.76806704454123,3.5046283752002063,5.402411438868523,2.9360804841937775,-1.345113690617558,-1.0289687435796186,-2.1665214418593006,-2.8722414364531654,0.2581849864598858,-1.0037410729197505,0.0858621377210474
52,1.5821829099378069,-0.6220861429530113,2.976193941565544,3.5989948090159674,4.593268785048804,3.1254380369051713,1.6360735245033222,-1.5413388597946622,-3.1812330357837615,-0.023443296666231933,0.5273323726609367,4.2048727298797095,2.5681824573461136,2.783624499421315
53,-0.4431493868076334,2.5811300410366833,2.285102970884552,1.1667072319252627,0.08044133690069043,-3.7466632318973754,-2.4718068487588396,0.15925095851379076,-4.311923077816347,0.5142780714154807,1.3845103680803956,3.623314700812138,3.165502152002085,0.7675593581834166
54,0.8767400366153291,4.98101571537633,2.316118877454462,-0.8288390848418911,-4.407701719781145,-7.367212381549562,-3.7606937522473247,2.984379952869198,0.2865266406144654,1.1032755775125234,2.4368459097709607,1.7497827429602715,3.3438025886438254,0.8656563934760187
55,3.5084476901493247,4.093361679703382,2.1998667596871915,-0.7839097517057471,-3.5712217036660068,-3.0645261580864935,0.1771670410688145,4.1674141143467756,7.692187221801153,2.8697712274048848,4.613328155319394,0.9306985389331356,3.3815230578311,4.6252081792175375
56,1.5168568229330308,-0.6555358261843024,-1.1859631721874577,-1.3233138786512202,0.3470287867213518,4.1900763560067595,4.197713914343608,2.0306747756895955,8.405040940660223,2.749035707408311,3.5781799472696165,-1.0756514163758495,0.16758754390729302,3.578960167344485
57,-4.524935532692046,-6.351183515956226,-6.60211702167153,-3.4005648214976376,2.098740572316176,6.4871135390026184,2.733892097968091,-2.0857274033948934,-0.6108857850049192,-1.8917726809451225,-3.057401779391602,-5.468712079070226,-6.096283127006416,-6.023883923162085
58,-6.78422803149336,-7.737035854634883,-7.677313840395892,-3.1792223951662733,1.2029463674384981,2.923213676176322,-2.1601079376625014,-5.0667467456413435,-10.089610885443333,-6.840032617136564,-9.18442939233083,-7.339340448117875,-8.913806522534623,-12.933292100938168
59,-1.0261528513838998,-2.010249221763739,-0.8956049368896337,1.8147951398259141,0.88172157765417,-1.1259446249230043,-3.8565481351094775,-4.623752835542355,-9.516351554611445,-4.6737465669195295,-6.250189318359499,-1.2569070893419898,-2.9315735139423844,-4.892575382204033
60,7.039857857223899,6.876476314155495,8.554361143531393,7.156110335019241,1.914546728747737,-2.203391961200288,-0.2629405311656502,-0.7611691209670518,0.09566622010740637,4.282683664191897,4.732706619457641,9.302312360454907,7.762392530116769,11.923916448116554
61,8.53503740983022,10.424728617494157,11.502881028349595,6.250172603026641,1.786824299636239,-1.8638148487341752,3.8428497256209972,4.2063337389514635,8.506675945092452,9.929702756473295,12.089678900804776,13.205805522652946,12.399040102281784,17.960454239346948
62,1.5150701724220217,4.0987797180150425,4.50852350545851,-0.9905483408077003,-0.9221021002851655,-2.334487429280246,3.291467470853215,6.670095488448741,8.691667176297884,4.830140307626248,6.818892093244462,4.312567597686729,5.224933081811779,4.887950177918212
63,-7.287782087557824,-6.5516323987674,-6.453283835246495,-7.534048083481636,-4.200175159335764,-2.794401211393561,-1.3317572961086772,4.063918178132263,2.736423600393126,-5.3066794786885785,-5.835969111732669,-9.935036572182826,-7.239203632205327,-13.374489045928016
64,-9.452976117962331,-10.718373028855785,-11.862681613499793,-7.248194952672658,-4.802169382520884,-1.0737357563294463,-4.986713449485059,-2.4632914191263104,-3.6311251192408127,-8.933402208217785,-12.147219000242067,-15.684102632484322,-12.541499817025693,-17.648990611403697
65,-3.2286490486562514,-4.488860584230428,-7.797310832514292,-1.3795817843601408,-1.6655722708680412,2.608448170182867,-4.208974718029271,-7.925647006225382,-7.547471132036802,-3.9610817539560275,-6.304650943699533,-7.787740927147033,-6.027448685671443,-5.645155424028903
66,4.8716838305862025,4.555280633156318,1.1015886718405001,3.8855546861968864,2.938251927524762,5.147480977974574,-0.1151211271395263,-7.19477100018799,-8.160380530832485,1.3775523164892118,3.8359698920597687,5.335433960995503,4.323032689704718,8.271028645103403
67,7.561323985347032,7.225372018820985,7.516315811632742,4.948853846523972,5.490122588534759,3.970416751975397,4.10002499721423,0.21412325082248196,-3.447904082441442,2.374477641581521,8.164403264498864,12.240465147355785,8.246517971297383,12.004333215401097
68,4.606573008199493,3.6513780923321524,8.397522834842626,3.566892044658809,4.451838227313256,0.06112731487683733,6.118788557538135,8.638843465399306,6.582142643054616,3.4374760175509196,5.750992430001307,9.899664044279413,4.859684985283471,7.046090865650061
69,0.5574601790117977,0.001261834046776808,4.978672143765844,2.079709974147086,1.0738709250021603,-3.272057813759723,4.475117437944117,10.264145855861706,14.441694300297224,6.920677729527699,1.7208477331794105,2.751681845927914,0.4166060294698654,0.8102795481587473
70,-2.790347034210483,-1.8022395010818208,-0.9284040717648382,-0.41901134201579093,-2.5734051493224337,-4.051150102726047,-1.1000452368492728,2.368534959080923,10.11868842900365,6.042906208416262,-1.7850070126787514,-4.766021003819474,-1.8568516816870428,-4.066056954111299
71,-5.993099076230729,-3.9476141729139513,-6.864103969543105,-4.460350318896288,-4.900685409222054,-2.76217110604587,-7.234642506249687,-8.674734334011422,-5.287537565177099,-3.655958757534494,-5.5254104479918364,-9.829260240060613,-3.4837548799944096,-7.989235261172046
72,-6.182132431169547,-4.870820380131788,-8.25019121619383,-6.194787252592486,-4.43741663032598,-0.4865980370916437,-7.946670308863906,-12.296933036901056,-16.853436887738354,-13.088567298255976,-7.2156060498824965,-8.981713169572144,-4.314325436681259,-8.04477357608851
73,-0.11033299222792421,-0.6751880542049395,-2.5862937857780777,-2.12530031145609,-0.8226315715011766,1.9188256248863593,-1.546605440413661,-4.473878530533518,-12.323206955066379,-9.97458533496022,-3.035533603067187,-1.1759642609495011,-1.7978404885080181,-1.2838636106941999
74,7.251483665406697,5.622575053692703,5.059645350480644,3.909048178616073,3.1901697072599786,2.9435259662139295,5.666528207975194,7.226529323165087,2.6459404989580197,3.0997754533512434,4.790993072062202,7.655033981797228,2.900088070221115,7.49836051888792
75,6.630018026221283,5.678979179368774,6.354497878272686,4.640077176950795,3.659633121486412,1.4945559817738077,6.469928094637788,11.33604692083548,11.9223986632087,11.265665236134362,8.341690463482205,9.18631312404423,4.590441619840209,9.034790561609501
76,-1.4261332725841942,-1.2463507531999505,0.7168329873416743,0.1278025274375013,0.7181338829548503,-0.6693650177408131,1.810324006390979,4.868081422778451,8.728307491939045,7.328890117576395,4.0393918613590465,2.7322447325734545,1.5465634941314415,1.8038610154920194
77,-5.841568746099173,-5.692889305053414,-3.3806853569177115,-2.014797948883781,-1.0797458917167406,-0.49359185832139907,-1.5211350098553735,-4.229672960801658,0.8225701359697111,-0.6442343955173578,-2.536851301913746,-3.8960851090102078,-1.8828543963621722,-5.250993422002504
78,-1.3902942991803875,-1.9139684797646395,-0.5570699075412353,1.3900384619612787,0.5989338766149821,1.567218877535466,-0.9476473672066957,-7.0278940512514225,-2.8954493499663925,-3.2810745079134205,-4.584564473225196,-4.536424962031639,-2.002354339027002,-4.668160183462326
79,3.7517131697043755,3.6056030711339186,3.604626770186632,3.8380768899774536,2.2154150348808526,1.5567512713257947,-0.2975262135038093,-3.0803266977610213,-2.603560948344578,-1.9911377423807874,-2.5079491906200495,-1.397916502114628,-0.5447617298126932,0.2926835107604766
80,1.6040011988791762,2.7257112800069603,1.4645563879582584,-0.3097835768533158,0.06294165213185883,-1.8200425868153793,-1.93691954972803,1.4381098550716456,-2.4598036874135594,-2.442468413524129,-0.8359334501781528,0.12942145632594246,-0.3635905720847456,2.111323536632296
81,-3.4483904710786777,-2.060173314278218,-4.59472348052438,-6.173661057756728,-3.582224730817303,-4.582343628642569,-2.9275264934690672,2.2032648782532998,-2.7507414710760383,-3.674492227301603,-0.4985623612909707,-0.6542667576361648,-0.48305851438149017,-0.06514486822069815
82,-3.1341438464736955,-2.866098778901006,-5.871446027000717,-5.364431669398555,-3.8920625130897193,-3.167358129968642,-1.0478801683437018,0.33926449237148293,-1.618766050426086,-1.1452774293505232,0.8466475548898773,-0.5308209839097822,1.0635667733314036,-1.430754057800717
83,1.2646090518273863,0.7406321015549819,-0.5684917190655833,1.3287967772553824,-0.7526023112836367,0.6792430703315908,1.0331951002171509,-1.050437238792632,0.29127166026829754,3.671823724287275,2.9414884802790655,1.4797942577905026,2.5235909590420866,-0.24674234482971136
84,2.6875605359163357,2.3146984407902327,4.4776625466089675,5.448282100741442,1.883585341523751,3.3366911042007237,0.9646351928003044,-0.567732426005343,1.5351781611905548,4.759240427299211,2.8304130369085705,2.933839445162862,0.9805343511513295,0.8412274890175243
85,0.6764477045171556,-0.04656241008908139,4.718460750163561,3.3600505696980756,2.4586262875999525,4.156965001843534,1.144868918347017,1.2970976492785762,2.770073565368457,1.2324883917437026,0.29061291346424867,2.201554963775571,-2.042103021546255,0.8200681052623281
86,0.43457868809071576,-1.3380150422140058,2.6233287065252764,-0.10826359452714152,2.693316667000828,3.6866198393385896,3.5634460099753005,2.996207270220821,4.0240996064741585,-1.7000392940801354,-1.5023525810573024,0.16077152794908792,-2.3294357623733117,1.3259212992196474
87,2.023138060980443,0.7187834823414632,0.6320341795533594,-0.7412685749500605,2.580442483093378,0.7606253871817366,4.465998797770427,2.4818074082482138,2.5114630243255784,-1.5097738394693592,-1.3571748628891862,-2.1535880461684047,0.16521103950342356,1.765005673447352
88,0.3570093347452432,1.7374564711495935,-2.5165631883240533,-0.5036014850938473,-0.04323556627803431,-4.247528078735451,-0.14924140366933336,-0.8882665497663864,-2.572598286061497,-1.1449083898731482,-1.5719850672073097,-3.9631836728456484,1.2262188495113115,-0.4642763312440807
89,-4.18328361042226,-0.9161166156406813,-5.895952381142893,-1.867617481315357,-4.090195222836203,-6.517500427530903,-6.500423830068093,-4.485203038156232,-6.23469072126765,-1.9123941456537594,-2.63785318859372,-3.0499122816021114,-0.3447014617892715,-3.8829718058718714
90,-4.712233292168412,-2.9686233427329136,-4.676456261166097,-2.7460463984781027,-4.788387916074311,-2.576396043802951,-6.967566349660699,-4.511679717732446,-3.649593428581491,-0.7507693331040465,-1.2613999313739264,1.7541040336539813,-0.7701378464038278,-3.1901447868013015
91,0.616454417459686,-0.7865619177669761,1.5222628837573164,-0.7539416592535676,-0.8425738914751382,3.1751439408349476,-1.1225418866391959,-0.6677551019083724,2.2021166343382546,2.67535746762496,3.2731513878401364,5.95700396452212,1.4994797081630298,1.9082717844634456
92,4.662591263559127,2.0951503797407054,5.471797524530337,1.9484122365843055,2.7623365009310037,3.665529848832782,3.6912136259521326,3.2018627778584086,4.175769379539304,3.2717436983676156,5.433671095629089,3.130957433882221,2.2802206176200404,4.211100206168395
93,2.4346240964231685,1.3121378649354378,2.6598383178447493,2.083953082610872,2.119943165771215,-0.326469599203014,3.3043496548948417,3.8373707264219212,1.1148744540015127,-0.845195572955028,1.1429928346408946,-4.7287429438768465,-0.9534994373423549,-0.16810662335598983
94,-1.3531148251853995,-0.6762612154159715,-1.4008062732998403,0.47183649872237804,0.17552435674234762,-1.339287290516891,1.6410158823140977,1.9154689194565004,-1.316268535571559,-3.6653712712211277,-4.498868260446759,-7.110678912579482,-3.461438726287003,-4.222712429249045
95,-0.6714956255331348,0.5303807429590013,-0.15881288455560882,0.07343556912373232,1.171398479901616,2.8533398085026653,2.523441960430207,-0.17031398447328278,-0.04349974433722133,-0.6513397446128878,-3.6624489625804446,0.5939943466356438,-0.5546487291723337,-0.2598879339244927
96,2.0776816632401447,2.7799738763548736,3.2245120165277728,0.9471726097269223,3.09360126631369,5.33582807304291,2.9987694208136904,-1.535137388415348,1.3019743985297678,3.3551660051051835,2.2390711210466265,8.851952457773642,3.7433895910302577,6.705575164528578
97,0.8099293459286636,0.7453677644208533,1.3835322808534314,0.6422412010083415,0.9515303619739552,0.6312918124560137,-0.762017614702482,-2.264626119369885,-0.35914576695588674,2.007844276233995,4.311911874797373,6.410416828534589,2.381076459661523,5.151000094359425
98,-3.7470701916637226,-4.373558684816721,-4.8154500822735,-1.469635984604454,-4.407759503693288,-6.598349140155808,-5.730059419325844,-1.7378263001144092,-2.043270576752686,-2.1830444404731257,-0.5258984430540287,-3.9043824058118624,-3.0824824648345728,-4.985078974542165
99,-4.938428986544788,-5.559552889505815,-7.185285952109243,-3.143523155293354,-6.442091945276564,-7.88807823053314,-5.836596686519121,0.27003633408180144,-0.3942576329584668,-2.6941541348749234,-5.332394751033415,-9.374202309268863,-4.464938669157664,-10.841088771803424
100,-0.3351315168551919,-0.41497613317652504,-2.210183859899465,-2.3365656753263595,-2.0649108922960937,-2.260838106049214,-1.0275260836851037,1.9876794264955913,1.7909694140372434,0.08974973160145519,-3.670177373842633,-4.618271577213199,0.22414370086759064,-4.704777584165923
101,4.762784579044591,5.117219054237334,4.642240974148936,0.4860606540160081,4.018306047685531,3.825608293395972,2.9334161003487007,1.4315611809455155,0.15723889880893235,0.8182099089126247,1.9781078069007392,3.177848454063487,4.061212586564921,5.839293803567782
102,4.84464184290534,5.080633934951112,6.851064872313858,3.1098367454717954,5.6594194256523735,5.705474950454207,2.9303183067842005,-0.6051284810048977,-3.0389521790525236,-0.7015241228004275,5.126519210142061,5.701532771258221,2.384362338888481,9.524451172173634
103,0.91921985860533,0.8968792980058713,3.8734224699977027,3.573462387619105,2.575916435633946,4.498946575039491,1.8330229502178095,-1.3740936292508328,-1.754737269534803,0.23342677048261773,3.7978434069669635,2.9587488038000154,-0.9312601344450008,5.170693249408896
104,-2.2841404406058783,-2.14065538229466,-0.6839952117570787,1.5458246020607687,-0.8868480526564866,2.478712271705355,2.564442895044615,-0.05563697493060202,3.625464587209952,3.5751846091555515,0.6549606820487025,-0.2431026196587384,-1.1463249511747557,-1.0966890700754701
105,-2.7693707132311136,-2.2477674772848024,-3.8445476216540135,-1.4380371220336348,-1.9844607423901588,-0.4630829397807304,3.0220443855146417,1.1325313112616937,5.58232536322748,3.4470045613825318,-2.022838813321885,-1.5279681736596238,0.057358158330465356,-5.450464613512556
106,-2.017875584337775,-1.5652118276183304,-4.5283962739072825,-3.0809563038925596,-1.7170276186701892,-4.308099968353868,-0.323334572242006,0.35637500113146114,0.5472345543149013,-1.8183730315575262,-3.690745428414013,-1.6315093977216817,-0.786850556912576,-6.897060208427916
107,-1.044064283212355,-1.2943259563409961,-2.667621266448715,-2.28796457521971,-1.6198105557436748,-6.424752770490152,-5.851729612476427,-1.114479808830857,-5.325847825687863,-5.830380372129482,-3.617770602310915,-1.2297835795000804,-2.155041488997131,-3.726166997324361
108,0.7635042703745685,-0.34523050542714684,0.7947487403442728,-0.17957905076069788,-1.3269381892165137,-4.101396597258364,-7.39270307055787,-0.942830532214719,-4.904230353375011,-3.453760439403976,-1.198976125469428,-0.24426988135863578,-0.6199115311328739,3.222581457064448
109,2.858319408913223,1.4662523878068898,3.5983058082808155,1.200151123122992,-0.04237504328701597,1.5216463304491687,-2.0368325474270885,0.7653026575969165,0.20737152192244507,1.735531482257052,1.9941326729196411,0.8151972948765069,2.4462609843080174,7.273660207524548
110,2.7331733783070664,2.1939441702274056,3.2955008895063087,1.0895221423351185,1.4981789839300248,5.760248346455831,5.197363976707806,1.6537624868382284,3.201770504277107,3.2449895518735667,3.068662931893244,0.8366783626752998,2.5523476140661576,3.1992057039134583
111,-0.539917546677811,0.714366031870739,-0.22009232766078632,0.4220849068305251,1.8942929838392006,4.981318601835134,6.8668481397964465,0.4138339938665934,1.8893074829365704,0.8050790497462315,1.408827745356415,-0.39591787842374093,-0.7563520200764965,-4.207828621374166
112,-3.7288957147821016,-1.1679485778124092,-3.299103137280716,0.23405979474425745,1.070620622036413,0.5183047891904071,2.288387204555423,-1.4571306478419537,-0.03341096534708156,-0.5684070907450869,-0.19202174765705873,-1.3583450822884504,-2.936464481954169,-5.466772714371945
113,-2.6424419887086366,-0.9871970838689452,-1.6987112939575724,0.4968665066661144,0.20038747506771687,-2.7137991096222094,-2.039659688187817,-1.5161959021714637,0.23701581335258182,1.5232802178753113,0.7548763148236332,-0.2478518308010212,-0.8583580479048288,0.8436952960881148
114,2.2015841177030215,0.9629951560937153,3.3254882184139656,0.599570987309932,-0.09295440163106523,-1.9034831594632944,-1.6641047628279555,0.4632534838840003,1.2469685999828959,3.7342306500438855,2.501780012902667,2.244136324267852,3.0235253253258376,6.620009988828641
115,5.196970106518055,1.900102462128288,4.829617150520458,0.16633190564882536,-0.4177664236723042,0.47005232114085277,0.23492121678295239,1.8732693571493886,0.6293784966511511,1.7438761638684896,0.999220780006056,2.844976177240665,3.8839907514464285,5.034198706016302
116,2.2085056889926005,0.16917672607862666,-0.716014987810527,-0.786594357331387,-1.2746513618493562,0.3809395389877467,-1.0286185008908124,0.5395875394497537,-1.473821630949418,-3.891008837286413,-3.955000858665259,-0.08648464204593985,0.1646001304178008,-2.2413024351538504
117,-3.8973778929026572,-2.5904517161621956,-7.088848197960503,-1.7639952332845252,-1.8622279865524325,-2.069785751351622,-3.8374553938585922,-1.9656079044695651,-3.0857634118682697,-7.7765202170108605,-7.167306785995937,-3.532101251186456,-4.8446474906432595,-8.462967973222248
118,-6.361928065810905,-3.3971446200180346,-5.988061708699746,-1.752806386850453,-1.016955799795081,-3.0082057697913767,-3.103740437425339,-2.1122732524001813,-2.736426368068112,-5.5745036247890125,-4.329772260647804,-3.3328527939039736,-6.20704323234441,-8.314438159258428
119,-2.5650733810402255,-1.2649169509823728,1.3557051856114795,-0.16076535776437112,0.9142633557740922,-0.3565849174480087,1.4173500231281264,0.5458381305123009,-0.4486787956948268,1.162265141326126,2.381765825302537,0.20805317280775842,-1.9102750640781399,-1.20657230070665
120,3.34791342666351,2.056092290569268,6.290387808315275,1.9655036347874957,2.139101081340425,3.369215462173022,4.761954902672233,2.6387622348138966,2.565798066978564,6.991552817266071,7.145170992724257,2.895226293706857,4.824255046225397,7.998287001287144
121,5.820380839901159,4.064555738313397,4.927984812817074,2.6073265565154244,1.603575105075459,4.327340469999333,4.000747471682073,1.8548660317649535,4.468937676302799,8.274294595154348,7.020762588782954,2.288703525231994,7.872546089640564,11.50419847661299
122,3.5718258620351557,3.462044721931769,1.4245317926747734,1.106981535851069,0.18280324192206432,1.7810851375102437,1.208427942486083,-0.20826983522076106,3.7165217349133166,5.219133730464096,3.374816642519285,0.09703234449483235,4.204712045338039,5.611016974872154
123,-0.5651582300092441,0.6262957174107172,-0.5758554684634384,-0.9654255216161121,-0.7504980950764493,-1.5866749082499105,-0.9822027182600666,-1.1606538903710608,0.3726867995904059,-0.33737674479231744,-1.381369380498562,-1.0750961519718503,-2.488833669334247,-4.227977638397881
124,-3.423952847649286,-2.780600828011379,-2.4424728982856108,-1.7459765907555285,-0.9646598588777957,-2.988597421607239,-2.5433773203899475,-1.0739066323638355,-3.4956932780850005,-6.2489742105576855,-5.553193636641098,-0.8739304195180705,-5.821002896173001,-8.789179387027668
125,-3.851213000846585,-4.596819826573826,-4.8908490567304295,-1.1373322968587087,-0.9210543575982735,-2.2093050727991357,-3.7001219936601473,-1.0430649104205099,-5.275663522810404,-9.4458461145992,-7.3809255077524,-0.40799635263462625,-4.095439540322831,-5.848091554368683
126,-2.3689568285247717,-3.4677099583548165,-4.617358438290656,-0.3718128723266084,-0.6699274032723251,-0.9394519604470696,-3.0852121903280794,-0.8616394945279838,-3.8253813340951024,-7.158196260255064,-5.3426860608902595,-0.2133025482853776,-1.1811157913229988,-1.49147185178941
127,0.0070952205129944795,-0.01722083192742308,-0.09400191422234577,-0.11979531987511846,-0.09176683958244321,-0.23226309765854117,-0.22370194511964397,-0.011428379093651802,-0.13434297910184742,-0.1450039877155995,-0.10850730088719637,-0.11675341396767878,-0.00713861727163187,-0.10618707235230027
