,AF3,F7,F3,FC5,T7,P7,O1,O2,P8,T8,FC6,F4,F8,AF4
0,0.024185040706858063,0.036947206052799615,0.06556152406198641,0.033736548920751314,0.04154901743000478,0.021120975234436193,0.021295481495542817,0.07822825747338444,0.15136582289886555,0.11175816700642326,0.1214677049979857,0.07458535290706517,0.07716719892550555,0.051750527688766174
1,1.663091608660768,2.5483051427213974,4.5789654093242085,0.9442068370442273,3.0427659633192974,-8.492707910940238,-3.504593441506721,3.5768517922347143,1.143451389038254,7.416653599549558,5.364065167335353,-1.17485240541186,4.55690264598411,4.966655859362443
2,1.3040842502211485,1.9473327875735447,5.207167870060467,1.4157483145160277,2.9271802239338363,-8.78191104682035,-3.9575726567637544,2.1901929925152,-0.21367143156545515,7.070004384943349,6.4902660229706655,-0.3867548213335899,5.227111888464864,7.393393388181535
3,-0.8561703782548442,-1.4681692096232488,1.434141216647549,0.6955462998293499,-0.23390829254821652,-1.5552634440281925,-1.3502695846621566,-2.1159897407325765,-2.447158325831984,-0.1311663950687247,2.5737870164592187,0.4740786483432392,1.7684580857027554,4.996157849882487
4,-2.729711201513264,-4.144761172139839,-3.1926982094830714,-1.0244773474282638,-3.380931070824497,5.239857806326655,1.7229682809006068,-3.492809647649661,-2.4934307409031935,-6.265925711756795,-3.019185863184999,-1.083041474638259,-2.8583406494395764,-1.7552346592787382
5,-2.4766536926008813,-3.0296198947391333,-4.45536082801369,-1.9971063702343403,-3.525358068598792,5.851976086468814,3.0006056138740522,-0.5910726297248575,-0.4787724120571617,-5.731053836244252,-5.7275709358202445,-2.97382793559643,-5.306547758918801,-7.821387198787261
6,-0.07257328763664822,1.0270335633757293,-1.8887691597766452,-0.9665410259892275,-0.4895397148420183,1.966083180887501,2.1921246646276145,1.9099462711895783,0.6450325354848393,-1.003704181235168,-4.374319037711851,-1.0912769107969718,-3.9975457483506966,-7.421886315311638
7,2.7976657946566683,4.213085394658008,1.2051378409071458,0.952338710635792,3.0189673145734073,-1.2673161201395344,0.36632780308237717,0.7365097133228056,0.2573950758078401,2.2252351467507805,-1.1710424708419402,3.754492090122847,0.409808104329592,-0.6634875527427428
8,3.949734604270162,4.009371786158717,2.1613694894548536,1.7614866478500133,3.910978212791399,-1.6925455962122686,-1.2132750334709785,-1.1400077955482881,1.1904575144356095,2.6747170509883853,2.174275613807597,5.592815330483716,5.015157482021273,5.693078212189522
9,2.2525547692240395,1.4645616342339804,1.5709771839904187,1.1615368206966072,1.6570167418638164,-1.0971181122292084,-1.7884519209597114,0.3069010890943705,4.23180467151151,2.9748523306802794,5.278381516837983,1.1886591658793457,5.863546412611261,5.780030440728804
10,-1.2592256068346495,-1.0498617531121845,0.9994921418553965,0.22540267315179205,-1.3019476999459354,-1.201606196171136,-1.4242091057017652,3.3626890937544593,5.248809804800223,3.6040346991610273,6.253859318874764,-4.8708332841440924,1.5632524837257264,1.2891366829962296
11,-3.877110639489794,-2.7843966774928366,0.3007971613618956,-0.6568719691842619,-2.466382755491963,-1.1917178365473802,-0.6894277596505447,2.9702804782540326,0.774003765416321,1.8424821689805526,2.415973550055621,-5.505990807830217,-4.103249452104412,-1.7073457188879684
12,-3.5148642464246986,-4.030071588482789,-1.1845651552913259,-1.697757255778641,-2.0127997049796513,0.1553682862987056,0.13995140036499265,-1.5507220504134562,-6.187297358895246,-3.0532462125280677,-4.622613566066454,-0.12211533349446785,-5.5431393065433605,-1.0655223556622777
13,-0.7171468705410057,-3.8795453490107548,-2.3276138411793275,-2.1068555054518088,-1.5482337162618218,1.7314087216815912,1.128795968866639,-5.267785269246664,-9.144818178573262,-7.211851597252276,-8.42805426437634,4.725365436890156,-1.8677411503559043,-0.1949892232662357
14,2.030723554603268,-0.8091571629897351,-1.3541564950486964,-0.6158275084295488,-0.9448237334033184,1.424313932057874,1.8485126767570192,-4.208670086865643,-5.373421886352175,-6.209795914410822,-5.065484010745883,3.7291005656806107,2.2546371744923173,-1.7227904862856371
15,2.9042303228100113,4.303198130267012,1.125825808484351,2.1560776159257973,1.2352527082282694,-0.42985376935572134,1.3793439437205461,0.01934772537825775,2.0090370460552553,-0.26098298233019335,1.6750814830674967,-1.023382671808948,2.8233077454836604,-3.4347863481039016
16,1.940116274158494,7.371205182993391,2.2445205059131443,3.4528202471430607,4.031196137435612,-1.2047297073989922,-0.3394905378894017,3.0528445763741994,7.5694054655217915,5.770448470334789,5.1461374289418895,-3.785651899850806,0.8436928581499976,-1.9813578480184957
17,-0.047959365399427446,4.648490121301153,0.5288325899549733,1.3783981140020092,3.8537859081330406,0.13017676435213893,-1.8445709188203632,3.049642687358907,7.706982878674293,7.177748476927873,3.8401774701047144,-2.58291776154473,-0.6432684747342052,2.0287827896948256
18,-2.1456655625495547,-2.6326873771551984,-1.8922350397251877,-2.383586290532736,-0.35146888638735657,1.5114288057341763,-1.562613165244759,1.8094429620571661,3.211497644953372,3.7497339302135293,1.4972304942522525,-0.08627275160720804,-0.8119527666685358,4.754770189663024
19,-2.7265187612309707,-8.019283755268445,-1.7517397651989026,-3.796523221893221,-4.328694902700459,0.9686454424747007,0.2414522041406043,1.46162726871942,-1.4040466618040381,-0.7798980295741367,0.7633846665500454,1.5012729950166637,-0.30321336743218896,3.7803981897142735
20,-0.427595113063561,-5.9222523352519305,1.1609677590164282,-0.9894593396762494,-3.61790049467435,-0.7561054183316407,1.4860484896148616,1.4022109178822135,-2.909594585158202,-3.1642217751012893,0.35977927344781496,2.64371384911998,0.9557943171125828,0.34033057920774085
21,3.1135370476514037,1.690619958311278,3.483848901713634,3.010700527304977,0.3619018855177253,-1.8715970761378113,0.6237581694316475,-0.5693306275166681,-3.076160699706255,-3.3931653468214837,-1.3921922937321638,3.4545868015679346,2.401930080734702,-2.6062213904770664
22,3.7461572992533076,6.737347065548555,2.2937697736133713,3.4304549309860968,2.47966483458898,-1.9212331958015911,-1.2577103298369243,-4.270853265545846,-4.615426562235107,-2.83454305028393,-3.350705204591013,2.2212552431209005,1.6376519897195947,-3.2210619371692495
23,-0.10991595044987128,4.233904160397161,-1.4853587285343064,-0.3578379203095002,0.9792077389360545,-1.1546364019543076,-1.5529655355021954,-6.083940037273706,-5.293503118493448,-1.7064731270597566,-3.3764444358930947,-1.6279344764940054,-2.206737092763072,-1.9215088577758195
24,-4.6722479728043975,-2.177635036767854,-4.476167773302855,-3.8898942677751,-1.081793322288966,0.7185986924570622,0.3772360640642485,-3.210513544770066,-1.1704465879493915,0.036299644637320105,-1.6819403920094789,-5.600956344722373,-5.642508564066913,-0.5688046291793014
25,-5.05695337936427,-5.376900175432829,-4.438997867792243,-3.1466704783708863,-1.0376421088306411,3.2791481017848607,2.093169393828927,2.410530112073804,5.388831037327662,1.2448588988440559,-0.21415251205485364,-6.428121460781694,-4.510707798824784,-0.337580949770452
26,-0.8321768623115083,-2.892717912704166,-1.3335367411565426,0.8469807800768671,0.38111066998382653,4.1601484985594706,1.4263779011752908,6.269304363747973,7.385861340825718,1.3573110143980804,0.8908519123526343,-2.7546299150091893,0.734776902099575,-0.10186558758602307
27,4.329343394585805,2.128439763702199,3.5126836858018633,3.9994542042437757,1.6099561231554083,1.4020012284747743,-0.4157272862466305,6.178323581043462,3.3683101376332996,1.9624758668599607,3.4887570024756123,4.099124584137348,5.894447448277258,2.0684283462947355
28,6.681170823977941,5.474240743557019,7.216334862593759,3.874381017194946,2.283447125683682,-3.256631023118527,-0.9307040850386117,3.0363544021620017,-0.6269133500205927,3.8294627155829004,6.853511093148535,9.756535004730267,7.5530237251668275,5.189161469467466
29,4.3825860266382195,4.697503009685979,5.976181355713325,0.9575837706691646,1.6777253231449483,-5.571045166488252,-0.39190578581547286,-1.7278613828811455,-0.9421773083685178,4.01216673524906,5.985735528808578,8.44715811162684,4.592310461963991,4.82147220998616
30,-1.9819336162440053,-0.3561541960337434,-0.905324856805498,-2.9581259162082065,-1.3942362452306933,-3.497040889241429,-0.980492692877632,-6.408740990101214,-1.2950138008879581,-0.46922751845322874,-1.878788933122501,-0.8364955574862823,-2.2320692720041375,-1.5064609988722475
31,-8.144113252855453,-6.46817100729152,-8.133025557461899,-5.4082608199910736,-5.222424330881521,0.9606971586510313,-2.1213140446783596,-7.632443018863235,-4.539928328212763,-6.764254719327992,-10.700259588635335,-10.27333705116322,-9.014534641998331,-8.883784221357908
32,-7.928092097473859,-7.875665410446034,-8.728266984000346,-3.774372356126458,-5.024023161469435,4.541229210855203,-0.536898086698179,-2.7893838279452683,-5.986515565546285,-8.018597875703536,-10.657263392331652,-10.20624440136191,-9.503442440461043,-8.51811689948167
33,-0.15834645977715908,-1.970348366287452,-1.8755149999887246,1.6903865116334433,0.7651192591762865,5.357406557334546,3.605363591862496,5.104999583400927,-0.849204804483555,-2.0365301713413877,-0.6129950051568557,-0.9923066170108977,-1.6989620766201141,1.212725499859257
34,7.813069130609863,6.0659130298549035,5.757294017853443,6.026409641021024,6.496039144231054,2.7986350649265477,4.725208516962375,8.452180040413266,6.130971805346817,5.089777595740713,9.043053663835613,6.909990126000661,7.522349892970984,10.241454689743843
35,7.712202345780449,8.024222774461888,7.366647608149051,4.375852981050245,5.616985044372252,-2.369901614302023,-0.40701032221629113,3.4698187481776697,6.0117878434325975,6.207246365540029,8.633600249433965,6.114037873591566,9.056894262231348,7.909911114125023
36,0.5889982913615964,2.6401064632734883,2.9625021938613507,-1.274559296466553,-0.4167081243370968,-6.799377229646321,-6.175620502579504,-4.43691700120579,-1.0186267808850271,1.8101259817076025,0.7169355292518512,0.5447347680910921,2.6150840491361413,-2.9623313838123706
37,-4.834007944037798,-2.9746147809984285,-1.968626757691033,-4.016525835660073,-4.084108053452905,-6.150070623801311,-4.688589443945531,-6.550690912114356,-5.28973932564394,-1.6349292987492383,-4.468651621278521,-1.9981792626702288,-3.469100016484502,-9.131218488777915
38,-3.606987445664049,-3.2241968385690507,-3.1735229023055296,-1.384467896430793,-2.250325857334718,-0.01388521323709107,2.6930994706206346,-1.2536731488325035,-1.5106387870263527,-0.9277624069474413,-2.617204908578954,-0.43127008070813344,-3.63261308735121,-4.071545355377607
39,0.33155284730066636,-0.9759192684877847,-1.3985405875909571,1.5162657425777115,0.4460733172859915,6.327487856481188,6.521060601679772,4.443002292488016,4.185909029437577,0.6472836943528585,0.9478563391651676,0.8063893509422259,-1.0409385659853316,4.666986999542111
40,1.2023697993199622,-1.4374921691170697,-0.062238484353032406,0.11885503641190556,-0.26918498987454637,7.184067675535927,2.353383261670454,4.084705940243627,4.131979431958892,-0.1336490450180597,0.8712329140364332,-0.19921923331443234,-0.6222214348306584,6.852499010775771
41,-0.8807689365122963,-3.269462298453161,-0.7553232453851475,-2.727675873207168,-2.009853656372338,2.6007274166311154,-3.513871393709526,-0.6278763638366806,-0.17841026050701672,-1.5901896413483043,-1.0673417852386067,-1.3978346695691302,-1.5557087801898015,1.7815242799242117
42,-1.6334630135516663,-1.2946010498530427,-1.6877922689438303,-1.6378549094569939,-0.6004066695865742,-2.575440433177421,-3.7741375832877995,-3.3282236619535794,-2.4230158322569113,-1.2930105147747633,-0.9357278030126949,-1.6078188296424232,-0.4236446947549113,-3.8818457721182575
43,0.6314575532009501,4.106357149502943,-0.36117434545872695,2.703692518789229,2.783573373209643,-4.76402976109377,0.03033618284064811,-1.6514510904444435,-1.8930482547047038,-0.5815207779791659,0.40167864417745974,-1.5743380653334187,2.0747057590252336,-5.182248680577001
44,3.0531512267788252,6.521457413621464,2.7710099975481204,4.592614102561763,3.597233801058704,-4.401995761022344,1.6573457971068577,0.8969142688998436,-2.7244535076191214,-1.1724854192314178,-0.10913665213553288,-0.7636784292677125,2.4765994836456366,-2.2572608474702336
45,2.509775176583079,2.580522239547272,4.183786471378116,1.6544509405609704,0.8992252633334663,-3.010409769532447,0.004655888099971209,0.9166514813720515,-4.689130729114624,-1.005519863554281,-1.5152367146765495,1.9467001113127913,0.6104254109470331,1.8033625066730197
46,-0.5521725694018378,-3.5431534087714227,1.385377583388795,-2.4971359692759822,-1.8607158077576067,-0.4351258734919805,-0.8431899206397288,-0.6355142374447528,-2.363673813132855,1.9624181422330358,-0.48665947642658547,4.2145224007596225,-0.5901067608189846,3.505055473947888
47,-3.1441748675533163,-5.847609773037611,-3.492673463309891,-3.857686644791995,-2.2316473209088703,3.6127807877298213,0.6723265008865605,-0.9472547883105582,5.207093479735783,4.771628199756143,2.4653900240044853,2.061513280583714,-0.39717586572530195,1.5961378025252535
48,-3.0528972430817674,-3.083409082964432,-5.4055432825468115,-2.254303707264767,-1.2370472358792737,6.885819688001042,1.6762655014754257,0.5828934871832246,10.416542611634902,3.2484021656946385,3.3286087270128495,-3.0463050429029708,-0.6680537770391207,-1.1196126220946465
49,-0.44743728199031885,1.5272863720632512,-1.949149180744532,0.43826010867732335,-0.44706796103343144,5.695948633590327,0.4972985048605417,2.1568676173835852,6.377793525664418,-1.3285037536294093,0.8315854477311088,-4.361296738335733,-1.3498087791484457,-0.7318998734666977
50,2.6403302526339423,4.292982103839749,3.6668785050792994,2.7263612872778427,0.21629448245817734,-0.5750512263472926,-0.8556028570239009,1.9387844680761521,-3.576387221824858,-4.134062466741369,-1.8761752366715645,0.370885749390177,-0.4845750722655509,2.156220719236114
51,3.792493279237998,3.4995051730654865,5.923884481983585,3.285972675741892,1.0544421839948968,-7.103915911217864,-0.7573466222155192,-0.27631886591342714,-9.755579236427511,-3.6021310713293215,-2.2467465346796955,4.5989383715582175,1.2837582678199964,2.607028053865009
52,2.013549367623829,-0.05360407986220782,2.84176020210714,1.2440231116683003,1.3936282964974418,-7.696372302068923,-0.3972444923306836,-2.703556462832336,-7.341156679656993,-1.7410428172333952,-1.3818298033672183,2.338313546257696,1.1318478850957527,-1.521009399552706
53,-1.4517156112697054,-3.5051535312794044,-2.40091399751976,-2.1097253215078338,0.7711401856332176,-1.7838053644443816,-0.7561539203962601,-2.748825597787675,-0.10152913981185113,0.5351746340044232,-0.9235930096757634,-2.970518000470214,-0.7132794470296908,-5.651957905187054
54,-4.231485990836218,-3.919756646500425,-5.399805126596578,-3.7600695645525053,-0.18635741565175945,4.482623235955907,-0.541997087381323,0.11201551454327288,5.532015088110433,3.3706453697966094,-0.18099268143605612,-4.199069300689152,-1.055991953053945,-4.243892888624632
55,-4.389395346875324,-0.9559032579919513,-4.581798206197508,-2.1624587782303704,-0.7300196147120276,5.337062152373569,0.9928210755539213,2.80892952189403,6.178318699980847,4.488949659252856,1.523931154596661,-1.16876622747166,0.4850137423223719,1.472867133211058
56,-1.2512119796729726,2.6178356572948775,-1.1392974769704116,1.0101716278310635,-0.8274997678564988,1.7222866695079093,1.8425158526908214,1.8845090313594084,2.1271703231085457,1.1736051176491709,2.2683853012564787,0.8427258551407351,0.7471556274309834,4.843229496717487
57,3.6512742919449512,3.6205274804815204,3.0110101588293636,2.9188975928281153,-0.6641145117298687,-1.2229354406150368,0.29443692921509534,-1.675849934083694,-3.4695040933794923,-4.06996902285462,0.41291937320933275,0.6719812427928935,-0.957736429546107,2.7699860671078085
58,6.455031746108998,1.6852326062010863,5.804750428565919,2.5790898392372306,-0.11780562745458371,-1.0922725141090806,-1.6036725363359037,-3.025055911271941,-5.670497949414312,-4.790773270655464,-1.5695383475958418,2.0632420504161493,-1.036999130001839,-0.24535300078733535
59,4.085708513490604,-0.7340163088887386,5.14400839619232,1.1162590913921682,0.7643582145446658,-0.030213410985999424,-0.7066300429048415,0.19441007506422303,-1.9119952752057991,0.7501739911833972,-0.1315392268786741,5.169606610381766,2.0808622224654374,0.6285126892531436
60,-1.832904228507363,-1.6673564327790056,0.6824554083743217,-0.4256231239918293,1.1818450501243871,-0.5425226478678579,1.7699478625530989,4.0895846733637296,3.9856030574847363,5.919325855933374,2.9133351476371083,4.359292766774219,4.037600059004605,2.429438831081759
61,-6.0353400224596445,-1.6851307062391723,-4.665107534410738,-2.0704955643010763,0.27977574473235367,-2.052289756390468,1.257123253319562,3.1963017289500697,5.462179690769756,3.6312265812324998,1.7958238429547697,-2.9312417256935066,0.44118493775867457,-0.9658688232061912
62,-5.105811596209606,-1.7580056523670273,-6.670414533318055,-3.3276398879856135,-1.2919184326554498,-2.0256479972737407,-2.7370255183363,-2.0326884017313915,1.5462611979288592,-4.039647515820364,-3.9877323077044773,-10.114148926930586,-5.692867203452621,-7.210686151256736
63,-0.5654025763347529,-0.9535087421575352,-3.7857813122189805,-2.498286421231996,-1.491044243496581,0.5658689109778342,-4.364877423922766,-5.2794847987894755,-2.425255434908114,-7.802910736458395,-6.919179930689128,-8.436254949191666,-6.649223983306564,-6.606899847600315
64,3.427908763046304,1.43655867983869,1.4301147695837393,0.7656928638181884,0.3851898731158938,3.4280222769310607,0.294783626460606,-2.5533117063842776,-3.06290362947188,-2.8135130986622348,-1.606924014268978,1.797678071543279,-0.17708233606091495,2.683177816488899
65,4.064770452201489,3.1476744150729297,4.93611221245191,3.647032215643154,2.026546130317335,3.1200975997899714,6.189394403345524,2.530695854498196,-2.687387463194133,5.202413790659448,6.404614211012604,10.769471232650787,6.869187414157852,9.365978136500937
66,1.7689182988798067,1.6495384047238706,4.6880303545690785,3.211395658827901,0.9983876705209959,-0.48979838063310127,5.396736924797654,3.892654285911265,-2.9921969218426456,7.5024208848858605,7.44396838602886,10.021297083262102,6.900481943361627,4.859534592151206
67,-0.7728605078419368,-1.4075086469278355,1.6432233391751743,0.40313375167412824,-1.3900782182903462,-3.2930087554000673,-1.621613210201266,1.1375965695600847,-0.9586949728742316,3.0241452267197926,0.9231788472301503,1.067016419113831,0.7838762809041322,-3.705633145285081
68,-1.5608694037668152,-2.1280172461102307,-1.729471039360499,-1.3573359458027192,-1.6481147285675821,-2.0401273017798665,-6.4459945481132195,-1.0665753725637734,4.696651991675171,-2.1276750424018886,-4.6256712164313205,-7.522699249937119,-4.286111163817893,-4.798538998652331
69,-1.308155079020298,-0.23976364919685503,-3.393253521988796,-0.9521700343631758,0.5820014160388527,1.1525740804411513,-4.1031450905735625,-0.6210052672976933,8.061192010631755,-3.9307373392275387,-3.989401350644768,-9.170173174070593,-4.258326914631114,0.16973726776066214
70,-1.5107198237021915,0.8500007524849609,-2.7344150890811045,-0.4537306828441461,1.810290756251205,1.8749099227793213,1.341953405822716,-0.2647947963184708,3.2056603672085573,-3.974698947040791,-0.879827751832719,-4.063103310786941,-1.6809908901356114,1.5580078147492642
71,-1.2264929598242953,-0.12114978779463664,-0.5611948759042187,-1.3099669778144107,0.09955932731122058,-0.296723736695587,3.608553818608191,-1.6034086299955301,-5.825276626921971,-3.7242425769737117,0.08949000868628687,2.959205090777437,-0.10057573726931356,-1.5321828190161333
72,1.3606085757942241,-0.5265780371958338,1.498756066356229,-2.061024087636506,-1.917845534241414,-1.7775332387300689,1.8653403323571545,-1.9090661955362147,-8.772701166210732,-1.1245157896976754,0.22918799815034485,6.913774896530644,0.6941627200963685,-1.5133490590916032
73,4.237236643507312,0.9985258179596489,2.0275407970410475,-0.7664164459838254,-1.2700243575886696,-0.6301808074389849,-0.5124435639700525,0.6441325576080621,-2.535988981946472,4.375029552522543,2.076114119493579,5.712511502755086,2.1857310999368704,2.6058963079620843
74,2.6683364367906264,1.6024627312444328,0.8648493415009033,1.8460918771781811,0.798418787086288,1.2235609903272915,-1.2360125369030583,2.9114933429061964,5.095944599302875,7.970035752410321,3.318698315945675,0.7922755764345693,3.1316914782526952,3.1990590080981045
75,-3.3709272672948063,-1.063690881851075,-0.7664804098787538,3.108392002749103,1.2649060016796798,1.7263285971157174,-0.4863651564734578,1.5888419054800198,6.123726751749793,4.84787186895248,0.6257408642972787,-4.3166726818403305,1.1625293111059258,-1.9859498895081868
76,-7.047623108904442,-3.98621435469688,-1.3925801637116795,1.824576753394469,0.3084422341468579,1.2731210423854284,0.7624011355680383,-1.2400990886948768,1.5386766177708073,-2.8306960194426636,-3.597393661686674,-6.247429161505827,-2.679034148555899,-5.227371876577613
77,-2.98780978759061,-2.2685829532329627,-0.49198360874367836,-0.4115235915866743,0.33158497624708777,0.5251346697726343,1.379098130530377,-1.4499752841669726,-2.4531546434753904,-7.829382580289201,-3.764237662334174,-3.552968008118057,-3.984854824900387,-1.2758306238902268
78,5.227124559841772,3.4874703966448255,1.3675974481030535,-1.4891103568684911,1.1755096998845744,-1.1857770168392416,0.4097903892300901,0.678689817855992,-3.030705431288207,-5.864743939738547,0.7035400581001958,2.274680619936189,-0.4521653495006925,4.756514294118031
79,9.083222718404954,6.92094484549654,2.875973588812144,-1.1727637416508114,0.3735141065421136,-3.367254943194598,-1.4131001498317104,1.5028421696564764,-1.9380333948380197,0.46784408089621904,4.457891575969695,6.970416348565607,4.379125995872733,5.798510533669498
80,4.7336396890306816,3.6599691336425577,2.2126158907114157,-0.676104060120026,-2.010457327554915,-3.1599961847112605,-1.8548764551773627,-0.18157211395913334,-0.8606279471570499,5.102963133206306,3.389430808816966,6.148154699198678,4.572714959564238,1.9598689121708062
81,-3.9826221558801045,-3.4875124278145955,-1.6486715158862209,-0.8036303423791918,-2.9245026138796137,0.5514301390916856,-0.40911768246933294,-2.2442978065669386,0.16408162320266878,4.265317137497196,-1.1144360883347997,-0.5339653975440258,-1.1963288042391615,-2.618353749225982
82,-10.180260573906972,-8.161076221303482,-6.486781708836609,-1.1783553155926485,-1.187935422447995,4.09420220186643,0.5143606583821679,-2.856017263122896,0.8920992167324288,-0.5603780840058842,-5.06230810208725,-7.931921565551339,-7.397715330963401,-5.990351336044086
83,-8.998579556518752,-6.79348705515067,-6.996143233298894,-0.710872314760982,1.0715658703496782,3.541400030535294,-0.40871616471208494,-1.563963086439273,1.2716678544769264,-4.011192423444099,-5.407020133680327,-9.216619162706067,-6.990876573396593,-7.044645131349176
84,-0.2616378436150298,-0.309494490082123,-0.17473598626727466,1.3564894114052022,2.356271607760077,0.48778092054257244,-0.595022384960245,1.8341172696625077,2.8581354761210296,-1.6872262781188505,-0.8592436531590619,-2.0532112288011173,1.1954663950110092,-3.0279479806671064
85,10.154331306502185,7.333550230145255,9.276708445540462,3.997757875202458,3.1367145115005934,-0.8497577827444239,2.1031632211457696,5.819149294309724,5.629588078773948,4.6888679885939295,6.493383635656862,8.245471134541978,10.305474123710253,5.779846990715189
86,12.960049173904977,10.405408026282855,11.916476135291422,4.190935013617739,2.70466729514338,-0.7696830237479972,4.412038717220994,5.98535804990997,4.433864902663707,7.288561512236667,9.849463926561546,12.122341924226737,10.974852982783421,11.908435168328275
87,4.17571678555323,4.918938635688075,3.821445751814283,-0.0051127107532305816,-0.6924792965836474,-2.7795265652019316,1.6401252322597035,-0.2011339707143167,-4.999860321268235,0.3394249672729256,3.32774073349136,4.647194942045711,0.7151645052145937,7.6455289795994075
88,-8.466233021158276,-5.632211344285974,-7.913785606255623,-5.7205775272912405,-5.234523114176512,-5.495934166232679,-4.228096618598096,-7.900103814464996,-15.739865691973842,-10.736470923637526,-8.619181163971142,-7.77759764339975,-11.588033573312691,-4.1411817543737195
89,-12.346590272191166,-11.1587183801455,-12.37861569237763,-6.95238629905898,-5.674853028019837,-2.7842307167446747,-5.871894808923427,-8.761405509448315,-13.503548853663625,-12.634590087452944,-12.843146153517576,-12.351784506760792,-13.228867403352087,-11.643753047039022
90,-4.483021271444712,-5.909934064777576,-6.631802723382547,-1.5597419297089612,-0.4466361151239291,5.697801791674227,-0.9516024066440524,-1.2279113477539776,4.467736562297259,-0.38091335636750706,-3.237447375597206,-4.252898301269009,-1.8868068688923865,-7.90002887050651
91,5.074097908370373,3.8308894452344586,2.372178374052743,5.2784987722356735,5.126171691258742,10.686428652112209,4.1384757000301065,6.846999923532476,21.231087921665278,13.773785965061776,9.565390318965735,6.718984353334704,10.38129274249694,1.487032688483366
92,6.329912663621919,7.420044953023562,6.99036755063322,6.737143875156785,5.335904144201975,4.85420856074771,3.2516953951637397,7.5044747258761255,18.395280357383516,13.964466121321005,10.649423471752897,8.009255735435037,10.696808414731036,6.466955530138331
93,1.181740110647269,3.0002868186896925,6.251220121212358,2.1572578464135215,0.9510936315450227,-6.3786778600924805,-1.2381599938420615,1.5122845289540925,-1.17773745452169,0.6922405886227282,0.09089941466931671,0.18238418736776799,0.53090835270254,4.341266783296858
94,-1.5456058980438387,-2.061890270266186,3.3515232672327273,-3.0639052091977566,-2.832061182976925,-11.163506972945783,-2.7797279376319857,-4.095573050742758,-16.865450429497336,-10.466791142833108,-7.926126000335063,-5.06315918667057,-7.217911853178831,0.22564587824820015
95,0.9450783887140113,-2.250900522149638,0.1680533024115128,-4.294627256083806,-2.983463788289821,-5.727663732165802,-0.02363740242293813,-4.601939792781904,-15.018773090526736,-9.196717756235177,-4.524689674044187,-1.5084970816060155,-4.818446201073487,-1.186056121769212
96,3.070399080617382,0.3313241251204996,-2.903112670826604,-1.8599207002538607,-0.8353618375860765,2.824100860412918,2.5383246087059996,-1.0724879228714466,-2.2944233429337335,-1.0004461684489505,3.564203741034096,4.259718119376466,2.2347590359592355,-0.12696410272898168
97,0.3132974819987894,1.2997184699170703,-4.579533749338499,0.9918747373720798,0.8009701430418572,6.838147543601722,1.7668998613866742,2.750074055444461,6.516071037126626,3.7531078382989267,5.222977712937287,3.6672397520903304,4.378949060321614,0.7598014032960164
98,-4.526706201601482,-0.11080380075939912,-3.666595455630195,1.8507429475546302,0.6693238413443701,5.797274449480575,-0.5580272247757222,3.8497504899094483,6.324308271535371,2.9841939719726134,-0.49624692479596244,-2.2234880962839276,0.039573684129534714,-0.138134097899028
99,-5.839524398489967,-1.9184505247748513,-1.217214135019858,0.7520798807371369,-0.2726355984924733,3.137826840107962,-1.4385289027523132,1.2196138570683426,3.1564767088888623,1.1915711423721798,-5.432877581221709,-5.788494356140187,-4.334849476196982,-2.4120968745711338
100,-2.156665422424841,-2.4671842431549442,0.8152646964515899,-0.4397935221676767,-0.2607759331469741,0.15727555473702512,-0.6594941409456854,-3.2169198543777933,2.43382597311244,0.7089357799469816,-3.8616051581842776,-3.4432722928200192,-3.434845628843519,-3.8223969479118467
101,3.3019346328932397,-0.9910207985303995,2.211091552390314,-0.15249577023760222,0.9822731506561156,-3.855880827415134,-0.014593860483510104,-5.201441330814423,2.2364837477654484,0.1634103277534758,1.73549630416818,1.374573628317848,1.225717876677929,-1.8423231039614223
102,6.460826119852189,2.1949214956317755,3.6243105419339416,0.9159941037592555,1.621285956176832,-7.40359187216458,-0.43880670558223783,-2.2339418122865125,-1.2911523901948656,-1.0227654815733314,5.186691799903705,4.085014759049531,4.438169549912203,3.0008914151680637
103,5.0758941392067545,4.643726100719531,3.9357870596322533,0.7270440835719141,0.2863164663487924,-6.498464374569202,-1.2093690466853382,2.913158342975994,-6.382187858370807,-1.4301122742425572,3.5370130455966575,3.679823753092084,3.458085177176907,6.029368080019874
104,-0.17545705313716004,3.249743311954474,1.1701887070482666,-0.9621390961368517,-1.5133626025218656,0.04019123475476219,-1.2187010412362214,5.031502534311585,-7.1562595353994904,-0.5824999342531801,-0.8759280363240617,1.532272081979108,-0.04783490102921995,3.2887301962041504
105,-5.433831802103207,-1.673621502444824,-3.6049440936869703,-1.978372699873589,-1.4201053867040567,7.147817016006151,-0.058128476404398756,2.7740678189341015,-1.6650180812496322,0.264780490330931,-3.574108141727327,-1.1416832042815988,-2.7522916523144727,-2.6409904513921743
106,-6.161414734069914,-5.58807178267786,-5.8415907849928335,-0.8671782258209701,-0.002989882593778092,8.18363760176814,1.8284629679363968,-0.37694328607820865,5.185357332467777,0.5920412628629196,-2.440368289227071,-3.2192725969900047,-2.8314148982805682,-4.901327487908859
107,-1.6928178348048892,-4.5500608468738655,-2.6815300544778284,1.065096051967015,0.1995081886973465,2.731472679843355,3.3005400885078084,-1.591905140025276,7.5458634691462105,1.1452347340157274,0.585774307359307,-3.1370528609607233,-0.885699247045927,-1.3258694378903604
108,3.6414734010561545,0.30775980463669617,2.8202300948984824,1.7610706161936733,-0.7923705550269985,-3.0436779620299843,3.0636455791578783,-1.9270995219429063,4.568908024862778,1.4726626578759403,1.9372680566069755,-0.49009821830058625,0.9957965169453371,2.386879339280119
109,4.981867911166598,4.241035000939482,4.7472027950018,0.9596617416815149,-0.27952622066661836,-4.202339099263282,0.8256603926195373,-2.7267238491279926,-0.5799550411612246,-0.09918317870041224,0.3603660114003227,2.4066437651902777,1.1365739836909001,0.9010952898342838
110,1.7293891067459746,4.005712005274625,1.2994829335701619,-0.24220655932795465,2.0481297121407955,-2.1651026125858626,-2.1535807656880457,-2.2254206777979073,-4.608204598613862,-2.8614126467652894,-1.7802182386760297,2.405198793713262,-0.04877034350543621,-2.859999517640853
111,-2.5222311250610074,0.7149426499962258,-3.1334422034736478,-1.0370766250190968,2.7853987654448953,-0.8925084902589098,-4.176418980004354,1.0902962965210083,-5.522695643609415,-3.2523023170663428,-1.3817430975153733,-0.5101391512592236,-0.5700602450949277,-2.4288397378914817
112,-3.752271834422871,-1.894339673520958,-3.3035692573926485,-1.0826619133219124,0.27583526831806626,-1.057712350328475,-4.479196379126857,4.1481775492543305,-3.091717645334703,0.06338346667746625,1.4347522119187694,-2.509628140500403,0.5170568158848752,2.148503661402965
113,-0.9730656568390798,-1.5712230980823076,0.8314034290609444,-0.2365186131179804,-2.3594306913677534,-0.5444552744922814,-3.0797687177551096,2.6510290983644924,0.3755083424901893,3.5280353982069252,3.2196059887853896,-0.5573587842947578,1.7822219654383162,4.817843197330934
114,2.9078502836991817,0.1677605199821466,4.3239960402487885,0.7748579824526383,-2.156668067747931,1.1533877081846844,-0.060638853984455676,-2.0458273161571725,1.9941002982265492,3.3783296324712175,1.5443441152228878,3.048108911554205,1.363499272084471,2.916047692083223
115,3.6192769496834596,0.33308327684970457,3.076438109509827,0.5966627162542997,-0.6936788041385982,2.181155880661433,3.963457476683842,-3.8373834149563497,2.005958699902318,0.4859344600051434,-1.7418258523130938,3.1578753483097852,-0.587942258563038,-0.32315759176804165
116,0.12662091939313863,-1.2498214741413394,-1.5158142685681646,-0.6228313188593888,-0.42055878389712764,1.7755465947168483,7.0835118544138735,-0.2045499001964525,2.9130388615503553,-1.7239666896962027,-2.928813079360813,-0.9794947854317596,-2.2252737543753534,-2.4487963614330166
117,-3.6198010209580183,-1.7578020633806308,-4.363476532680765,-0.7521124491834772,-0.12208162018143573,1.5054117485457839,6.898091083420618,4.153441455680615,4.403398062495616,-1.9497374213738827,-1.2592723358440097,-4.110388433870793,-2.190413477409573,-4.262130330208291
118,-3.1640599507180114,0.03959422902266943,-2.7577906056351233,0.9980084130940098,1.9158040236242861,1.8244514311357025,2.413181832997567,3.5463311575483627,2.7609376163761232,-1.3389080748903734,0.5544538739331945,-2.317981657582687,-0.7653321358607517,-4.898457515516851
119,0.7291481063071239,1.6450634246876183,0.7357482938565186,1.9677661491737655,3.258683238091526,0.22732053676439945,-4.648903114909585,-1.5235538083407323,-3.037479224149937,-0.768479570353238,0.48651106706101055,1.3677303624377655,0.8171581512487934,-1.296550794269987
120,3.1162366303871427,1.0092668278603376,2.149372895467053,-0.1082194170358193,0.8477052880497203,-4.159054304542572,-9.991311070151895,-5.334687981061708,-7.95354603133851,0.052381148450753,-0.16891086733603372,1.9272911128276784,1.651547984591504,5.2335323357794
121,1.4760835026619359,0.09964733557585233,1.1944717472560105,-2.7167629474206008,-2.8362069901295484,-6.577350691804293,-9.151661776273635,-3.799050879434644,-6.424732103765636,1.3187115803311775,0.7554924121963961,-0.04343528829526462,1.7281298344686493,7.832451527859074
122,-1.4464150592871414,1.3018842396890107,0.45415221027417035,-1.7689047556947113,-2.6716442289690825,-2.29847746908671,-1.8464100243821324,1.2640639434548726,0.4211336089452931,2.2561095154709436,2.615293911008335,-0.29938513956787793,1.373853905884461,2.8945455033002094
123,-1.955242509330604,2.4887320500423513,0.7154199508953527,1.67302595530917,0.8617460501450016,4.848346897998638,6.240795389375006,4.514809881360164,5.801815072794861,1.6754047245263313,2.4441337414542406,1.4188874957382904,0.44854254603646043,-4.123527888618965
124,0.0011236356625395419,-0.07337294402729429,0.22136608125709023,2.5050057401929005,2.1459822862825204,6.147597998647521,8.548477628690824,2.968473409464445,5.179883124913019,-0.6002337006319279,-0.8896952762800288,1.2665737552859166,-1.2501463890312674,-5.549079511887868
125,1.7675662003903516,-4.759648389759062,-1.419081866012154,-0.33881584005118204,-0.49103466358183706,0.7248323657272481,4.898583880130478,-0.9346726336984587,0.9810582329217848,-2.8406337608782697,-4.469542001322769,-1.4793494299485566,-2.7881966013965505,-1.4865581086055009
126,1.5990087368516577,-5.406677800502529,-1.9163513206577174,-2.0722794076183644,-2.189602036000708,-2.832136286861226,0.9577639498441359,-2.424528757382495,-1.2140461569397587,-2.7028549796018093,-4.298631510385713,-2.6627138509040837,-2.4718268326682105,1.357577577245048
127,-0.07930169779016388,-0.12129135691038535,-0.1171132358272931,0.04177589688298522,0.04903947024990285,0.08796129100109319,0.014707070266867628,-0.20858828340590438,0.2876415771902078,0.01567756298587561,-0.05182530230800443,-0.14028433721319936,-0.07372434902559624,-0.18041059177061505
