,AF3,F7,F3,FC5,T7,P7,O1,O2,P8,T8,FC6,F4,F8,AF4
0,0.13633566869107203,0.0889540890181045,0.1183063521843071,0.09543977514202118,0.03595713931370208,-0.12290331204464913,-0.019511543563640966,-0.033598232311500525,-0.3346916885448756,-0.09770614702858288,0.022755487803952444,0.07446912573036069,0.07865780749323951,0.11687930772467646
1,-1.8916100979501294,0.48538171995320517,-0.15192511485963334,-1.028700708413069,-0.5723793738129254,-0.8770606128836616,-2.2582817794271093,3.3031327779706734,-3.3939837795874555,-0.532925469715824,-1.1160069936865549,1.1145892372459603,2.06703537500343,-2.6962250671954493
2,-1.0288891501832784,2.4559134458273113,-0.3772248254821027,-0.7576694877577156,0.3745896621012579,-1.261727267562676,-2.1288092639325,3.080175883595417,-1.0751479153977634,0.5310936809135369,0.2581878651098219,1.5806864189908534,4.4888567357992475,-1.3367865970414687
3,1.3604660853503316,3.9208247465633654,-0.47963132576170175,0.4333819746506948,0.9807176868503609,-0.271886603483664,0.4730951918050471,0.6900437935830038,3.8436295928036075,2.4081171242052744,1.8970918826978278,1.0471776064433558,4.805875996874329,2.4180096843349124
4,1.7209855621651227,1.739865417617361,-0.40637608645067785,0.9302052086123782,-0.6843986638378957,2.306490241334145,3.605705352585402,-0.30582218883533613,4.927789967490013,2.789637085205153,0.5414931868982198,-0.35223271101510273,0.43712410596784507,3.1533817694847155
5,-0.4446715569986945,-3.0293404467724176,-0.12613457897587094,0.17797311141573638,-2.5520364092421777,4.18226488250873,4.817182838688411,0.22914832787607878,1.4436807100208269,0.6104425507696261,-2.132076116206331,-1.5876923337372861,-5.939210627648876,-0.4267374851371814
6,-2.074332939282792,-5.532526548175405,0.2534404769762931,-0.8602424706924242,-1.5187785727680239,2.338010183970849,2.364211922104868,-0.48345686157453627,-1.958299561980935,-2.3962828073301248,-1.894679417523496,-1.4905006093576694,-7.527674556507096,-3.39907092324917
7,-1.131992868872569,-3.1420491635405865,0.3877520100943969,-1.144562178195339,1.5129366682154464,-2.682099385020171,-3.206173732895724,-2.78169414967549,-2.9492216840646877,-3.6484165374832727,1.106907337081566,-0.10214724873836405,-1.6264252651702829,-1.7019672110181316
8,0.794961926356302,1.3136752011440747,0.04759336394705157,-0.5674635248551073,2.874091853993869,-6.237109554666522,-7.892361476456488,-3.3660482675532157,-3.2743578618799405,-2.5514999342304385,2.3760870248823847,1.0619549651858011,5.630879965026557,1.804874799814364
9,1.2465897026663324,3.4454599237567383,-0.3313659868121938,0.3999388227883148,1.3199929829861607,-4.786122824606824,-6.753114425247932,-0.29595810492570596,-3.4171628967153107,-0.42539672776098614,-0.07744931126017303,0.6033297530282689,6.010822708555109,1.6937985075034923
10,0.32053914368170255,2.5775563891631923,0.07201734598124314,1.3177874229360353,-0.7659571538964746,0.14931321456349847,0.5870332999807271,3.647068388898315,-1.1092340469416042,1.6994741964842137,-2.771487546124231,-0.7586742269933416,-0.09395639611276273,-1.564300876247148
11,-0.0012192413408218389,1.3692859685694092,1.2532357300276127,1.8534760766061988,-1.0448604748773487,4.547305937934716,8.085094239762158,4.303673152758664,3.6800302090021138,3.5591771956132785,-1.620749446912469,-0.5314618263679713,-3.9017368379562813,-2.142822879630834
12,1.0205944171779173,1.2575293232461904,1.8307496832661225,1.6082005062486324,-0.0008739693300915475,6.027917193226706,8.80687247998665,1.1610571547990998,6.511297317341185,4.1001902754169794,2.572047430863049,2.075787650508713,-0.4213212061418543,1.9716654129157616
13,1.7485311312648535,0.6238143368373641,0.4184980472196555,0.17772907934065038,0.41197877982381803,3.922225463646971,2.122928993845236,-2.6399853028075486,3.557351958958903,1.6916515483043124,4.841451366783166,3.674272330327584,4.3139875953874744,5.10611237923665
14,0.19004589610036096,-2.0916152108069235,-2.3690269427302444,-2.2336055863487405,-0.4227732076261414,-1.349621791435474,-5.68095551111436,-4.119836863422327,-2.9076653014709635,-2.983523990626359,1.8231512755328745,0.3461747598796087,2.105979137412506,1.745487308046465
15,-3.249285072596892,-5.195064204393547,-3.9811346173807354,-4.089191131061638,-1.4009208160845559,-6.315244972258351,-7.7803864221723105,-2.583166720405409,-6.11709386218602,-5.98485517558274,-3.928999511695964,-5.731131426892595,-5.023937517668102,-5.037954175339677
16,-5.30328548184091,-5.096715017459639,-2.505763604621963,-3.2692487278726095,-1.5465574678010698,-5.623919944665179,-3.1069150302738793,0.9780212520105644,-2.2016908552313468,-3.9794870444406936,-6.34217265049595,-7.042245325912643,-7.48759221939351,-7.043793928341737
17,-2.861826267855269,-0.6150930000616446,1.1715230724167076,0.41858721069104643,-0.8199828413218743,0.9591841088109128,3.380848071733366,4.416828592824682,4.7930768149923795,1.585828336259708,-2.8775266925720278,-0.4813036103021139,-1.8025313737037696,-1.7326167595798414
18,3.091879217542877,5.10276721323314,4.213266482260295,4.129473842660028,0.7519393429941,6.060974486334532,5.9073157367499665,4.9490662228330855,6.682346624960851,5.7021730164867055,2.5175583891239914,7.246939860412043,5.165241372872112,4.738310839525675
19,7.554107063127332,7.4381588004152075,4.511512210223233,4.831630624091761,2.8778723068624625,3.6196438392675825,3.106763169446766,1.5105187499060473,0.40857700905356686,4.876914320363163,4.784653865288176,7.75897790448501,6.448797351883409,5.9790926009337095
20,6.47906482048501,4.6949561196952505,2.185781185876405,2.726880014758297,3.791945733977958,-2.729163452829329,-1.6916728534344876,-3.4003173968977003,-8.146456089582822,0.03705215135393885,3.715589893867209,1.6169218677763555,3.171415937220005,2.7591436414610375
21,0.8285890001194641,-0.7837366670125215,-1.082071989015099,0.10604576147059969,1.6303189495997936,-5.027845358045923,-4.516147954320013,-6.074436997655061,-10.673731815279245,-4.8801954488154955,1.9302956012029213,-3.8457878250257846,0.04406847511106902,-0.3381284209337874
22,-5.087500091123338,-5.298689395519942,-3.5643479498917054,-2.297921695327609,-2.356598762359406,-1.8359091519001967,-3.959386658266795,-5.33229661677813,-4.806088718527479,-6.059765959276865,-0.44369245283278014,-4.957912170152714,-1.90469790075302,-1.9698406771836676
23,-7.822101053423812,-6.521661873117839,-4.4315033281000105,-4.942663274021224,-4.4754965384782395,1.9281245525830122,-0.8473084993456494,-2.1138300503068317,5.274808870025702,-2.336423310319415,-4.379554564696711,-4.053882719238824,-4.048931269950669,-3.744266449553518
24,-6.285984820007103,-4.068373185188163,-3.609582647661035,-6.014990819521699,-3.251508135543563,3.472557192641054,3.0165169010269963,3.016940699089715,13.532513449000335,3.766049972212965,-6.745665139258859,-2.5626191247643826,-5.194316790672903,-5.0560577253699
25,-1.1486453349911347,0.5791611053713355,-1.1237335928228591,-2.5191102222006783,-0.7878142341385006,3.8629978497400743,5.082819096467535,8.512628149439784,14.668134143000284,7.44809608571613,-2.836768261774222,1.0898626773289322,-2.7380343845570723,-3.0364675352198023
26,5.00798967485047,4.300778083072786,2.7189465660946244,4.186451961459016,1.139996183135241,2.683600219889874,3.345009378392355,9.543776261598527,5.668541899629629,5.295574492816941,5.008865834426187,5.588488021126359,2.3043292267935915,2.3128813548673097
27,8.171706725945198,4.561500412717957,6.157084378214823,8.021556590243538,2.9748017880745596,-1.8348673105566617,-1.0082083972541518,2.5223661288664307,-9.677258594971521,-1.4747224107751022,7.811309901875334,5.802745694350761,5.440940385812846,6.668291688035052
28,5.961102939540844,2.249229080984481,6.132018304794833,5.373831604532158,4.2827978403166185,-7.016897102627953,-3.8920090091948345,-7.67676844831971,-19.449407828653897,-7.249673296227312,2.010475168153873,0.7767479192236669,4.225175870905684,6.099155286871428
29,0.2352974053259051,0.49375192066068513,1.3902928766990077,-0.517308597088077,2.7670985266254893,-6.7296993027319685,-2.9183352838464285,-10.841102498883355,-13.69728988263266,-6.5380106749793905,-4.587718288358702,-3.321592715176583,0.9375314490823397,1.3179037917387117
30,-4.505797050051856,0.1808221349178066,-4.663440929422274,-4.198107902528868,-1.4291884775697443,-0.006448102988713591,-0.26901100686883384,-4.076827583345027,2.7300494132762694,0.2174740089094762,-3.5365968642410897,-2.0606473238489715,-0.9722951679204246,-3.301694571686752
31,-5.28179125171002,-0.9546124446476356,-6.477040671788521,-4.148531898316321,-4.171612112873235,6.4074575194671395,0.6174687807415444,3.7252723766000035,13.251636257224686,5.802116671080958,2.1898549865315977,0.5858492055310628,-1.1864431616064124,-4.20886627454223
32,-2.8850797687238687,-3.8739544975317903,-2.8562031612515826,-2.5181128189369337,-2.9506991456504723,6.317786436444981,-0.3529356586369384,3.555560987287968,8.369270193407521,3.6262377699558206,2.974281991802741,-1.0813400263147002,-1.9985246374261805,-2.3538012158142183
33,-0.4583076551398555,-5.555676526806461,1.16917814345838,-1.1835248013266353,-0.6687362568183822,1.1867032838493112,-0.6869544830869351,-1.8433439540950116,-3.0852947963253694,-3.6911099262149825,-3.041146432730268,-5.191004105378956,-4.173988672115352,-1.8067986916071872
34,0.028485533668184432,-2.7420544738823245,1.0519557935006756,-0.06774223661006804,-0.5212999978639246,-2.921913625925288,0.6917373538884284,-2.638262722539162,-5.428856154154332,-6.202417916135333,-7.096790810967968,-4.8089234070066285,-4.780144615876492,-3.3869248841627195
35,-0.03929308225008916,3.152296327251288,-0.8642076593595949,1.6250074690782343,-0.48787307505590866,-2.6275423559850366,2.5025367905375537,3.976963099706312,4.222396989672961,1.0839454629127976,-2.152687194223426,2.1047692923673598,-0.5609713351865995,-2.0166070306018553
36,1.8552893496153433,6.892139692761905,0.7425089944246661,3.5491792227291583,2.542247990083544,0.25583587706155236,3.1955059793586815,9.899340727136607,12.795742588222868,10.485953882799082,7.17685575289398,9.425292922765381,6.426281560961256,5.348245402640709
37,4.8009702211529515,4.9990809412136965,5.192087237122983,3.762478317971751,5.742458062087446,1.6318343530813777,1.9404688368066054,6.777815692565618,7.510263709474731,9.738557103499822,10.167431516059363,9.543860986753582,9.041567924859782,11.579147261673917
38,4.549871549311269,-0.5171246342597351,5.895889864048754,0.9862123797888257,3.4416697134767507,-0.49592468810691487,-1.2739864222395039,-3.579842372342516,-8.808969310972621,-2.747819651431099,3.070015241500317,1.4157668086729018,3.3169201725302386,6.708206543344705
39,-0.2526414477673998,-4.257144379342151,0.23627422100103837,-2.6589915158624886,-3.2397816210248926,-3.618555563738069,-4.513013945379733,-11.448519545555211,-20.486413710329785,-14.43144357182646,-6.759135027516692,-8.100278663159365,-5.336269516336698,-6.4807863878906655
40,-4.8177934224899275,-3.1955970189765757,-5.901691243009451,-3.374993367068302,-6.289889714366606,-3.222541757545263,-4.4650421793027455,-9.886683327371891,-15.431439846809935,-12.42542149526475,-9.657778414195139,-10.600191473192872,-7.823131349912864,-12.995910732114467
41,-4.318639370225712,0.06895732025350229,-6.264935299671513,-0.9163008682589499,-2.2386728733573507,1.2028697030214728,-0.5609471125647753,-1.3718553871747667,2.4772819570117703,1.3472304319654047,-3.969593814542947,-4.411660998312659,-2.5605265080963187,-5.169141023152774
42,-0.7213957518700796,0.8205151525116375,-2.4381349542180666,0.7537026522727037,2.3842051267066044,4.627210542799084,3.076696459390108,5.701542013692643,17.02669706662797,12.142252029689047,3.564827559627528,3.781027624332548,3.120197200651569,6.340842819260855
43,0.7353361771433199,-1.3025842165302974,0.211051271628885,-0.4464138728433226,1.1295159102228973,3.1067016677885517,2.544827735399103,5.940013980004039,15.730895290238951,9.586513178763493,6.114601774275343,6.469982819938515,3.0934754246207734,7.150206825789255
44,-0.20221932930106767,-1.852784073058723,1.1317040509762806,-1.3773557115845478,-2.2330340105738884,-0.6393261328258072,-0.41672075406332376,1.840948246057838,2.4912440273728307,-0.9300589872063922,3.342813842644335,3.3383748403066518,-0.45000180082115576,-1.4343498152014935
45,0.4001231738369384,1.3889851337742536,3.4700838404403713,0.8066661461226354,-0.26736885457876064,-1.591607010141114,-1.0043305394542839,-0.33150359442459065,-7.435761161685369,-6.484436694668328,-0.40672808603932403,-0.16529826723598226,-1.9075153258758404,-5.977718610201043
46,2.700526388588362,4.282729330826799,6.312016035047663,3.212735679510821,5.129459918239633,0.17098892758859066,1.6133115973487648,1.3542056400774742,-5.6526595414016025,-2.9006849411892817,-2.206345074129012,-0.8178024693507205,-0.255587892886735,-0.6893834298787627
47,2.4774005704550897,2.2815022234194604,4.667144043772272,1.6095010937497651,5.030228288398882,0.723435153938655,3.293362048446392,2.6725982268646193,0.555514429958038,2.270312312796372,-2.500861528053239,-0.5289551803477911,1.4345350092117137,5.949072970262198
48,-0.9214957610901845,-2.286451616928722,-2.0793521906462407,-2.1354327941160958,-1.9494100503147724,-0.9357839452035591,1.1034605925781706,0.06508871214607234,0.7450970352507392,1.9919867799313362,-1.8893621170218164,-1.3637326703000106,1.726756628505542,4.973347109555555
49,-2.594254397324218,-3.3902701607773467,-7.432541466102796,-2.405459628824588,-6.649616804251601,-2.137619803883737,-2.675413066963029,-3.8069450808520124,-3.4287446502437646,-1.4599577960882226,0.3203164547466478,-1.9934741784330063,1.5446619864131812,-1.2972670447079584
50,-0.10623866492814935,-0.24413798978465562,-6.108269187105579,1.2434960083908693,-3.182726779676558,-1.6482733095701583,-4.054937056720685,-4.104017843935948,-3.126287451103301,-2.2435058141006454,3.092650714161153,-0.8043382034874911,0.559189954233142,-4.90355521086352
51,2.3827777832076342,2.0384643372061975,-1.0072937990495123,3.158785017911899,2.5997274600934324,-0.8790344121564063,-2.4681533562708573,-1.09669329620759,1.9953041690637687,-0.07953213251311714,2.949111640971263,1.0142390741302942,-2.192093454446453,-3.3053628108441315
52,0.9829194341091837,0.6258736350433924,1.6598717336418418,0.2955456028927461,2.886221498454752,-0.18883643985334517,-0.2858832303223459,0.6707875157026214,3.648604952869083,1.0582882439611907,-0.8267281469626117,1.7457200260739736,-4.307417150148244,0.05958416160823758
53,-1.9760717146117637,-1.3834935530492136,1.45306518616225,-3.3607458533641137,-0.6731425747126412,1.624169067938734,1.1859375866496706,-0.42173108089440803,-0.7102753345920929,0.17143528043955297,-3.5082216417734733,1.6024807244294978,-1.885300722278569,2.1487606142464752
54,-2.4064964956887493,-0.8047989184949185,3.083930306012392,-3.087089644859148,-1.3904610571102165,3.731494245829225,2.4274994870703295,-1.1063204781470994,-4.110869304987263,-0.2670287302832677,-1.3538611514328376,0.887839108819537,3.5897482596616332,2.3615150546650017
55,-0.7253907467531094,0.7906688440591255,7.191843619962946,0.09399000403848685,1.3241777907517607,3.2837639131316014,3.105002282969496,1.0909465717680351,-1.8099864102763725,0.38342386418444574,2.175524619419475,-1.1646586146095839,5.354990461261567,0.7228828814306724
56,0.20624828504857812,0.5872279826788089,7.208065935780969,2.0519802804136806,2.2380174656750507,0.02412061194771896,1.8938266216202553,4.0601450572847275,2.7321530271241823,0.4494560139554453,1.5134537937299644,-3.5442179073826647,0.5832804128508513,-1.7327384641601495
57,0.20078512777714552,-0.6419085222911256,-1.498993184555025,1.6269930187569384,-0.3536334581326783,-2.625531761351614,-0.7413167955506227,4.427594018084261,5.454651918868032,0.21778084804981343,-2.0803572976057443,-2.91413039327256,-5.009752691576401,-2.4021338302396322
58,0.916169600779647,-0.34882473766624855,-12.692786029161583,0.8399686658694059,-2.2338293490581598,-2.363954985423289,-2.331843380606418,1.931568174464585,6.413931300610854,1.362336233822685,-2.5856962390162184,1.302554934588829,-4.758551717034776,-0.2693269566060254
59,2.11188501868571,1.2490388516490332,-14.42782091598961,0.7563653721656606,-0.5850597615537431,-0.9217660575252422,-1.7701840860632496,-1.2157041733403031,4.661272184811299,2.2170577660531583,1.0284471097272259,4.510821477906051,0.4202218589603237,1.9833404756432156
60,2.1416401709562374,1.533141783320795,-3.227147735264993,0.33990330983689604,1.6575376019533863,-0.7766083215530438,-0.6595120663758959,-3.558077122545741,-2.7186470355467756,-0.6134002390922155,3.442816214782066,2.8590794855995787,4.435900655618887,1.7280994102368947
61,0.7543709898892471,-0.3610835425742137,10.819095461989031,-0.9514610747494953,0.791429985427421,-1.491206066834807,-0.4895917419039584,-5.0408648037354835,-12.645835889085452,-5.255478395395791,1.5960465735248093,-1.1163772169195492,4.093792296568746,0.20277660127580419
62,-1.0595605455041388,-2.212083600434994,14.922080482873048,-1.9486028490674001,-1.9324889913134078,-1.0482217508625056,-0.515370327196354,-5.053721897342755,-14.885569706173786,-5.203419588940444,-1.1947300147139015,-2.2472372764543067,1.1651560545969766,-0.12379537918277642
63,-2.5990727709803076,-1.749312190366774,7.0501984901858075,-1.5589617122166275,-2.428773442200888,0.9030625559584561,0.4524099553751865,-1.995401421490465,-4.323385744823439,1.1451424267495938,-1.1685686091682077,-0.10946831130189733,-1.6481393907907231,0.3442030647410872
64,-3.046799364120541,0.5179984482620416,-3.7536313526198226,-0.17382478806356083,0.225209881935153,2.8818457643860893,1.7925499169673538,3.9324493503665816,10.534672350967726,6.949316404243777,0.5454810795534764,1.0854087138402035,-3.115188184399147,-0.19289181227978505
65,-1.3999366819965153,2.1190237445104634,-8.574526249631063,1.1338304125199323,2.798437561078224,3.6409318627730434,1.9597426430105633,8.560787077181473,16.415322411847296,5.656336254838148,0.6665508432042875,-0.9431670366648517,-2.7163598104795175,-1.555374483166483
66,1.4406039468997156,1.5097982633602627,-6.685096374537521,1.6767314863475031,2.476231922650009,2.827511802232784,0.6551366237217969,6.847846572302297,9.738494263795214,-0.8561020817152849,-1.4128627525748205,-3.5478460933062808,-0.8088358519950246,-2.448982236123373
67,2.5897603315580784,-0.47051831739603045,-2.6593241099359335,1.184206242420901,0.06932784602890117,0.32342400066551746,-0.9883483919257361,-0.8977081777716306,-1.5608374502920956,-5.579228402141941,-3.4858267309125677,-2.9899737544310407,0.6587879396884021,-2.404927283869853
68,1.066648062293767,-1.745514417515486,0.5645609779279939,-0.12296694065789462,-1.719309087548445,-3.1810992574431123,-1.748723706083065,-7.706821092688011,-8.188334962735047,-4.632001437349617,-3.086739622115905,1.072324894429934,0.4005842425798897,-0.6587639616653126
69,-0.4105947436466179,-1.138430971007059,3.143947228564546,-1.2311220091923427,-1.5837712703172275,-5.210768095878587,-1.1442284284868016,-6.938148589267868,-7.668250767479105,0.13142736048632575,0.7455701699402834,5.416962358753621,0.37010262667004573,3.574211587660637
70,0.4254637960389707,0.5853259834930764,4.857341936477919,-1.1150525113699334,-0.40823596443355814,-3.483789084811736,0.31422798530562274,0.032391507748648685,-3.6336410769626646,4.226685584725325,5.978628570651153,6.176836424782002,2.8514406467020468,7.314184606679113
71,1.7657313978438547,1.5852114905604593,3.9438940624280017,-0.04027791820855181,0.3514866712798901,0.5370687068509654,1.1804964048045528,5.36307334531434,-0.4467526037282643,4.256292322237645,7.598593721477735,2.006468728440915,5.288153061061589,4.874839378681986
72,0.7850974985237333,0.8704989127208096,0.20379768528708553,0.7478660624247722,0.2706514600863821,2.5832431882080993,0.39244590523793865,4.09351496092233,0.7020756585657331,0.35982871205587413,2.3688507416725724,-4.256082298554085,2.4394057804487206,-3.6056206901273966
73,-1.7944951201635493,-0.689929311986067,-3.3572630410329833,0.6040990504515161,-0.004053343910703385,1.3053812568696144,-1.015117279047142,-0.7470736807720452,1.4143891941792877,-3.7306632360074254,-5.812752418645193,-7.339555013408102,-5.163135389277834,-9.415942623565154
74,-3.13953980136271,-1.4532288049664497,-3.81098838221889,-0.06503853308710525,0.07010882021891467,0.29251359175141156,-0.8743002711176745,-3.3903930849786774,2.6366626186458983,-4.327917984271424,-9.026373368421234,-4.523190940420177,-9.552805297107406,-5.952809822181048
75,-2.5359264022385113,-0.8573586528984305,-1.7578607795266499,-0.6558017051860929,0.19136480083731494,2.274304191858445,0.8995984992922483,-2.473115981992073,2.864101929849387,-1.6515270033102882,-4.772199426162521,1.22794651322283,-5.015049833040817,2.015339532219505
76,-1.0327195265823872,0.26775871599309436,0.25905789107644495,-0.7548905496694307,-0.021821812077954344,4.213638622850963,1.8079582504100018,-0.45142511483518283,0.8458864051335111,1.338218676456149,1.572215650874111,4.544096004488274,4.081913754316292,5.336674763601693
77,1.468830886833583,1.018382630552113,1.408198311577843,-0.033495705271251355,-0.01954039264598532,1.678693019253204,0.4035638700207216,1.2118263653450856,-1.4077073300141592,3.1106482476627244,4.724887066914485,3.714063400337094,8.701174453545555,3.0097813022016084
78,4.876374050760318,1.2507188749261786,2.386714440888898,1.1973884294936956,0.8886537659898336,-3.8551895819702304,-1.4749275837412796,2.624290839666119,-0.8151245815152899,4.074888081498225,5.219156683317706,1.5511569805348104,5.858451282054735,1.0799782545772028
79,5.785607626316574,0.9530086122416701,2.597656380097887,1.576001239601094,1.7442953172799776,-6.3639049681316555,-1.499117722388274,3.015864998678792,2.025704263784751,3.5985019575807025,4.965717608968011,0.39234538788499873,0.09884833576191013,1.5378480058335373
80,0.7031896943645817,-0.24891962936203002,0.47124397129771817,0.039800120402286907,0.48986510093570973,-3.4244751024976434,-0.1151485659960864,1.3652679283070805,2.949139644200903,0.061609186111558883,2.153393187104759,-0.8282334861046872,-3.8435437704207116,0.20978869043993326
81,-6.987966088559092,-2.0842406385466488,-3.080572993961649,-2.2271874713353887,-2.7005904094189983,1.110058555571456,0.7820698513957013,-1.2996162443999841,-0.3059004731236867,-5.254676356548305,-4.578596711805509,-3.14366014601316,-5.210136411552737,-4.020660541582564
82,-8.495801969959059,-2.756641440198378,-4.221189628531982,-2.4223374253959835,-4.140517243876871,3.0770251349441486,0.9012558227027306,-2.8873029257758995,-4.853890596905684,-7.461150984145594,-9.938495237853912,-4.1004023990561995,-4.449131132230653,-5.5109197741319935
83,-0.8042523325823009,-0.6196577479210659,-0.8634128670934899,0.3890962281726012,-0.9381997815521647,2.7622902688205615,1.050035773572332,-2.8202129846288786,-6.141026101699052,-3.427294092444364,-6.5675173768642425,-1.0022839572551598,-1.1779907947230241,-0.6793161438968462
84,7.792326820188767,3.005700372849469,3.7220989721977458,3.3062661715917945,4.006760828636736,2.1982480365698405,0.7310459895795177,-1.820964282825281,-3.204319244490695,3.675157360294333,3.8866623281863184,3.801274380352144,3.450498126143413,5.107350912506457
85,7.51903508857207,4.309218930104965,4.287257666400186,2.7195933961773187,4.511752116511326,1.1760808439748809,-1.0473605135359247,-0.3082961084449019,1.1420471214469057,7.296858833333232,10.511758885752533,4.828676781826747,5.913937493082154,4.5964626907622215
86,-0.3269627831835787,1.3998473061897967,0.32929484946328286,-0.8673031664633597,-0.4271839471350761,-1.2905642462070015,-2.9711987021400486,1.3288815714753528,4.2762187077967555,4.534144103899892,6.522115937378085,0.863003202824257,4.136020655678117,-0.7628915114484004
87,-5.803443667293474,-2.941581370798692,-3.1760587285804665,-3.235304855659006,-4.219068760851835,-3.5817410624983834,-2.2744390753607626,2.15265799354341,5.663273113085842,-1.2847871161110844,-2.3632846853985137,-3.242306558306248,-0.08581897884540257,-3.3475111508759947
88,-3.9825199544507512,-4.410924625660466,-2.5940009931295127,-2.109598355650098,-1.5786952727942216,-2.7266609369445094,1.1518066078933311,1.9707766842671326,5.19929859552075,-4.797879430066513,-6.610055085611318,-3.2892885056155663,-3.894528929994625,-1.035038920696311
89,0.013193296114597797,-2.2268343851539267,-0.19915489267628064,0.10311269451393655,3.389752439927807,1.188439670851867,3.904981979204114,1.9450838684812806,2.5055457719030616,-3.781628657896061,-4.789551554838898,-0.8028009703909151,-5.941292241327205,0.6374042579266803
90,0.6785784428772559,0.808432180735274,0.34309636759424483,0.6802524608370686,2.975007083333122,4.199199470546563,3.24422808360187,2.3899435577367325,-1.3437409079183245,0.0993617159887771,-1.5442769557414595,0.7082033845136056,-4.868849901779058,-1.1107652052400292
91,0.19199969673078254,2.584825055143179,-0.008713538334516907,0.8372102183121274,-2.3123476536581062,2.9236548382089578,0.2464167499064949,1.3640168715845589,-3.8706497690798627,3.752805666157477,1.4858540367856985,1.265497788169898,0.7419140677610113,-1.3661270323325625
92,2.499731380975679,3.29797459024567,1.6340204743703493,2.53955256692915,-4.459414624894041,-1.348925307827255,-2.2704439489907617,-2.553702467599934,-4.336707555642577,4.477449830661044,5.09625908555362,2.5810009378643803,7.925063437189799,2.919747519502578
93,4.700350089725157,2.745074488854476,3.5136734168794823,3.463934959928651,-0.5084884542536523,-4.291208045446176,-3.2465759607344307,-6.941618252394731,-4.780942528251174,0.9314124063743932,6.067341127098035,3.0063990761949646,8.913645152876613,5.4536509945378056
94,1.441786760724814,-0.2932185567437474,1.213454819716512,0.045721833114576005,3.1934950389426433,-3.691840780913404,-3.1146969811147103,-7.200253072820093,-6.161514623201023,-5.077447202242979,0.5299475959871498,-0.4452890616032085,0.39448847367144785,0.07534167195536366
95,-4.700269671532978,-4.310737504528416,-3.9216512987903216,-5.2443384679362355,1.6004228627304309,-1.1549002173204934,-1.4117282639697997,-1.7790001413230023,-5.203506417026204,-8.057581147223493,-6.839942737242628,-5.2497362167871495,-9.232420716159998,-7.130978070155476
96,-5.481078100285881,-4.611111380357222,-4.8666149542697745,-5.5369034490131765,-1.4693782445885775,1.3376110059999429,2.4838856143707786,5.601565943102146,1.9867360005584767,-3.324916013260091,-6.470654229422359,-4.605068020750103,-8.412021050393305,-5.096878893368907
97,0.18036300692781046,0.10386410181603128,0.4650558681997079,0.33476678819614086,-0.6606274726710101,3.7658097919226434,6.135280080101639,9.378982325022593,12.89501814478263,6.298096654504128,1.6797467528041494,2.139645715234087,1.864669765868335,4.406185669751282
98,3.7924221144189056,4.108082431872293,4.8405208143804,5.093853419008402,2.067787398870111,5.61126383713487,4.889147357618298,7.112539503183809,17.949373030419412,11.017493118144747,6.413556874810516,6.195384991883808,8.08751467972476,7.3958746779147955
99,0.3665861307910336,2.134732145400842,2.049001454272556,3.1528368215394846,1.5605106589791542,4.19495469326067,-1.914059644099861,0.9128596096727267,9.825539115545427,4.849359879965168,1.4508820526001494,1.3076625289782953,2.476904768687341,-1.3894175226952556
100,-3.6257069077069617,-2.3446095029651866,-3.53286151437219,-1.5695055329220082,-1.6355555844205503,-1.3428332249297068,-7.856632556245673,-5.052847467029812,-6.796173007679054,-5.609640267123297,-5.132548967642883,-5.863784580880521,-5.966067700855819,-9.11685244847334
101,-0.6007789168866119,-2.029846288129419,-3.5215870383661576,-2.073554845758945,-2.5567652154232148,-6.5674202783263,-5.984902399953581,-7.602968599576938,-18.139531081951397,-8.232546047630505,-3.2521002111679445,-4.410242472166327,-4.492029272774321,-3.250795113728797
102,5.682191452058188,2.7638457878896454,1.835884742089199,1.3593677521862808,-0.1134837437772459,-6.34327782538396,2.1046170937863233,-5.85487906033763,-15.863966683438852,-1.3144255437135524,4.193706835656566,4.546400012341221,4.831354931704614,9.170777993700556
103,5.549279673328576,4.333699068073563,4.603505030631891,2.5389840561365133,1.5391330117250832,-1.9065710497857058,7.285077436468427,-1.3627537043836175,-5.722062966064019,3.998431453142868,6.345866994165808,8.692109356876372,8.370608271900426,10.908836799535486
104,-1.6043173184068178,-0.4677617983296075,1.4609680848307283,-0.707133545233068,-0.023798770714562587,0.994198295183592,4.023468696376849,2.6338736966910594,1.4779602750168506,-0.09171422284719855,0.5583005439143024,1.9467352613386848,0.8573656405621755,-0.9740769797737739
105,-6.303298930795494,-5.30870326831239,-2.236349378267085,-3.622920574757481,-1.8315313380322396,0.7926479423639935,-2.737058221847903,3.759314888721256,4.266765732460999,-6.421509792747607,-4.974803157368142,-7.147861741423749,-7.604907062565511,-11.370509398064215
106,-3.293298879530795,-3.8810498557372357,-1.809746948289779,-2.1715982545181234,-0.5064081833474411,1.8624535091884498,-4.36411092346831,2.9920870199599205,9.407655119377923,-3.6188876367547036,-4.223726514331661,-7.734844302333986,-6.671973479586819,-8.390965704573553
107,1.4338914944921837,1.325398634636338,0.019201145297923765,1.2021603293333518,2.41554612569184,6.129442900444126,0.09038428378407763,2.9548190350073114,17.147429749211085,6.639600832862071,-0.7265574644888827,-0.8147140785799187,0.5002491803297986,1.962843331963288
108,1.0689313082427663,3.716236146221245,-0.9491012438071568,1.9609988053547178,2.9281466577125426,8.149213505207122,3.350711648808486,3.367630563586387,16.542968181618974,11.578676348571166,0.4109085926351894,4.229449438373175,4.043110058597235,6.631926836334482
109,-1.746192706232681,1.9270274167215016,-2.910469859299702,0.2795151110725907,0.46878622680817444,2.5465426035239256,0.5440805234613123,1.033141261309508,0.6623314177626134,4.9619643722741005,0.6503059551792114,3.1657660257101137,1.9556253489370137,3.0333886917247836
110,-0.6212572527600657,-0.2768431209597701,-1.3451308573470842,-0.18749287593407987,-1.8279773329049254,-7.021901227910376,-4.084066760560095,-4.3567722116354775,-19.69008743530498,-5.416832764324485,3.1324974191958876,0.4910717951722513,0.3624217390291281,-1.073730445275158
111,3.6750594404472503,-0.8172651743893606,3.123242228935192,1.322945455221336,-2.0982671301007847,-11.400126735786941,-3.5340999328287626,-7.7758331589160745,-25.67915626854966,-9.142407880703052,5.01274634262176,0.5935992532030342,1.8953904626942584,-0.6235261562059223
112,4.835539099504952,-0.961512842172907,5.278731034639423,1.6582000382813435,-1.5790177507728287,-7.128998212848555,1.9057833617935307,-5.034778295299042,-12.417689987977054,-5.367861986541144,1.4390320613665015,1.609673565130719,2.0950958832206985,1.527345535625739
113,1.093969102337761,-1.2077976048710646,2.809418526719684,-0.753267918234198,-1.2365182721175032,0.6019578838943368,5.174224199923445,1.1786243228750863,6.027686655316864,-0.5210227500098816,-5.331116237414712,0.01622551114926695,-1.72024583107978,1.2812396742945884
114,-2.85669424451194,-0.2687211386636672,-1.1559496741638486,-3.044736595924349,-0.008852194176991832,5.764135275110901,2.394626869715478,4.822265229128322,14.260073686271726,1.3610554592069708,-7.406665051177696,-2.996681396687076,-5.066958672187554,-1.1258140485982058
115,-3.4281924216910213,1.5337559148209816,-3.127144928583949,-2.0552931470311084,2.336199430117027,7.295630167352756,-2.0960144841121795,4.227787243801987,11.446272232093266,1.7563641745674117,-1.7582361519258887,-3.3045357524345187,-3.0699392404997417,-3.043793098701375
116,-1.9922995753634485,1.766854026679786,-3.093142749747176,1.1863140979159366,3.504442845230722,6.3117492326055515,-2.424554123041668,2.601047363745934,6.789445933934791,3.222113462857986,5.741855195939243,-0.1600722003293026,2.1160697098568497,-2.719543581860178
117,-0.8218455290875493,-0.2003085088681744,-2.434600084384445,2.958017078372038,1.7342030296968953,2.5979007867301127,0.5783568276457396,1.9063950751810028,4.968231818012,5.353063884705344,7.555524479056396,2.7073243547613557,4.526330688938987,-0.04894114510082088
118,0.008039764730633371,-1.8398031282541514,-1.1897792439670176,1.365594237508073,-1.3873938930326062,-3.236432955789443,1.341684515709091,0.42089123189429645,2.019884817289948,5.10071164084969,2.3403344451866506,2.154355119393197,2.2128106978423303,2.923897452510555
119,0.7703775530376392,-1.254871494151358,0.9572698487328358,-1.9146299596389313,-2.9297687226966893,-7.419044926789895,-1.794732917600301,-3.0345784245711713,-5.7538657108906035,0.16943044488169975,-4.933814848619486,-0.7015910024887889,-1.550708276969387,2.7039068615456525
120,1.114688759506212,0.2539753153258308,3.0194108444700043,-3.387473548302039,-2.12430243849916,-6.3212375417978794,-4.0430587683064445,-5.7952885586254395,-14.047418299282908,-7.141304478751986,-7.887160648503871,-2.337431053001421,-3.1205005547137428,-1.0813562123467273
121,1.7130994561650386,0.7757563756481456,3.657153660290695,-0.8776471133293582,-0.4367704925002644,-0.9856408449097691,-1.104410965758529,-4.335756388570978,-14.228054443089817,-10.13194348084518,-3.5825720673336416,-0.8492241345612659,-1.6987357270183052,-3.1290082373137036
122,3.2116975018038407,0.5511350672117952,2.608092983034536,3.721659392668155,0.7667277336506432,3.8374508698841234,4.424262421936646,0.7408061131387984,-3.8733544272784126,-4.623953190532098,4.543389462353922,2.209722829778002,1.1178830367512234,0.7159257177844146
123,3.222637292411452,0.5163293981808575,0.26634986775497094,5.164359313290522,1.2105294041776207,4.630713824795261,5.917166596329883,4.696554295414249,8.743551244705525,4.557298776308495,8.393963451706787,3.2756100754772897,2.7161858453939756,5.450896686552122
124,-1.1941926934343123,0.27425340390270414,-2.774254272492108,0.5576544519595316,1.0534126340914252,1.9285874806625074,1.0087857807579577,3.9910197436722887,13.005074540006635,8.22204116960364,3.2026783292616243,0.46777476779826727,1.353914021260129,2.6310395134972926
125,-7.18884503585797,-0.568779050552892,-4.922785449032121,-5.837833651073948,0.5407804120499545,-1.0739955965985792,-5.198712141783512,0.3890143871740113,7.9432234519670715,4.425506474392739,-5.6361887870578276,-3.6242878830867244,-1.5856387371844012,-5.840128207515108
126,-7.409427773753344,-0.909920248119656,-4.036553841338664,-6.484468974659849,0.11217508983768781,-1.6928473211425032,-5.846706080795306,-1.4514794742981625,1.9529698456383253,0.18590856066177297,-7.568157520937339,-4.163038867218014,-2.4605763916552514,-8.217867797561748
127,0.014528397616464565,0.0283725637104765,-0.06376395483741522,0.05542981687253425,0.020794154668336354,0.09885795109157863,-0.15097287865075776,0.03022359383458631,0.26790893400408705,0.1625456390620558,-0.04216082895058144,-0.049749485850215144,-0.032163231492232956,0.0014364635776823453
