,AF3,F7,F3,FC5,T7,P7,O1,O2,P8,T8,FC6,F4,F8,AF4
0,0.040123353578886065,0.05744690467843168,0.03136464868503107,0.029224958020019273,0.027058243262148174,-0.019276053181763494,0.026074243808728772,-0.06329525819058769,-0.21120691685266132,-0.0434837676298108,0.0040304974276544475,0.014897147349879923,0.0331240048020278,0.06459788364353942
1,4.130406929399641,3.8225463648304725,2.115408744920458,0.7793052823243313,5.033948687069681,6.396985801292534,2.5477083962138485,8.081938185248935,19.634385727762332,12.071158925283665,7.590286933909927,4.0782624277194195,4.080299257205563,4.624086566857774
2,3.1189497981485075,4.317618259556776,0.8882612964579213,1.5586098737377596,4.141812804758075,6.886594280800357,1.8890795719585767,7.02851651506746,24.37079867925311,12.338456634054701,7.421482725599569,3.8029292039769094,2.777333756052443,5.0585156348305045
3,0.3338035502733994,2.4266195232296943,-0.4135982355757049,2.7130130690721104,-0.5004881459548611,1.7280591089414907,-1.2284803037654155,-0.43051724750334186,13.012003069458224,3.0840741881350806,2.9317008159190783,1.3244595871698521,-0.5278578788833138,2.068101616621602
4,0.7931505709687602,0.3366611758177987,1.6309666911099,3.1094495089650356,-2.986030774726224,-4.3015787927133236,-3.266968589378554,-4.868297741063139,-3.6630831610184797,-4.533981295150986,0.740542064455455,0.5472102551446792,-0.48242401167885707,-1.218165694223029
5,1.8851272529398932,-2.1052943102283517,3.089388204874102,0.4282840418264477,-2.0655056974763912,-7.07764225166315,-1.953173919202736,-3.2417696994775675,-15.087086434909983,-5.562562252449762,-0.8501311366966313,0.1955558720800761,0.8057410792975523,-3.3472570271202233
6,-1.5354867692038698,-4.962023675085876,-1.0175144321121823,-4.6510263571618085,-0.7042445749269266,-4.87922649311548,1.5603280198458704,-0.17125456083382096,-16.71892023708024,-4.13549052613046,-5.897404820226847,-2.7615342155672873,-1.467310907436541,-3.957429978501137
7,-6.742415545225429,-5.320438970935265,-6.641229121278279,-7.081465395974756,-0.26791685337904786,1.3728103563539042,3.86467491586454,0.842347574786393,-9.297255608613552,-3.7744852281173986,-9.732444007950464,-5.810997367102351,-4.978995107596316,-2.2640794631161385
8,-6.0097237969655115,-0.8778953794445767,-5.297946578355967,-3.1878221887316376,0.4110203546821046,7.1594659722402705,2.3900142253801575,0.8165955061099123,1.8125017313077834,-2.2792765491222124,-4.749042240910931,-3.5910678518760926,-3.3457207715544954,1.1955376836039848
9,1.5118369902944568,5.265964799919282,2.7094838782395665,3.9260443030545846,1.7359968927772282,6.966456731805182,-1.681862028500021,0.8257348103729212,9.039231911419243,2.4032105883240797,5.935673761355324,3.0471015420060694,3.1355888249834996,3.666136843687966
10,7.854760530322187,7.173969166934759,7.743146377064055,7.622424076658247,2.4062346313347454,0.6686512192092995,-3.93196874462201,0.010284478594249025,8.892826691152473,6.645513525838958,10.878135331742966,6.852314252110808,7.21344609420432,3.2001541399231392
11,6.729733518902557,3.2307404754162627,4.220265509212747,5.2905275594291705,1.3106547618404292,-5.211736020519218,-1.6548902806287393,-1.2931070137077363,4.738571588930225,5.359033798082643,5.755863954935487,3.896869678622889,4.765245341588338,0.9204822191773234
12,0.6763084837966804,-2.1180143174485044,-2.411510671482788,0.023568390739270875,-1.1051031454425606,-5.10190086081861,2.316640246352765,-0.8640470393184525,1.4694012937964855,-0.3019256783450136,-2.0741688006871395,-1.5635260475549786,-0.8786677460649813,-1.0222716129445477
13,-3.796153486662428,-4.274664683159283,-4.372457726349027,-4.211517658960565,-2.98197255597749,-0.9484838070344488,2.9284632333255103,1.5853089054287186,-0.026627065170367448,-3.746175414773516,-4.9821812509533485,-3.6522769511622117,-4.9205370162668585,-2.0627786035093627
14,-4.202598418517452,-3.5222548509008385,-1.5822825327897987,-5.90313712723094,-2.5054873499980532,1.3744867144818798,-0.3800795183167595,3.0667244148680055,-1.4207427203940657,-1.8707501009290146,-3.5340051055274837,-2.054320021060995,-5.955191699255938,-2.5433002394202973
15,-2.6447581158217597,-2.556180743628443,0.6697084205817955,-4.724099867571239,-0.03366262947209629,0.2215668199748015,-3.0108925395489066,1.3972514883477518,-3.170675712334697,0.9147998907261821,-1.7377066237928693,-0.19580568525863534,-3.958875184124656,-1.8491143051303414
16,-1.0232537132507342,-1.3891789497818359,0.22096884656862767,-0.5426856945537442,1.8801029657921327,-0.6739206685192473,-1.5834631205121685,-1.6788482471767971,-4.5536903192417535,-0.2966141877901156,-0.39528017758161693,0.35379462965832087,1.1723927703758856,0.8218394071526225
17,0.6910579142677074,1.778486559499478,-0.43111836610434184,4.710491035553909,1.6259042799644479,1.3377603866090566,1.7459211825089147,-3.1859651027678897,-5.183769129018556,-3.7015352822696155,1.2076790465012228,0.44656281157187444,6.610108980790397,3.7949318725349923
18,2.1107231302282123,5.41896264640156,0.43735227713326713,6.752699589722914,0.5128275891431181,3.8089003236618884,2.706263567544184,-2.829327838342246,-4.46991196499498,-4.102683613788305,1.633862795270358,0.38518902651317444,6.675703518368563,3.2349449949207334
19,2.0170832664964697,5.015971045349502,1.300083164584618,3.2444808802428984,0.34174460376101434,3.02114785125711,0.6936042591586293,-1.9783361995601707,-1.1778024709961326,-0.3545554435520881,-0.16015554570357896,-0.23098969144047699,-0.0034913587537100804,-1.6652141613559772
20,0.9476152212857963,-0.03871716304919487,0.795277600070002,-2.5009346709503073,0.5946532416191557,-0.7018169445404093,-1.0898793988576505,-0.29045541904172234,4.688879795559997,4.421075456740519,-1.288602368240389,-0.47120049404540776,-6.30788801283795,-5.301938950859421
21,0.9160965443076856,-4.172207510028361,0.0781500739076469,-4.7418713319020105,-0.17023784594564773,-3.7817342706535855,-0.6551539963629316,3.3589894420797344,10.18491858668961,7.3498832522224795,1.3679827686051664,0.9799148721657548,-4.5691419886779805,-1.8357405968422507
22,1.42919647915766,-3.1679395925363196,0.22535902736183971,-2.2778713981136303,-1.5051196277049972,-4.04701101450801,0.18856701595517233,6.891485695217993,10.873650498523492,6.612404596582437,5.11903452684261,2.7287135449314652,2.579407536710811,5.2022644786117525
23,-0.5588400313142703,-0.27195997943344397,-0.027552902978471877,0.49109422016132764,-1.7741647758024963,-2.2321470258892018,-0.7509962181139661,5.756276659059413,4.665643534309568,0.7444069406774997,3.882993326895655,1.5585591774566692,5.074091478712208,5.663698328138607
24,-4.699700578888544,-0.5920664386382914,-1.7074514230518105,0.22773521074441702,-0.8419800351884844,0.27245641826023126,-2.1981276023096887,-0.9360176024541145,-5.476414091172634,-8.051712710992827,-2.973688084235993,-2.494518907908408,-0.3876860627780425,-2.4812813975339356
25,-5.379421238335815,-2.418144908870791,-2.722710270773461,-0.7997376435440888,0.06099669762407055,2.685164254524515,-1.263567931817368,-7.8352629146996575,-13.03813434192044,-12.246109266186657,-8.511016529045365,-4.775667032843071,-5.583427254544975,-8.326302000788663
26,0.4341469383702268,-0.0945548461651086,-0.5439613755456333,0.83042311750031,0.7308491659331544,4.081751334341312,1.8450612609817987,-8.882500308226955,-12.945031564258485,-6.243640150927404,-6.6162424280980465,-1.9460760118273348,-3.069795266376073,-3.1824644233175365
27,6.859724406891529,5.481490026850382,3.131267539156681,3.488007604268536,1.9310639442233997,3.4306375201245998,3.61406420741068,-3.6768981652622728,-5.407479179108845,5.295649814530125,0.6942645012038956,2.880502105827026,3.174942439111042,6.194855039493213
28,5.823087263266421,6.386037291485312,3.7550662153195886,2.7271892135875055,2.8688777564524304,0.700956231303732,1.8935471724614468,3.1465361069765545,4.762053847536147,11.412441715389498,6.521252467074062,4.015047356320615,4.766956479545114,7.347155389034572
29,-1.595494445938744,-0.3058587589040168,0.3022579172811611,-1.4200059206042734,1.410678291937314,-2.8547669082954865,-1.3915299304230393,7.1224090088391145,11.706157139212989,7.468681365010162,7.059156783333519,0.9074802226116588,1.4023910266801922,0.027401825049048603
30,-6.160706369773891,-6.739302123906407,-2.971883600495122,-3.8813749784151423,-2.193909627338362,-5.243531941006336,-2.9691014757502288,6.7795516405281,11.615812474716444,-0.6463910391982732,3.655574299884086,-1.7091713435622646,-0.8659903070947473,-5.1244908383039744
31,-2.9335855581021986,-5.101869660735465,-2.4816168565352688,-1.8969813587522568,-4.364050021349054,-4.472541149336402,-2.0195447855537525,2.8260685885894423,4.5605114945645315,-5.482789920061247,-1.0462761210454572,-1.1130915778143897,-0.5465057941295971,-3.1594573499307805
32,2.7114816065197043,1.1998444190457016,0.004188847118843781,1.1625636625391091,-2.651315641099943,-0.14128092703652667,-0.06560565051147887,-2.6981861447927784,-4.789424196904037,-5.8776597679705,-5.191998043862716,0.16775264763889752,-1.5107677478137562,0.1826183793725569
33,3.5344009591115393,3.47577888869987,0.9205745986980661,1.2969224042750997,0.94571529668707,5.007417872984664,1.6581068126712064,-6.339614641667977,-9.320562539874553,-3.7818258067254873,-6.4264048650098475,-0.3860429700960648,-3.789109963988529,0.20138374572319542
34,0.13772928871623216,0.761374528890315,0.37734706007399876,-0.28464719705309977,2.9089914630487472,6.535092210609111,2.792480559693587,-5.002193610420944,-5.465167890400408,0.6354369993472458,-2.8771920908415436,-1.0048615572271231,-2.3749644657596933,-0.02457053343956231
35,-1.8656759690494142,-0.8418229746522776,0.638535835840242,-0.06602744656444232,2.477001630860022,2.674959069966977,2.3463673340063664,0.38478757172475037,2.02860511482223,5.811395339174734,3.0356423509488724,0.4674661775394409,3.0171843462577166,2.3108312000038205
36,-1.0543226224860123,0.5960032489882148,1.2626563153994228,1.532543880433481,1.121393781813387,-3.239502751720377,-0.716090697269248,4.498564961585869,4.260681329499234,6.020916727663979,5.45946550568631,1.8888998633385097,5.235939113230622,3.4207150415261443
37,-0.6612506990075901,0.9844618819039284,0.17436582575709964,1.1611505354673326,-0.30077946849041826,-5.872386499325648,-4.569594280294195,3.1906065235190795,-0.8447184412132417,-0.9819977736283312,2.303169843818248,0.33509457074739796,0.7820040691977849,-0.05864439695372122
38,-1.130994616041009,-0.7560062471382227,-1.5600925616818309,-1.2202874685564065,-1.6092067582718126,-3.4219183619825184,-4.88358992180224,-1.3799243790926758,-5.078167168284965,-7.200622748001863,-1.6064849990617505,-2.131514239131173,-3.563395940433265,-3.8977356280027977
39,0.7214990856695785,-0.6795822122112326,-0.9786290328563958,-1.9205863088203514,-1.9755236755304637,0.8684227855648221,-0.19210568003421333,-3.5467621746635913,-1.1975715600648544,-3.8966210334935973,-1.492172861634418,-1.389065229464604,-1.1948921767647935,-2.4915812589780053
40,4.091608439532543,1.6803926171631485,1.024549813947079,0.14863254448455465,-0.8743364696568617,2.8959907905081486,5.007892944627539,-1.4416257080023829,5.909326158805046,4.359326319880251,0.6384798965912487,1.4807154224123704,3.219378577194443,1.7454506525737932
41,3.219154942246912,1.3034374445130945,0.5932604382956548,1.4369044708568988,0.5096304967485348,2.164281115968805,5.302071400043303,1.5327976833889752,5.838342968738278,5.258882899305268,0.2058230978800203,1.751903935811495,1.2693242329335372,2.125214547202575
42,-2.647045022022581,-2.844828983152879,-1.8423468979856967,-0.1664812381740036,0.7810197145323943,1.0810735291492113,1.3310426093205379,2.5087176720106372,-1.380008910528029,-1.972415183596494,-2.0553447540337153,-0.560574317345953,-4.5899353164817365,-1.2442044298920985
43,-5.630376306174366,-4.379484874628995,-1.2966312706437482,-1.6411814629872972,0.4089936358700701,0.7995867804871671,-1.626146577893022,2.481647946845333,-4.7153621162694455,-4.808090901516858,-1.6985012171200125,-0.5790651631115287,-4.261222159417644,-1.7365603150488598
44,-1.0256450771920937,0.06677995214473739,2.769797204668485,-0.16331060903609418,0.4891639695029968,-0.1169024911186542,-1.6034125472663516,2.374289076467963,0.7520018868850582,1.9408035256269573,1.4225305952755507,2.1397067444995854,2.939098903971635,2.1248940504260836
45,4.041845874865272,4.349983733981983,3.7912364902715088,1.8056142508970783,0.5464157461308667,-2.36478331363143,-2.0326884117407533,0.13537108287835817,5.3562926457064695,6.4569823251616265,2.4057646961408325,1.5624137444067396,5.86037484677923,3.350134976660029
46,1.4520367423010756,2.5641869624068128,-1.3720471554800324,0.8409066623764084,-0.19467252852501726,-3.4017455891664476,-4.458348179253702,-4.688924931835747,-0.3645421856322696,-0.9049861847812761,-0.6980530448568778,-4.1373969632811605,-0.5355153211824177,-1.6776052843121618
47,-4.066933917255806,-1.1822693432338764,-5.5607071624515045,-1.154116787234487,-0.5527279839347873,-0.629296682529843,-4.218063887284206,-7.11144562356648,-9.5475051938767,-9.763157696217021,-3.019952570155669,-6.894161890997742,-5.825877623408838,-5.535568240104734
48,-2.115941133998401,-0.15240009448933148,-1.6379865794863335,-0.17336924671902693,0.6516906206710916,3.7297362670860936,2.177497813737901,-2.662413954544203,-7.743182375813591,-4.431560730078834,0.04524243508546501,-0.11181250736669071,-0.3698607873492638,-0.8139642500949174
49,5.598826160211869,2.866440438907286,5.216558571653969,2.2321608191698066,1.3987500317851567,4.193924458100962,8.995629209521157,4.794963368891711,4.926106428763258,9.7790113982647,4.9741032272487615,9.233195078375989,7.965660858688683,6.603485719110506
50,6.683903288214643,0.07521872173353787,4.369365623661506,0.7264845839869043,-0.9231793926732902,-0.5833342882132801,7.207648201139622,6.976182042843678,12.15298326529325,11.769146766933176,4.023118882473829,8.367758914541533,4.853770093897527,4.9096469554553375
51,-2.2452607039341768,-6.887802425937185,-3.536076469557486,-4.230211874831581,-4.084045097991453,-5.105649052240866,-2.429428369657865,2.368899934482686,4.526430986959083,-3.4691357336009525,-3.3700334958426827,-2.952160095661366,-7.4724955887641515,-5.048760117633994
52,-9.19025269263325,-7.2989648322945095,-6.784362441393732,-5.163675331226697,-2.8640678235313413,-3.9078825690793626,-8.971325213977812,-2.2474570629389845,-6.845154040583034,-15.293059821380083,-8.254410414990568,-10.798525629296517,-11.866979012483412,-9.349090444348908
53,-4.357967607887215,2.235880758659956,-0.21693295683969316,1.3188819362979274,2.783366491112995,1.450257271856205,-5.347061878093619,-2.031861286680349,-6.840701297927543,-6.793110505287386,-3.6447783295432177,-5.569026809051008,-1.254351808003988,-0.9677531469884448
54,5.652479565762217,10.91718659577652,7.19215404912632,7.8940501109893715,6.2349897534205585,5.020866615815262,2.9402791916929387,0.05465847275392427,2.202174361459716,10.648457548273297,5.718161257714737,5.587384866010539,11.091852593633776,9.760164865977986
55,7.934932119520032,7.953885629540807,5.860017455995427,5.845018229598109,3.0388684492810447,3.9251443109361936,5.915213222472558,-0.3043304459885917,5.911581289431082,14.167267081972089,9.086534896817051,9.096377998263046,10.581878892502898,9.4688973786643
56,0.8043075175911741,-3.0264603881192875,-1.6780167774104904,-2.7404739092509223,-2.9138660376477024,0.16217384178567565,1.522292837581916,-1.8984525427941388,-0.13098708371052556,1.0115656840562517,2.8882907529683415,2.0811371996118058,-0.2520555149294354,-1.1430175381181251
57,-6.2241491580469255,-9.574919342170684,-6.5912476500963795,-7.832935835315215,-4.960612189778651,-3.1831960357889293,-3.6337946639781054,-1.2926178286839731,-5.763595984215853,-10.980584060700542,-5.92482759978702,-6.32083531399739,-8.729167473193572,-10.421100069769066
58,-6.107329284323544,-6.174842295318039,-5.619914212427658,-4.657852940704902,-2.117084495858158,-4.307418341219391,-3.4377909853225073,0.8571500766424677,-3.179524382901093,-9.699611870451056,-8.712647582923225,-7.522703666601091,-8.740758573762292,-10.297669849487937
59,-0.8356264232077343,1.4075612597655756,-1.5070917942085948,1.6889514730735944,1.2730452660785754,-2.5325444391439955,1.1645627541503913,1.225824998122979,2.5539994237873,-1.1005162674805855,-3.752417789511112,-1.8657365589657107,-3.1266346097670703,-2.0797199058782243
60,4.134550542605446,5.299087589186361,3.1741258179333074,4.514679578138711,2.0403482700956608,1.095620748587384,4.3186193766814025,-0.4049174970797076,3.3080486086563723,4.6198596013620445,3.808650834474799,4.553771742239032,3.9940637715965854,7.774546984357121
61,5.942805736823127,3.8460902821346927,6.718137462174159,3.120131342881833,1.0069244435656304,3.5943355645803527,2.338750395860737,-0.8303398262190129,-0.012513001245180663,6.168781442438392,7.7155190924369474,6.901200738304688,9.253549484884468,12.257132646798219
62,4.389321093562083,0.7978928353024181,6.329184752627316,0.8137072240702026,0.21644998052882436,2.821637232652834,-2.1092129810919467,1.4752369997166193,-0.8596783254647117,6.348717117572959,5.653738615583432,4.597224613000856,8.428574776139326,7.510504107808081
63,0.2563146718473951,-0.5514740924219945,0.9318896327054118,-0.5582590208830117,0.10705086121737709,0.10118854762232467,-3.5932634502079868,3.8388413360817606,1.9880688956938155,3.786795563621872,0.1499147714474134,-0.0981260462545207,0.3496578917422297,-3.1998940837872523
64,-4.598824651293371,-0.82615377007704,-5.63123851045218,-1.4715135090578129,-0.1414877864215277,-1.5775158544336632,-1.0393667209798556,2.675574671974842,3.083257864111658,-3.40361983831775,-4.4446145907981105,-4.550193488185688,-8.820531344005964,-10.92242582179635
65,-7.231314985051032,-2.2031740178587738,-7.899183504163661,-2.1455128985929677,-0.8190006586619575,-1.2436003549619634,1.3706966098245712,-2.011573441404671,-0.8113561251924988,-10.435164663318131,-5.650833861279098,-6.710143080984437,-10.663339377628038,-9.535888865178741
66,-5.424577927471301,-3.7966910672749425,-4.515374086441785,-1.838743577660331,-1.0885995444847545,-0.3266385393927014,0.7308913976853643,-6.2469849510991775,-5.584563117331188,-9.538622581284692,-3.8863504294408275,-5.080406806972578,-3.9156398274331954,-1.6863187717783024
67,0.13237384076367475,-2.192459379119686,1.1564657361645523,-0.49482800839507546,-0.18035776952942767,-0.14032610498868536,-0.7776839286305747,-6.015425111545105,-5.394504767898263,-0.3121795478343182,-0.8951965457506758,0.0666141344799822,4.467760415301868,5.059559356700655
68,5.787442151280129,2.629595261984335,4.970667145096746,0.8341362381038779,1.223826855895296,-0.41313125230038633,-0.10571480689158251,-1.0601481780703412,-0.23993358257451883,8.710892564629026,1.9798397968577157,5.294359787126367,7.555906450101131,6.141612645301901
69,7.609788734499127,5.575090066868173,5.254120972747127,1.5916544417635785,1.4703408083748433,-0.06681926955826056,1.9990338076928846,5.1959726805196045,4.907241670329458,9.899133838315127,4.160423819600937,6.400637484177944,5.074092825713904,3.0367903765575917
70,4.593500094933717,3.1351331505322944,3.055792583741682,2.179314880934514,0.014700988552513868,1.1253136699754673,2.647366326409669,8.487221333769629,6.404298756030461,4.3007653548636915,4.993500650801907,3.1814819696699073,1.3749682341523266,0.1646373663432469
71,-0.7123316142345527,-1.4854166527354817,0.30971082970617786,2.2592056621474472,-1.645663473593498,1.6637687259703082,0.7705662479885418,6.195222789635176,4.079684803298519,-1.9654849193321275,3.326737894753261,-0.510064637347077,-0.773168084519783,0.08431018826538429
72,-4.663808506303649,-3.1660769183993343,-1.9811460588142968,0.48565986911952175,-1.6416904355787816,-0.0287511698232868,-2.2096476493375583,-0.9796210992860891,-0.9642395853194722,-5.49511540868276,-0.9064486303624192,-2.137064645826074,-2.2305337604110993,1.195843223452275
73,-5.435131419169368,-1.8636473591538085,-3.6418486361662787,-2.801781456460827,0.08049287598855147,-2.4947362144863234,-4.005656754768421,-8.244896663216226,-6.331888391229129,-6.5299945884169475,-5.0103583702913435,-2.9580313711448096,-4.032980564713279,-0.06769082126270713
74,-3.6992258302047563,-0.9475905166256646,-4.037187670990088,-4.47208391997159,1.7448123091467398,-1.9606570755380852,-3.015916827748743,-9.495355018094742,-7.474282123718497,-4.8364880223992515,-5.555470134440748,-4.093466028748303,-4.7600092134905365,-4.3445341963893505
75,-1.0462581407689895,-0.942341024389091,-2.3148272702329744,-2.1878028471236837,1.722006505019767,1.8893685638264013,0.19249814698952655,-3.3901945093941204,-2.0996212034584283,0.2393514122768036,-2.445326622575233,-3.5851415684730408,-2.7312097303383696,-7.330466761798568
76,1.6895797425693568,0.3789632867218329,0.8927682822402292,2.0950487680746384,0.17110782804824382,3.7242761196998453,2.8730261245191837,4.4022548693438,4.84733648358882,5.861164817717173,1.1612988315459618,0.25784400245109446,1.1770053677412722,-4.192061561620589
77,4.295328831636022,2.742428830672511,3.4807007607687472,4.209092607245592,-1.2907883427984563,-0.1426057493143848,3.098206113161664,7.303736695123482,5.939614824198933,6.860500644281714,3.1408296681605306,5.0060483865295335,4.740983610024985,4.030738323969643
78,5.697970330867212,3.021061520371175,4.026647761439644,2.6200899740720773,-1.4140863070121439,-4.9010658017177136,2.0727967338029267,4.9421398461529416,1.2399746728831895,2.3457062130165554,3.8935247915727342,6.305118306522811,6.5871357218631,10.202804240332767
79,3.7618816831231925,0.35247986980334656,2.7016029729783932,-0.5487621331335548,-0.5645409676021302,-3.108856421020411,1.5699024218266764,1.6554770593360542,-1.965287219287411,-2.667071965395642,3.301304934319918,2.8507224355383767,5.3484762675571,8.156222475101714
80,-2.0380051782056707,-2.445842260797894,0.044219721352916505,-2.6658437180924617,0.11505531167465667,3.9174655052227054,0.5819112007305511,-0.4223055251927458,-0.041430761567753424,-3.8936218424096474,0.0272022211902765,-2.5732064344189203,-0.4525301034273683,-0.8468783455886888
81,-7.8831545278176804,-3.076963658811899,-3.2610302690134167,-2.8447507390618307,0.3901730736273465,6.948225094296396,-2.41088911872803,-2.754695362483217,2.39616754157592,-2.4650653169251266,-4.448957291272033,-5.992431827556155,-8.278211869150004,-9.108382858019235
82,-7.82612757548114,-1.838877150991601,-5.095077676673383,-1.2990398334798867,0.8778332033676994,1.6412485734679478,-5.2703896281852005,-5.408868651930166,0.5673942642907335,-1.1480078255555104,-5.041831636003272,-4.989974310596168,-10.436298977890075,-9.457788443354277
83,-0.48864755914891034,0.6081730507056973,-2.9549884964767448,1.4004353176537563,1.4231871694387848,-5.656439341944753,-4.37655718643873,-5.399442678457941,-3.523570825447953,0.21288642121398973,0.16484713501138631,-0.1473449911445211,-2.6103783390285273,-1.711265628624373
84,7.816713763315252,3.66600123263963,2.2530910078770017,3.6961751270624332,0.905852303847509,-7.003567249758534,-0.2944764123506724,-1.452305188974813,-5.171880069808528,2.459817094126515,5.294048467807588,4.722071729118723,8.063473269873358,6.871979252038636
85,9.11595174857874,4.803482783147973,5.605571982843413,3.360281585605694,-0.8230270963756574,-2.375811093149736,2.9460177992595664,3.2201361788940197,-3.3727882701274083,3.4892147170314862,3.5669517104579493,5.277867926010048,9.889941750707534,8.316104081334418
86,2.566447390634878,1.4303409513822114,3.5369809379440844,-0.11963740770925031,-2.1105796159351247,2.9604800049771867,3.828238609712326,4.958619124900328,0.08856625569064687,0.8593942658499757,-2.887555175293902,1.233944386272314,1.6317618221038486,2.095579431883335
87,-5.093628102160697,-4.362960542927385,-1.5450847233556517,-4.14859905545555,-1.5396334344415106,5.787787999779639,4.1332104663404605,3.8981224209584524,4.131896335555623,-3.4136604977835106,-5.601759271559957,-3.0160950985281034,-5.934549275427856,-4.604064349015894
88,-7.604477100249689,-6.821911083068235,-4.284931063480177,-5.185221016076413,0.16333156882072658,5.583071093403185,3.915662761773009,2.275185623688289,7.446568143588774,-4.389704091488257,-1.5655105858363232,-3.6015054237416093,-4.800268077580366,-5.53781634598594
89,-4.766403385703763,-3.4390964766368817,-2.8714435775271645,-2.1349065328369905,1.2326228955389973,1.8122041604099286,0.8019805058099639,0.6989048395140263,6.925429540873552,-0.4533880687794958,3.5695145131978343,-1.3223717507593848,0.7759504656902565,-1.840158616908877
90,0.1331983381664718,2.290574806015405,0.052342430841228575,2.791103763676359,1.1116847477015273,-4.276866033690255,-4.672917485385534,-1.6476431752614873,0.9366853574772785,4.52585860361354,4.564208751734364,0.7580780728720701,2.698600125029636,1.6367384446905184
91,4.494930662052748,5.697107934234209,1.9604859700938566,5.947668393594451,0.6030173301110952,-7.5593488287888295,-7.712318540357112,-4.345555169681983,-6.9098472156307915,5.512881902531785,2.47081959820645,1.6238745217919408,0.48607292060241303,2.901748108696817
92,6.354520598530819,5.354518283729984,2.6535668645412835,4.769167061816749,0.3241384428355989,-4.041569693286094,-5.19807920334122,-5.4217545242467615,-10.304025360288705,1.3082250726401725,-0.1581966295427189,1.8893364921261186,-1.0130104944013538,2.6848254439274326
93,3.9271749557140776,2.1122132352168563,2.0922159090513057,-0.2668979224125112,0.03610951025136484,2.8465244015388196,0.39404114135797247,-3.557156830863264,-6.594039290097883,-4.58009383876254,-3.3587559830947495,1.0446527803698085,-0.5463930603586012,0.9281618465774318
94,-1.722050611067461,-2.640892310240577,-0.34179556298129987,-5.324627333606975,-0.5988882982447856,5.5656556596813,4.6192511473743325,0.5007876705486863,0.9781230196549098,-7.0006979219033685,-6.035613616459419,-1.5106769713903654,-0.5533865840762571,-2.2654409588768427
95,-5.776409999767162,-6.147773332394599,-3.3014586454675094,-5.975161356536905,-1.2732291845142152,2.08570683919833,5.711530779251628,4.583534833898803,7.009080874972419,-3.5652947617150423,-4.206468245323649,-3.489308607533355,-0.9348130157322853,-4.025739521570427
96,-4.423051581025117,-4.993966812509686,-3.3532320049747657,-1.5391872164432692,-1.2276870968335445,-1.9567451237195808,4.253686990116564,6.4315656196615905,8.318530653259403,2.9831800044846033,2.6497781603136192,-1.5554959777195336,0.6919799767870103,-1.5227037535723733
97,0.4716450353683336,0.6161762983919752,0.4390349614155557,3.7858901674195438,-0.12025600287619254,-1.5219906087284831,1.0594748113746957,4.765734066199837,5.009876689788619,6.997888463195705,8.01587213560075,3.211109240466223,3.260173166471797,3.1004062516608637
98,3.598593927985015,5.33188196833386,4.017990631031747,5.107336535444008,1.3079517879380063,1.3969239164441543,-2.620138357784296,0.219232745344161,-0.5994181363830886,5.173558900795887,5.840715375615157,5.165722095916754,2.6772676122491577,4.433087043966603
99,2.4613498460766094,4.3372698942070915,3.0334024093864613,1.8698366945116913,1.733139588584828,1.830230613314639,-4.59949229630321,-4.457144709152153,-5.204785080322704,-0.4116852587685682,-1.3250993427956006,1.2811214938242947,-1.478446547549672,0.8225568022945084
100,-0.49285055935033256,-0.6209414874748832,-1.298541541279697,-2.081832644354039,0.7098528062580386,-0.7765631914765672,-3.5335511716933987,-6.060564001275679,-6.180594941939364,-4.664756382502904,-5.841149149965138,-4.23578360235538,-4.532447202990535,-3.3471835122953446
101,-1.7501780373054825,-3.6632438989136062,-3.7633489450611832,-3.106680211816168,-0.7153061300554594,-2.6568911967074804,-0.6141949171439418,-3.675765183736124,-3.48524744288466,-4.6140678097611945,-4.4499358213213975,-5.13988553960859,-3.166647221141847,-3.3723975623034024
102,-0.8180423575941265,-2.29597210097785,-1.9518723656913557,-1.3220592714170631,-1.2539443939996053,-1.6854929239423129,1.717723318509736,0.4493283419449664,0.3935187662344649,-1.6802512285922075,-0.5058837542858626,-1.0940356764756916,0.5311186983363916,-0.010734189220616662
103,0.30030872316932533,0.5974068573194031,1.2465179335362933,0.5514416682995323,-0.8265457432852636,0.3255588006112944,2.313739120178264,3.172472152775109,2.9697965756397515,1.0238030223586447,1.7204185947806598,2.67346182383158,2.8143738713153925,2.047256328525172
104,0.4323036716968454,1.8923359692793156,2.172306673564184,0.8186721688129625,-0.23139718447450544,1.0897961190521381,1.6706413825407578,3.2656298504254413,3.6561590541614355,2.3383010362732213,1.4604348771858524,2.7294027509306313,2.8546448579404946,0.5816516720633407
105,0.4989390482233643,1.818834066964685,0.9294800202718396,0.4090519096038552,0.1816469932664951,0.6296572536302488,0.4072847041387572,1.7159141883084454,2.8605653662496544,2.9033811695100793,0.6375495358016682,1.0343688638385398,1.9104639758304438,-1.2171202644061145
106,1.3595814439946416,1.5227708257022186,0.09363094093266659,0.9111496247207252,0.6725093160177138,0.14540550225253948,-1.1354800115553862,0.017088341097257417,0.680040235877595,2.5054687528483885,1.038832726901222,0.6714150328135837,0.5070436788997851,0.5970639023507185
107,1.7237897323892255,0.24799985214863451,0.42656741326785097,1.801393101895409,1.1165201434984393,0.3146636604462907,-1.8871156048848328,-1.0248342666559944,-2.1883319853144174,0.028506852954480424,2.2554305081272474,1.0274769011867866,-1.4388427526934522,4.1386726124651
108,-0.36503478032738246,-2.678931306353499,0.0416482296985237,0.821209970905671,0.8272509363822846,1.1880125305017604,-0.5021121146642284,-1.2591615168596924,-3.541822128407884,-3.615995112333123,1.7107900481912313,-0.5638031620111248,-3.1361192209739657,3.001135133082978
109,-3.9918389380788235,-4.891798918730053,-1.9826171025185026,-2.382476762217836,-0.32272269384335606,1.9984329546402462,2.249005623372397,-0.9613839130510302,-1.893916734755165,-4.955636313057333,-2.019023909695184,-3.7573763436539815,-3.4019980050743333,-4.236777657382516
110,-5.017988201516279,-3.026214550120847,-3.201078289519501,-4.41997390960066,-1.340841592825398,0.971001223923415,3.1085462211313417,-0.6173428701350588,0.9130699876273276,-1.9104266086609285,-5.67254666766952,-4.5900367905039445,-1.9423935214586876,-9.427934001358048
111,-0.7362515092745608,2.3887114185083362,-0.8539314659548937,-1.925957938937141,-1.1929923068642174,-2.533249199092243,0.1696794025859395,-0.29134677656261476,1.7717597921123354,3.186212776092848,-3.9924948783998055,-0.6101620772294859,0.8749376951977567,-4.304706818602776
112,5.782772441483445,6.505008402699992,3.525959988578093,3.3545876332525104,-0.062472878584876455,-5.498368200242475,-3.768953440140705,0.5432018396959623,0.8325323748086013,5.979013902358271,2.7101717183165692,5.184778219495288,4.406801292141047,7.354806731695934
113,7.878865082207509,5.380503091282884,4.999821590316266,5.724880388818657,0.8434620884503939,-3.7147503349319617,-4.06790922004161,1.7544241753765657,0.885675152024561,4.3438358124911245,7.086071451546358,7.0123612583256145,6.632052605212527,12.67491727062276
114,2.5149654187651604,0.10414493499346963,1.2448527812043066,2.3166748218398796,0.5801789843970138,2.2123246912728995,-0.4101258516414576,1.7309525078310697,1.874718406893676,-0.6625811542726135,3.5984447208679318,2.4898298255866727,4.246148803891817,5.1179639511071295
115,-5.6707215348265505,-4.842114274926761,-4.125185545583018,-3.306080004239273,-0.4434203023705602,6.312415872687449,2.680587949446862,-0.5522403191037427,0.31540186543523774,-6.052584339839355,-3.76871856712514,-4.634205838755156,-3.282127855758141,-7.718902792349276
116,-8.639167489113065,-5.906277439736874,-5.386903140547475,-5.278984300211565,-0.5899984096279528,4.559382808191093,2.2560491552517528,-2.96522614133333,-3.881241964436172,-7.702366766717025,-6.167042338681795,-7.8785592126319886,-10.10603566236961,-12.910693841135286
117,-3.4482604045098784,-2.7785622471306346,-1.140302868717969,-1.8961419111060207,1.0822579036159325,-0.13705356742362357,0.6826617357441843,-2.212944024789604,-4.956702306727413,-2.75757068075981,-1.0532827876792032,-4.20249875676977,-8.420571613215143,-5.804851094437173
118,4.338131406982072,1.8596693996825313,4.0007843887822565,2.909021217229472,2.6925234426048554,-2.6709700323084307,0.9865000635705765,1.1620930323198047,0.23057430058268077,5.869655107469408,4.860960737088553,2.834965323991573,1.5584632895095143,5.91633101913086
119,6.704598533255925,4.226827632308497,4.448303782332042,4.015493584247319,1.0419587904666998,-2.520107696919642,1.6475717838743473,2.7639243684254735,5.730398893754505,9.842752635329482,4.3597304669103485,6.477569627768121,9.643211148026156,10.35996706037077
120,2.2205065351164426,2.7074205633162163,0.0955811655882749,0.6432816001135355,-3.3652319265439807,-2.309837168466265,-0.4485128966273383,0.6915730879578768,4.298355992493322,4.251082573554629,-1.4223345271961332,3.8905975098760206,7.432513062721694,3.974612884725174
121,-2.8257008223337694,-0.22077098273130386,-3.464311207468757,-2.8501840649337806,-5.125587042926454,-2.100029417818542,-3.9511793585477086,-1.340284799896043,-1.6338674708791412,-5.236135459142513,-5.072271621945126,-0.9976458271261486,-0.8726334110014479,-4.351415777446804
122,-2.7741436874381256,-0.9739794934256147,-2.0121801661284975,-2.291419527925304,-0.8339020332648629,0.11984385882232476,-4.276642697843689,0.1785059495726804,-3.7023939381476487,-8.415836268488663,-2.555476099222832,-2.753308899602347,-4.641138176318879,-4.409256301337987
123,0.525355940329769,0.22504418529352732,1.745676517920335,0.9682853972622638,4.801833080808627,3.185986330122855,-0.4237678102439458,2.5552978920145346,-0.38658743437268894,-3.0842968887321227,2.2406175407940094,-1.077044361408152,-1.6075628626534781,1.5926819410899022
124,1.430670758431665,0.04288884196319267,2.1748467327611642,2.1475375364586062,4.416578272836218,3.2022852368261456,3.4851888095586268,0.8281994631299109,1.744257181133915,3.3197443518902006,3.3866065970516983,0.08723597096406305,0.7915159733422578,2.8237723050919827
125,-1.0029929150337822,-2.13112267345209,-1.035107027255952,0.06943564376476954,-1.2556433631738757,-0.044793861680685165,3.998338129342139,-3.865026622239549,-0.49193632480356214,4.561729724838806,0.6463618881866869,-0.9539499666740789,-1.4112758873258868,-2.957242019422053
126,-2.2852516798093476,-2.768310118193687,-2.6285790783734795,-1.4337542251271698,-3.9127515327971265,-1.9135785379701382,2.0643808431401074,-4.963777839787137,-2.3047579276639367,2.21563238972326,-1.2728719540220468,-1.6279524706437198,-3.0548039013988353,-5.759170384334819
127,-0.04578980839968962,-0.060706791715695,-0.06434992653581881,-0.019014160129207473,0.02903138990899338,-0.009237092257986992,-0.08841037197393822,-0.12016959977347338,-0.133603334492222,-0.050142904865206346,-0.05195250889261007,-0.10253456083930029,-0.1482669675953564,-0.04175227744450742
