,AF3,F7,F3,FC5,T7,P7,O1,O2,P8,T8,FC6,F4,F8,AF4
0,4164.102539,4135.384766,4211.794922,4149.230957,4189.230957,4193.333496,4209.743652,4284.102539,4200.0,4202.05127,4201.025879,4300.512695,4212.820313,4197.436035
1,4164.102539,4143.589844,4201.538574,4152.820313,4197.436035,4189.743652,4205.641113,4284.102539,4204.615234,4208.717773,4201.538574,4293.846191,4215.384766,4200.512695
2,4168.717773,4160.512695,4201.538574,4161.538574,4200.512695,4186.153809,4207.179688,4286.153809,4211.794922,4212.307617,4198.974121,4293.333496,4214.871582,4205.128418
3,4182.563965,4181.025879,4210.769043,4177.94873,4207.179688,4192.820313,4218.461426,4292.307617,4220.0,4215.384766,4201.538574,4297.94873,4216.410156,4216.922852
4,4198.974121,4200.0,4227.179688,4197.94873,4216.922852,4196.922852,4229.743652,4297.436035,4221.538574,4217.94873,4207.692383,4305.641113,4224.102539,4228.205078
5,4211.794922,4213.846191,4242.563965,4212.820313,4217.94873,4191.794922,4231.282227,4290.256348,4217.436035,4220.0,4213.333496,4314.358887,4230.769043,4231.794922
6,4217.436035,4218.974121,4251.282227,4217.436035,4215.897461,4185.128418,4218.974121,4274.358887,4208.205078,4216.410156,4214.358887,4321.538574,4230.256348,4236.922852
7,4221.025879,4221.025879,4256.922852,4216.922852,4215.384766,4178.974121,4200.512695,4267.179688,4194.871582,4205.641113,4215.384766,4326.666504,4233.333496,4245.641113
8,4226.153809,4222.05127,4258.461426,4212.307617,4210.256348,4168.205078,4185.128418,4266.666504,4191.282227,4202.563965,4225.641113,4331.282227,4244.615234,4251.794922
9,4223.589844,4221.025879,4253.846191,4208.205078,4207.692383,4166.666504,4176.922852,4265.641113,4192.307617,4203.077148,4233.846191,4332.820313,4249.230957,4253.846191
10,4217.94873,4217.94873,4248.717773,4209.230957,4213.333496,4178.974121,4186.153809,4268.205078,4187.179688,4195.384766,4226.666504,4329.230957,4240.512695,4248.717773
11,4213.333496,4217.436035,4245.128418,4207.692383,4218.974121,4196.922852,4209.230957,4275.897461,4177.94873,4179.487305,4214.358887,4319.487305,4225.128418,4236.922852
12,4205.128418,4214.358887,4240.512695,4201.538574,4218.974121,4211.794922,4222.05127,4282.05127,4168.717773,4170.256348,4208.205078,4313.846191,4213.333496,4228.717773
13,4198.461426,4206.666504,4239.487305,4200.512695,4216.922852,4218.461426,4224.615234,4281.025879,4166.153809,4171.282227,4207.692383,4314.358887,4214.871582,4229.230957
14,4206.666504,4207.692383,4243.589844,4203.589844,4217.94873,4218.974121,4231.794922,4277.436035,4173.846191,4180.0,4212.820313,4317.94873,4226.666504,4235.384766
15,4218.974121,4216.922852,4249.230957,4204.615234,4216.922852,4216.410156,4234.358887,4281.538574,4184.102539,4193.846191,4225.641113,4327.692383,4240.512695,4246.153809
16,4220.0,4215.897461,4252.307617,4203.589844,4207.179688,4206.666504,4217.94873,4284.102539,4193.333496,4207.692383,4240.0,4338.461426,4252.307617,4257.94873
17,4219.487305,4209.230957,4250.769043,4198.461426,4195.384766,4195.897461,4201.538574,4280.512695,4211.282227,4223.589844,4253.333496,4344.102539,4265.641113,4267.179688
18,4218.974121,4206.666504,4245.128418,4191.282227,4190.769043,4189.743652,4194.358887,4272.820313,4223.077148,4237.436035,4256.922852,4342.563965,4269.230957,4264.615234
19,4206.153809,4197.94873,4232.820313,4182.563965,4183.589844,4184.102539,4184.102539,4254.358887,4216.922852,4231.794922,4241.025879,4327.692383,4253.846191,4251.794922
20,4198.461426,4194.358887,4226.666504,4180.512695,4179.487305,4182.563965,4176.410156,4246.666504,4214.358887,4221.025879,4230.769043,4317.436035,4244.615234,4242.563965
21,4207.692383,4204.615234,4230.256348,4189.743652,4188.205078,4180.512695,4174.871582,4250.769043,4216.410156,4220.512695,4232.307617,4317.94873,4246.153809,4238.974121
22,4211.794922,4210.769043,4229.230957,4196.922852,4195.897461,4173.846191,4170.256348,4244.102539,4206.153809,4216.922852,4226.153809,4312.307617,4238.974121,4230.769043
23,4216.922852,4221.538574,4232.820313,4208.717773,4203.077148,4177.94873,4172.820313,4237.94873,4197.94873,4211.282227,4223.077148,4308.205078,4235.384766,4229.230957
24,4227.692383,4244.102539,4243.077148,4225.641113,4216.922852,4188.205078,4181.538574,4240.0,4195.384766,4206.666504,4225.641113,4313.333496,4237.436035,4237.94873
25,4222.563965,4250.256348,4236.922852,4226.666504,4221.025879,4186.666504,4173.846191,4225.641113,4174.871582,4186.666504,4214.358887,4304.102539,4224.102539,4232.307617
26,4212.307617,4243.077148,4221.025879,4217.94873,4218.461426,4183.589844,4163.589844,4209.743652,4151.282227,4165.641113,4197.436035,4284.102539,4210.769043,4218.461426
27,4214.358887,4244.615234,4219.487305,4218.461426,4224.102539,4189.743652,4168.717773,4218.461426,4149.230957,4161.538574,4196.410156,4282.05127,4210.256348,4218.974121
28,4214.358887,4247.692383,4221.538574,4220.0,4226.153809,4190.256348,4173.846191,4221.538574,4148.717773,4153.333496,4196.922852,4284.615234,4203.077148,4225.641113
29,4215.897461,4243.589844,4225.128418,4216.410156,4218.974121,4191.282227,4177.436035,4216.922852,4141.538574,4143.077148,4193.333496,4283.077148,4198.461426,4227.692383
30,4231.794922,4245.641113,4238.974121,4218.461426,4218.461426,4200.512695,4191.282227,4231.282227,4155.897461,4158.974121,4203.589844,4294.871582,4213.846191,4237.94873
31,4244.102539,4246.666504,4255.897461,4223.077148,4213.333496,4202.05127,4201.538574,4257.436035,4193.333496,4193.333496,4230.769043,4314.871582,4236.410156,4257.94873
32,4257.94873,4247.692383,4272.307617,4228.717773,4205.128418,4201.025879,4208.717773,4281.538574,4231.282227,4231.282227,4265.128418,4333.846191,4263.589844,4279.487305
33,4272.820313,4251.282227,4286.666504,4231.794922,4202.05127,4203.589844,4222.563965,4304.615234,4259.487305,4264.102539,4289.743652,4350.256348,4288.205078,4299.487305
34,4271.282227,4247.179688,4289.743652,4225.641113,4195.897461,4200.0,4231.282227,4317.436035,4277.94873,4280.512695,4302.563965,4355.384766,4298.461426,4308.717773
35,4271.794922,4248.717773,4295.897461,4227.692383,4190.769043,4197.94873,4236.410156,4328.205078,4296.410156,4293.333496,4317.94873,4363.589844,4310.769043,4315.897461
36,4288.717773,4263.077148,4313.333496,4242.05127,4197.94873,4203.077148,4246.153809,4345.641113,4312.820313,4312.820313,4332.307617,4382.563965,4327.179688,4328.717773
37,4295.897461,4267.692383,4321.538574,4247.692383,4207.179688,4201.538574,4252.820313,4350.769043,4311.282227,4316.922852,4333.846191,4389.743652,4328.717773,4326.153809
38,4287.692383,4265.641113,4315.384766,4246.666504,4211.794922,4202.563965,4257.436035,4334.358887,4297.436035,4302.05127,4328.717773,4382.05127,4320.0,4314.871582
39,4283.589844,4273.333496,4308.717773,4249.743652,4220.0,4213.846191,4264.615234,4321.538574,4283.589844,4285.641113,4319.487305,4375.897461,4308.205078,4309.743652
40,4282.563965,4281.025879,4306.153809,4252.307617,4232.307617,4224.102539,4267.692383,4320.512695,4267.179688,4273.333496,4304.102539,4367.179688,4292.307617,4301.025879
41,4285.641113,4286.153809,4309.743652,4260.512695,4246.153809,4234.358887,4268.205078,4317.94873,4254.358887,4265.128418,4296.922852,4360.0,4283.077148,4293.846191
42,4284.615234,4289.230957,4308.717773,4267.179688,4254.358887,4238.461426,4263.077148,4305.641113,4238.461426,4250.256348,4289.743652,4355.897461,4277.94873,4286.153809
43,4260.0,4277.94873,4290.256348,4252.820313,4247.179688,4225.641113,4237.436035,4280.0,4209.743652,4218.461426,4258.974121,4333.846191,4253.846191,4259.487305
44,4234.358887,4258.974121,4266.153809,4229.743652,4233.333496,4212.307617,4210.256348,4254.358887,4182.563965,4188.205078,4225.128418,4301.025879,4225.128418,4227.692383
45,4224.102539,4245.641113,4251.282227,4214.871582,4224.615234,4209.743652,4199.487305,4241.025879,4171.794922,4172.820313,4209.743652,4281.538574,4211.282227,4213.333496
46,4209.230957,4228.205078,4231.794922,4197.436035,4216.410156,4204.615234,4190.256348,4234.358887,4160.0,4153.846191,4193.333496,4270.256348,4197.436035,4198.974121
47,4188.717773,4208.205078,4212.307617,4177.436035,4203.589844,4197.94873,4181.025879,4223.077148,4142.05127,4132.307617,4168.717773,4253.333496,4173.846191,4176.410156
48,4182.05127,4198.461426,4211.794922,4169.743652,4197.94873,4200.0,4183.077148,4221.025879,4136.922852,4126.153809,4157.94873,4244.615234,4162.563965,4165.641113
49,4184.615234,4198.461426,4218.461426,4169.743652,4200.512695,4202.563965,4190.769043,4232.820313,4147.179688,4131.794922,4162.05127,4249.743652,4162.05127,4170.256348
50,4186.666504,4205.128418,4216.922852,4172.307617,4196.410156,4200.0,4196.410156,4245.128418,4160.512695,4140.512695,4169.230957,4258.974121,4162.563965,4178.461426
51,4198.974121,4214.871582,4222.05127,4181.025879,4194.871582,4201.025879,4211.282227,4261.538574,4183.077148,4164.615234,4189.230957,4270.769043,4182.563965,4190.769043
52,4219.487305,4230.256348,4244.615234,4197.94873,4205.641113,4209.230957,4231.282227,4288.205078,4214.358887,4203.077148,4222.05127,4289.743652,4217.436035,4213.333496
53,4230.769043,4244.102539,4256.410156,4210.256348,4213.846191,4211.794922,4241.025879,4306.153809,4232.307617,4229.743652,4245.641113,4303.077148,4238.461426,4231.282227
54,4234.871582,4249.230957,4255.384766,4216.410156,4220.0,4216.410156,4247.692383,4310.256348,4242.05127,4237.94873,4257.94873,4307.692383,4246.666504,4235.897461
55,4241.538574,4252.307617,4259.487305,4225.128418,4227.179688,4226.666504,4250.256348,4310.769043,4250.769043,4242.05127,4263.589844,4309.743652,4252.820313,4237.94873
56,4241.025879,4253.333496,4261.538574,4224.615234,4222.563965,4225.641113,4236.410156,4302.563965,4240.512695,4237.94873,4254.358887,4307.179688,4244.615234,4233.333496
57,4228.717773,4249.230957,4248.717773,4216.410156,4214.871582,4215.897461,4216.922852,4284.615234,4217.94873,4221.538574,4240.0,4296.922852,4228.205078,4217.94873
58,4218.974121,4243.077148,4236.922852,4211.794922,4213.333496,4213.333496,4208.717773,4265.128418,4201.025879,4204.615234,4231.282227,4286.666504,4216.410156,4206.666504
59,4214.358887,4237.94873,4233.333496,4206.153809,4210.256348,4212.307617,4198.461426,4242.563965,4180.512695,4188.717773,4222.05127,4282.05127,4206.153809,4202.563965
60,4211.282227,4233.846191,4228.717773,4196.922852,4209.743652,4211.794922,4185.128418,4223.077148,4158.974121,4174.358887,4210.769043,4277.436035,4200.512695,4198.461426
61,4210.256348,4233.846191,4224.615234,4197.436035,4215.897461,4215.384766,4182.563965,4216.922852,4147.692383,4164.102539,4208.205078,4270.256348,4201.538574,4194.871582
62,4206.666504,4234.358887,4223.589844,4204.102539,4216.922852,4214.358887,4183.077148,4215.897461,4140.0,4155.384766,4209.743652,4267.179688,4203.077148,4198.461426
63,4205.128418,4231.794922,4225.641113,4198.461426,4217.436035,4215.897461,4183.589844,4218.461426,4136.410156,4151.282227,4207.179688,4273.846191,4200.512695,4198.974121
64,4201.538574,4225.128418,4224.102539,4188.205078,4218.461426,4220.512695,4190.769043,4228.717773,4135.384766,4144.615234,4202.05127,4272.820313,4190.256348,4188.717773
65,4187.179688,4211.794922,4217.436035,4182.05127,4214.358887,4220.512695,4198.974121,4237.94873,4133.846191,4135.384766,4196.922852,4259.487305,4175.897461,4175.897461
66,4182.563965,4208.205078,4219.487305,4182.563965,4214.871582,4224.615234,4207.179688,4250.256348,4148.717773,4146.153809,4199.487305,4260.512695,4174.358887,4178.461426
67,4194.358887,4214.358887,4226.666504,4185.128418,4217.436035,4233.333496,4218.974121,4270.256348,4178.974121,4172.307617,4208.205078,4277.94873,4185.128418,4191.794922
68,4199.487305,4217.436035,4225.128418,4186.153809,4215.897461,4233.846191,4227.179688,4283.589844,4201.025879,4189.230957,4214.871582,4283.077148,4192.820313,4196.410156
69,4204.615234,4224.102539,4228.717773,4192.820313,4213.333496,4231.794922,4232.307617,4294.871582,4217.94873,4208.717773,4230.256348,4287.179688,4205.641113,4208.205078
70,4228.205078,4235.897461,4250.256348,4206.153809,4215.384766,4235.897461,4240.512695,4307.692383,4243.589844,4238.461426,4258.974121,4308.717773,4235.897461,4240.0
71,4238.974121,4238.461426,4263.077148,4211.794922,4213.846191,4232.307617,4237.94873,4306.153809,4251.794922,4248.717773,4276.922852,4321.025879,4257.94873,4256.922852
72,4226.153809,4232.307617,4251.282227,4205.128418,4206.153809,4220.512695,4218.974121,4284.102539,4227.179688,4231.282227,4266.153809,4306.153809,4245.128418,4243.077148
73,4213.846191,4231.282227,4236.922852,4200.512695,4202.563965,4215.897461,4203.589844,4255.384766,4197.436035,4205.641113,4245.641113,4288.717773,4222.563965,4225.128418
74,4207.692383,4231.282227,4231.794922,4202.05127,4207.179688,4218.461426,4199.487305,4233.846191,4182.05127,4192.307617,4233.846191,4280.0,4213.846191,4217.94873
75,4203.589844,4231.794922,4230.256348,4202.563965,4212.820313,4224.615234,4199.487305,4224.102539,4174.358887,4187.692383,4226.666504,4273.333496,4205.641113,4211.282227
76,4198.461426,4230.769043,4223.077148,4198.974121,4214.871582,4229.230957,4198.974121,4221.025879,4162.05127,4176.410156,4215.384766,4264.615234,4191.282227,4200.512695
77,4188.205078,4224.102539,4217.94873,4193.333496,4214.358887,4232.307617,4203.077148,4220.0,4149.230957,4162.05127,4202.563965,4256.922852,4176.922852,4188.717773
78,4180.0,4215.897461,4214.358887,4185.128418,4214.358887,4233.333496,4203.589844,4223.077148,4147.692383,4154.358887,4193.846191,4248.717773,4168.205078,4182.563965
79,4181.025879,4213.333496,4211.282227,4182.563965,4214.358887,4233.846191,4200.512695,4233.846191,4150.769043,4151.282227,4191.282227,4242.563965,4167.179688,4182.05127
80,4183.077148,4220.512695,4215.384766,4190.769043,4214.871582,4235.384766,4206.153809,4249.743652,4152.307617,4152.820313,4194.871582,4246.153809,4170.256348,4182.05127
81,4184.615234,4228.205078,4224.615234,4200.512695,4223.077148,4235.897461,4212.820313,4260.512695,4157.94873,4158.461426,4198.974121,4251.282227,4171.282227,4186.666504
82,4192.307617,4233.333496,4229.743652,4206.666504,4228.205078,4235.384766,4210.256348,4263.589844,4171.282227,4164.102539,4202.05127,4253.846191,4176.410156,4194.358887
83,4206.666504,4241.538574,4240.0,4212.820313,4222.563965,4227.179688,4207.692383,4268.717773,4187.179688,4177.436035,4214.358887,4262.563965,4191.282227,4208.717773
84,4223.077148,4249.743652,4257.94873,4217.436035,4217.436035,4221.538574,4211.794922,4275.384766,4202.563965,4197.94873,4232.820313,4279.487305,4203.589844,4225.128418
85,4232.820313,4256.922852,4266.153809,4223.077148,4221.025879,4227.179688,4222.05127,4281.538574,4219.487305,4216.410156,4250.256348,4294.358887,4217.436035,4237.94873
86,4238.461426,4265.641113,4268.205078,4231.282227,4224.102539,4236.922852,4242.05127,4296.922852,4242.05127,4238.974121,4269.230957,4307.692383,4241.538574,4252.820313
87,4245.641113,4269.743652,4273.846191,4231.282227,4222.05127,4239.487305,4259.487305,4308.717773,4261.538574,4261.538574,4289.743652,4316.922852,4262.05127,4266.666504
88,4250.769043,4264.102539,4275.897461,4229.230957,4212.820313,4243.077148,4269.230957,4307.692383,4269.230957,4272.307617,4303.077148,4323.077148,4268.205078,4272.820313
89,4250.769043,4258.461426,4275.897461,4232.820313,4203.589844,4249.230957,4277.436035,4306.153809,4267.179688,4272.307617,4305.641113,4324.102539,4269.743652,4272.820313
90,4244.615234,4252.307617,4278.461426,4228.205078,4206.666504,4251.282227,4278.974121,4305.641113,4260.512695,4266.153809,4300.0,4318.974121,4267.179688,4268.205078
91,4231.282227,4240.0,4267.692383,4214.358887,4211.282227,4247.179688,4265.641113,4294.358887,4246.153809,4251.282227,4288.205078,4310.769043,4250.769043,4253.333496
92,4207.179688,4223.077148,4243.077148,4197.94873,4205.128418,4237.94873,4240.512695,4270.256348,4214.871582,4226.153809,4265.641113,4294.358887,4224.102539,4228.717773
93,4184.102539,4210.769043,4221.538574,4186.153809,4201.025879,4227.179688,4213.333496,4242.05127,4177.94873,4194.358887,4234.871582,4266.153809,4195.897461,4200.512695
94,4171.794922,4209.230957,4208.717773,4180.0,4202.05127,4219.487305,4194.871582,4224.615234,4157.94873,4169.230957,4211.282227,4245.128418,4172.820313,4175.384766
95,4163.077148,4209.230957,4199.487305,4173.333496,4201.538574,4215.897461,4184.102539,4216.922852,4149.230957,4155.384766,4196.410156,4233.846191,4158.461426,4160.0
96,4157.436035,4211.794922,4197.94873,4173.333496,4202.563965,4219.487305,4182.05127,4211.794922,4137.436035,4142.05127,4182.05127,4220.0,4149.230957,4153.846191
97,4154.871582,4215.384766,4197.436035,4180.512695,4202.563965,4220.0,4189.743652,4212.307617,4131.282227,4127.179688,4166.666504,4207.692383,4138.461426,4148.205078
98,4153.333496,4214.358887,4194.358887,4182.563965,4201.025879,4216.410156,4199.487305,4220.0,4137.94873,4123.589844,4159.487305,4205.128418,4130.256348,4140.512695
99,4155.384766,4216.922852,4201.538574,4186.666504,4211.282227,4223.077148,4211.794922,4231.282227,4154.871582,4141.025879,4175.384766,4213.846191,4138.974121,4144.615234
100,4158.974121,4218.974121,4215.384766,4196.410156,4216.922852,4232.307617,4221.538574,4242.563965,4174.871582,4166.666504,4197.94873,4225.641113,4157.436035,4155.384766
101,4158.974121,4212.307617,4223.589844,4194.871582,4204.615234,4227.692383,4218.974121,4251.282227,4191.282227,4188.205078,4210.769043,4235.384766,4173.333496,4166.666504
102,4169.230957,4210.769043,4230.256348,4196.410156,4198.974121,4224.102539,4220.512695,4263.077148,4215.384766,4212.820313,4231.794922,4255.384766,4195.897461,4186.666504
103,4189.230957,4218.974121,4244.615234,4213.333496,4203.589844,4230.256348,4230.256348,4282.563965,4247.179688,4242.05127,4264.102539,4276.922852,4223.589844,4210.769043
104,4202.05127,4221.538574,4254.358887,4219.487305,4202.05127,4230.256348,4229.743652,4291.794922,4264.615234,4260.512695,4283.077148,4281.025879,4237.94873,4226.153809
105,4208.205078,4217.94873,4256.410156,4216.922852,4196.410156,4228.717773,4225.641113,4290.256348,4263.589844,4265.641113,4284.615234,4284.102539,4240.512695,4236.410156
106,4211.794922,4211.282227,4256.922852,4220.512695,4192.307617,4230.769043,4228.205078,4287.692383,4257.94873,4262.563965,4286.153809,4292.307617,4237.436035,4240.512695
107,4204.615234,4193.333496,4255.897461,4214.358887,4186.666504,4224.102539,4220.512695,4279.487305,4249.743652,4251.282227,4280.512695,4288.205078,4226.153809,4234.871582
108,4194.358887,4174.358887,4249.743652,4201.538574,4185.641113,4221.538574,4205.128418,4270.256348,4240.0,4241.538574,4271.282227,4276.922852,4213.846191,4229.743652
109,4187.692383,4169.743652,4237.94873,4196.410156,4191.282227,4230.256348,4200.0,4264.102539,4229.743652,4231.794922,4265.128418,4273.333496,4206.153809,4221.538574
110,4174.358887,4167.692383,4225.128418,4192.307617,4197.94873,4236.922852,4207.179688,4252.820313,4216.410156,4218.974121,4257.94873,4264.102539,4197.436035,4209.743652
111,4154.358887,4158.461426,4216.410156,4185.641113,4199.487305,4236.922852,4218.461426,4242.05127,4204.615234,4205.641113,4247.692383,4245.128418,4185.641113,4200.0
112,4134.358887,4145.128418,4203.589844,4175.897461,4191.282227,4236.922852,4217.94873,4235.384766,4190.256348,4188.717773,4228.205078,4221.538574,4167.179688,4180.512695
113,4114.358887,4134.871582,4185.641113,4160.512695,4185.641113,4235.384766,4203.589844,4225.641113,4173.846191,4168.717773,4205.641113,4197.94873,4144.102539,4156.922852
114,4103.077148,4130.769043,4168.717773,4151.794922,4181.538574,4228.205078,4189.230957,4211.794922,4163.589844,4149.743652,4190.769043,4181.025879,4127.179688,4142.563965
115,4103.077148,4132.307617,4162.05127,4154.358887,4173.846191,4220.512695,4180.512695,4199.487305,4157.436035,4139.487305,4183.589844,4173.333496,4121.538574,4137.436035
116,4102.563965,4131.794922,4167.692383,4150.256348,4167.692383,4210.769043,4168.205078,4191.282227,4152.820313,4143.589844,4183.077148,4173.846191,4125.128418,4140.512695
117,4107.692383,4136.922852,4174.358887,4149.743652,4166.153809,4202.05127,4153.333496,4188.205078,4157.436035,4151.282227,4195.384766,4181.538574,4136.410156,4153.333496
118,4127.692383,4157.94873,4180.0,4164.102539,4165.641113,4197.94873,4148.717773,4190.256348,4172.307617,4164.102539,4218.974121,4195.897461,4157.436035,4175.897461
119,4143.589844,4173.333496,4187.692383,4174.358887,4164.102539,4196.410156,4150.769043,4196.922852,4185.641113,4186.153809,4237.94873,4208.205078,4182.563965,4195.384766
120,4147.179688,4171.794922,4192.307617,4170.769043,4162.563965,4192.820313,4149.230957,4204.102539,4195.897461,4202.05127,4248.205078,4211.282227,4196.922852,4203.077148
121,4153.333496,4174.871582,4192.820313,4174.358887,4162.05127,4192.820313,4151.794922,4212.820313,4210.256348,4210.769043,4260.0,4214.358887,4203.589844,4209.230957
122,4172.820313,4192.820313,4205.641113,4191.794922,4172.307617,4208.717773,4172.307617,4233.846191,4237.94873,4233.333496,4280.512695,4232.307617,4214.871582,4227.692383
123,4189.743652,4205.128418,4228.717773,4204.615234,4184.615234,4227.692383,4197.94873,4260.512695,4265.641113,4261.025879,4297.94873,4246.666504,4229.743652,4240.0
124,4193.846191,4205.641113,4241.025879,4209.743652,4185.641113,4236.410156,4206.153809,4274.871582,4273.846191,4270.256348,4303.077148,4245.641113,4235.384766,4239.487305
125,4187.692383,4200.0,4235.897461,4210.769043,4184.615234,4234.871582,4202.05127,4269.230957,4268.205078,4261.538574,4296.922852,4240.0,4226.153809,4235.384766
126,4177.436035,4192.307617,4226.153809,4205.641113,4185.641113,4229.230957,4202.05127,4258.974121,4256.410156,4247.179688,4285.641113,4235.897461,4211.282227,4225.128418
127,4167.692383,4184.615234,4217.436035,4197.436035,4184.102539,4229.743652,4201.538574,4252.307617,4243.077148,4233.333496,4276.922852,4223.589844,4201.025879,4208.717773
