,AF3,F7,F3,FC5,T7,P7,O1,O2,P8,T8,FC6,F4,F8,AF4
0,4202.563965,4188.717773,4197.94873,4202.563965,4253.846191,4215.384766,4217.94873,4234.871582,4216.410156,4209.230957,4201.538574,4198.461426,4206.153809,4216.410156
1,4209.743652,4196.922852,4203.077148,4208.717773,4257.94873,4205.128418,4212.820313,4232.820313,4212.820313,4217.436035,4201.025879,4203.589844,4216.410156,4220.512695
2,4205.641113,4198.974121,4202.05127,4212.820313,4257.436035,4198.974121,4210.769043,4224.102539,4205.128418,4210.256348,4203.077148,4210.256348,4215.384766,4217.436035
3,4206.666504,4197.94873,4203.077148,4210.769043,4256.922852,4206.153809,4214.871582,4225.128418,4197.94873,4198.461426,4205.128418,4207.692383,4210.256348,4216.922852
4,4216.922852,4199.487305,4213.333496,4211.794922,4257.94873,4214.358887,4218.461426,4235.384766,4198.461426,4198.974121,4205.128418,4203.589844,4213.333496,4220.512695
5,4217.94873,4198.974121,4218.461426,4214.871582,4257.436035,4212.820313,4224.615234,4235.897461,4198.974121,4200.0,4202.05127,4207.692383,4213.846191,4216.410156
6,4215.897461,4200.0,4216.922852,4215.897461,4260.0,4214.358887,4233.846191,4234.358887,4198.461426,4197.436035,4201.025879,4215.897461,4212.307617,4213.846191
7,4221.538574,4205.128418,4219.487305,4217.436035,4263.077148,4220.0,4235.384766,4236.922852,4200.512695,4201.025879,4202.563965,4217.436035,4218.461426,4220.0
8,4216.410156,4199.487305,4213.846191,4215.384766,4261.538574,4219.487305,4228.205078,4234.358887,4197.436035,4202.05127,4198.974121,4201.538574,4214.871582,4215.384766
9,4204.615234,4187.692383,4201.538574,4213.846191,4258.461426,4223.589844,4226.666504,4233.333496,4205.128418,4204.102539,4197.436035,4193.846191,4204.102539,4201.025879
10,4203.077148,4184.102539,4198.974121,4213.333496,4253.333496,4228.717773,4227.692383,4237.94873,4224.615234,4212.307617,4200.512695,4200.0,4205.641113,4198.974121
11,4201.538574,4186.666504,4200.512695,4206.666504,4248.205078,4224.102539,4224.615234,4242.05127,4229.743652,4217.436035,4198.974121,4193.333496,4212.307617,4201.025879
12,4199.487305,4186.153809,4200.0,4205.641113,4247.179688,4215.897461,4222.563965,4242.05127,4221.538574,4218.461426,4203.077148,4188.205078,4214.358887,4198.974121
13,4205.128418,4185.128418,4203.077148,4212.820313,4252.307617,4205.128418,4217.436035,4235.897461,4215.384766,4218.461426,4214.358887,4202.05127,4215.384766,4206.666504
14,4215.897461,4196.922852,4216.410156,4217.436035,4258.461426,4198.461426,4217.436035,4230.769043,4207.179688,4217.436035,4217.436035,4218.461426,4227.179688,4222.563965
15,4222.05127,4213.333496,4229.743652,4217.436035,4262.05127,4208.205078,4229.743652,4237.94873,4197.94873,4220.512695,4218.461426,4225.641113,4245.641113,4231.794922
16,4220.0,4215.384766,4232.820313,4218.974121,4263.077148,4220.0,4240.0,4244.102539,4196.410156,4221.538574,4221.025879,4225.641113,4250.769043,4234.871582
17,4218.974121,4208.205078,4229.743652,4218.974121,4262.563965,4217.94873,4236.410156,4241.538574,4196.922852,4211.794922,4209.230957,4217.436035,4236.922852,4233.846191
18,4223.077148,4204.615234,4229.743652,4217.436035,4262.05127,4215.897461,4233.846191,4241.538574,4198.461426,4206.666504,4197.436035,4214.358887,4228.717773,4231.282227
19,4223.077148,4203.589844,4232.307617,4216.410156,4263.077148,4218.974121,4234.871582,4238.461426,4200.0,4205.128418,4202.05127,4215.897461,4232.820313,4231.282227
20,4217.94873,4202.05127,4227.692383,4215.384766,4262.563965,4219.487305,4233.846191,4230.769043,4206.153809,4203.077148,4204.615234,4209.743652,4233.846191,4222.563965
21,4211.794922,4200.512695,4217.94873,4214.871582,4257.436035,4218.461426,4232.307617,4232.307617,4215.384766,4207.692383,4198.974121,4201.538574,4229.743652,4209.230957
22,4207.179688,4201.025879,4215.897461,4214.358887,4254.358887,4218.974121,4231.794922,4237.436035,4220.0,4217.436035,4200.0,4199.487305,4231.794922,4211.282227
23,4207.692383,4204.102539,4217.94873,4214.871582,4257.436035,4225.128418,4232.307617,4239.487305,4226.666504,4225.641113,4208.205078,4198.974121,4235.897461,4217.436035
24,4210.769043,4206.666504,4217.94873,4213.846191,4260.512695,4231.794922,4233.846191,4240.512695,4232.307617,4229.230957,4213.846191,4195.384766,4234.358887,4216.410156
25,4213.333496,4210.769043,4221.538574,4216.410156,4261.025879,4232.307617,4231.794922,4242.563965,4224.615234,4231.282227,4216.410156,4192.820313,4238.461426,4223.589844
26,4217.436035,4216.410156,4232.307617,4224.102539,4263.589844,4228.717773,4229.230957,4241.025879,4216.410156,4228.205078,4214.358887,4195.384766,4245.641113,4230.256348
27,4220.512695,4217.436035,4240.512695,4224.615234,4264.615234,4222.563965,4230.769043,4236.922852,4213.846191,4223.589844,4212.820313,4198.974121,4245.641113,4221.538574
28,4219.487305,4218.461426,4245.641113,4218.974121,4263.589844,4217.436035,4233.333496,4236.410156,4208.717773,4222.563965,4214.871582,4202.05127,4246.153809,4222.05127
29,4218.461426,4220.0,4245.128418,4218.461426,4262.05127,4218.974121,4233.846191,4239.487305,4204.102539,4223.589844,4213.333496,4203.589844,4248.717773,4233.846191
30,4218.461426,4215.897461,4235.384766,4218.461426,4261.025879,4223.077148,4231.794922,4237.436035,4201.538574,4213.333496,4201.538574,4200.0,4240.0,4228.205078
31,4216.410156,4210.769043,4229.230957,4215.897461,4260.0,4228.205078,4231.794922,4235.384766,4204.102539,4199.487305,4190.256348,4192.307617,4229.230957,4212.820313
32,4211.282227,4209.230957,4231.282227,4216.410156,4253.846191,4233.333496,4233.333496,4240.0,4217.436035,4199.487305,4185.641113,4186.153809,4226.666504,4202.563965
33,4206.666504,4209.230957,4229.743652,4217.436035,4247.692383,4231.282227,4231.282227,4241.538574,4220.512695,4200.0,4184.615234,4182.563965,4223.077148,4201.025879
34,4211.282227,4211.794922,4229.743652,4216.922852,4252.820313,4229.230957,4230.256348,4236.410156,4212.820313,4200.0,4187.692383,4182.563965,4222.05127,4208.205078
35,4216.922852,4215.384766,4240.0,4220.0,4262.05127,4233.333496,4235.384766,4237.436035,4213.846191,4207.692383,4197.94873,4188.717773,4230.256348,4215.384766
36,4219.487305,4223.589844,4250.256348,4226.666504,4262.563965,4230.769043,4244.102539,4241.538574,4216.922852,4218.461426,4207.692383,4199.487305,4242.05127,4221.025879
37,4224.102539,4232.820313,4252.307617,4228.717773,4261.025879,4217.436035,4244.102539,4244.615234,4213.846191,4229.230957,4218.974121,4205.641113,4250.769043,4230.256348
38,4222.05127,4228.205078,4251.282227,4223.077148,4258.974121,4211.282227,4236.922852,4247.179688,4214.358887,4233.846191,4226.153809,4202.563965,4251.794922,4234.358887
39,4215.384766,4218.461426,4249.743652,4216.922852,4252.307617,4216.922852,4235.897461,4248.205078,4219.487305,4231.282227,4224.102539,4201.538574,4249.230957,4234.358887
40,4213.333496,4218.974121,4247.692383,4215.897461,4246.666504,4220.512695,4236.922852,4249.230957,4220.512695,4228.205078,4220.0,4204.102539,4252.307617,4229.743652
41,4212.307617,4220.512695,4243.077148,4215.384766,4248.205078,4218.974121,4232.307617,4249.230957,4219.487305,4225.641113,4215.384766,4203.589844,4250.256348,4220.512695
42,4204.615234,4213.846191,4235.384766,4211.794922,4248.205078,4217.436035,4229.743652,4242.563965,4212.307617,4216.410156,4205.128418,4198.974121,4237.436035,4217.94873
43,4199.487305,4209.743652,4228.717773,4210.256348,4243.077148,4218.974121,4229.743652,4235.384766,4202.563965,4205.128418,4196.410156,4196.922852,4228.717773,4212.307617
44,4207.179688,4215.384766,4232.820313,4213.333496,4240.0,4215.384766,4222.563965,4237.436035,4195.384766,4201.538574,4198.461426,4200.512695,4232.307617,4209.230957
45,4216.922852,4220.0,4244.102539,4213.333496,4241.538574,4203.589844,4214.871582,4240.512695,4188.205078,4201.025879,4203.077148,4201.538574,4235.897461,4221.538574
46,4217.436035,4217.436035,4244.615234,4210.769043,4242.563965,4197.436035,4212.307617,4242.05127,4186.153809,4200.512695,4199.487305,4193.333496,4231.794922,4225.128418
47,4212.820313,4214.871582,4234.358887,4212.307617,4244.102539,4202.563965,4212.307617,4246.666504,4194.871582,4200.512695,4195.897461,4186.153809,4229.230957,4212.307617
48,4208.205078,4213.846191,4232.307617,4213.846191,4243.077148,4205.128418,4216.922852,4251.282227,4204.615234,4203.589844,4198.461426,4187.692383,4230.769043,4208.717773
49,4204.102539,4213.333496,4231.794922,4207.179688,4238.461426,4201.538574,4219.487305,4251.282227,4206.153809,4205.641113,4201.025879,4184.102539,4229.743652,4208.205078
50,4199.487305,4212.820313,4220.0,4202.05127,4232.820313,4201.025879,4212.820313,4248.717773,4198.461426,4202.563965,4197.94873,4176.922852,4226.153809,4201.538574
51,4198.974121,4211.282227,4210.769043,4202.563965,4233.333496,4201.538574,4206.153809,4244.102539,4188.717773,4198.461426,4195.384766,4179.487305,4226.153809,4197.94873
52,4196.922852,4209.743652,4210.769043,4202.05127,4236.922852,4202.05127,4204.102539,4244.102539,4188.717773,4198.461426,4199.487305,4182.05127,4229.230957,4197.94873
53,4198.974121,4213.333496,4211.282227,4205.128418,4243.077148,4206.153809,4205.641113,4246.666504,4198.974121,4209.743652,4207.692383,4182.563965,4231.794922,4204.615234
54,4207.179688,4219.487305,4214.358887,4214.358887,4247.692383,4214.871582,4211.282227,4247.692383,4203.589844,4216.410156,4213.846191,4188.717773,4235.384766,4212.820313
55,4208.205078,4220.0,4217.436035,4216.922852,4248.717773,4216.922852,4215.897461,4246.666504,4196.922852,4207.692383,4213.333496,4190.769043,4236.410156,4210.769043
56,4202.563965,4218.974121,4214.358887,4214.358887,4249.743652,4208.205078,4213.333496,4242.05127,4189.743652,4200.0,4206.666504,4186.666504,4232.820313,4206.666504
57,4201.025879,4218.974121,4209.230957,4214.358887,4248.717773,4202.05127,4212.307617,4237.436035,4191.282227,4198.974121,4200.0,4183.589844,4227.692383,4202.563965
58,4200.512695,4219.487305,4208.717773,4214.871582,4246.153809,4203.077148,4215.897461,4240.0,4200.512695,4202.05127,4200.0,4185.128418,4228.717773,4204.102539
59,4201.538574,4219.487305,4211.282227,4213.333496,4245.128418,4203.589844,4216.410156,4250.256348,4209.743652,4208.717773,4208.205078,4191.794922,4231.794922,4212.307617
60,4212.307617,4223.589844,4219.487305,4213.846191,4245.641113,4201.025879,4222.05127,4255.897461,4211.282227,4216.410156,4216.922852,4203.589844,4235.897461,4220.512695
61,4218.974121,4223.589844,4229.743652,4215.384766,4245.641113,4204.615234,4232.307617,4258.461426,4205.641113,4216.410156,4218.974121,4212.307617,4240.512695,4222.563965
62,4214.358887,4220.0,4229.743652,4215.384766,4243.077148,4212.307617,4233.846191,4257.94873,4201.025879,4209.743652,4214.358887,4206.666504,4238.461426,4222.05127
63,4216.922852,4225.128418,4222.05127,4216.410156,4245.128418,4216.410156,4233.333496,4257.436035,4203.077148,4206.666504,4214.358887,4204.102539,4233.846191,4225.128418
64,4216.410156,4228.717773,4216.922852,4215.897461,4244.615234,4210.256348,4234.358887,4257.94873,4201.538574,4207.179688,4215.384766,4212.307617,4235.897461,4225.641113
65,4204.102539,4220.0,4214.871582,4210.769043,4238.461426,4201.538574,4227.692383,4252.820313,4195.384766,4203.077148,4207.179688,4205.128418,4231.282227,4213.846191
66,4198.461426,4214.358887,4208.717773,4209.743652,4235.897461,4200.0,4218.461426,4250.256348,4195.897461,4198.461426,4199.487305,4183.589844,4218.974121,4201.025879
67,4200.512695,4217.436035,4203.589844,4210.256348,4236.922852,4198.974121,4217.436035,4252.307617,4198.461426,4200.512695,4202.05127,4179.487305,4221.025879,4201.538574
68,4197.436035,4215.384766,4198.461426,4204.102539,4232.820313,4195.384766,4222.563965,4249.743652,4196.922852,4201.025879,4204.615234,4181.538574,4225.641113,4206.666504
69,4195.384766,4211.794922,4197.436035,4200.512695,4229.743652,4196.922852,4223.589844,4247.692383,4190.256348,4197.436035,4202.05127,4175.384766,4217.94873,4204.615234
70,4200.0,4213.333496,4201.538574,4205.128418,4234.871582,4202.05127,4224.102539,4248.717773,4186.153809,4198.974121,4200.512695,4177.94873,4218.974121,4200.512695
71,4198.974121,4214.358887,4201.538574,4205.128418,4234.871582,4202.563965,4229.230957,4248.205078,4190.769043,4198.461426,4203.589844,4185.128418,4229.743652,4203.589844
72,4197.94873,4216.922852,4200.512695,4205.641113,4233.333496,4204.615234,4234.871582,4251.282227,4197.94873,4200.0,4210.769043,4185.641113,4232.307617,4215.384766
73,4206.153809,4218.974121,4208.205078,4212.820313,4238.974121,4205.641113,4234.871582,4260.512695,4204.102539,4208.717773,4216.922852,4187.179688,4232.307617,4218.974121
74,4215.384766,4223.077148,4216.922852,4215.897461,4243.077148,4204.102539,4234.871582,4262.05127,4214.871582,4217.436035,4217.436035,4191.282227,4240.512695,4217.94873
75,4213.846191,4227.179688,4213.846191,4216.922852,4246.666504,4207.179688,4236.410156,4262.563965,4222.563965,4218.461426,4218.461426,4192.307617,4248.205078,4217.436035
76,4203.589844,4222.563965,4203.077148,4214.358887,4244.615234,4207.692383,4233.333496,4266.153809,4215.897461,4215.384766,4217.94873,4186.153809,4242.563965,4208.205078
77,4198.974121,4214.358887,4198.461426,4205.128418,4237.436035,4203.077148,4230.256348,4262.563965,4213.846191,4216.922852,4214.358887,4181.538574,4233.846191,4202.563965
78,4198.974121,4214.358887,4196.922852,4204.102539,4237.436035,4203.589844,4225.641113,4254.358887,4215.897461,4215.897461,4215.897461,4181.025879,4235.384766,4206.666504
79,4195.897461,4215.897461,4190.256348,4209.743652,4244.102539,4205.128418,4217.94873,4244.102539,4205.128418,4206.666504,4214.358887,4173.333496,4235.384766,4200.512695
80,4194.871582,4215.384766,4185.128418,4206.666504,4245.128418,4200.512695,4214.871582,4235.897461,4195.384766,4197.94873,4203.589844,4165.128418,4225.128418,4190.256348
81,4198.461426,4216.410156,4185.641113,4204.615234,4241.538574,4199.487305,4214.871582,4233.846191,4196.410156,4199.487305,4197.436035,4166.666504,4220.0,4195.384766
82,4199.487305,4215.897461,4188.205078,4211.282227,4241.538574,4200.512695,4218.974121,4234.871582,4197.94873,4201.025879,4202.563965,4168.717773,4219.487305,4202.05127
83,4198.974121,4215.384766,4189.230957,4212.307617,4244.102539,4201.025879,4225.641113,4238.974121,4202.563965,4198.974121,4209.230957,4167.692383,4216.922852,4203.077148
84,4201.538574,4214.871582,4189.743652,4209.230957,4246.666504,4206.153809,4231.282227,4247.179688,4216.410156,4206.666504,4212.307617,4173.846191,4221.025879,4208.717773
85,4203.077148,4216.410156,4192.307617,4210.769043,4246.153809,4207.692383,4229.743652,4250.769043,4227.179688,4218.974121,4214.871582,4181.025879,4229.743652,4213.333496
86,4204.102539,4226.153809,4201.025879,4212.307617,4243.077148,4202.05127,4224.615234,4249.743652,4224.102539,4219.487305,4217.436035,4185.128418,4232.307617,4215.897461
87,4205.641113,4230.769043,4201.538574,4215.384766,4246.153809,4201.538574,4221.025879,4251.794922,4218.974121,4214.871582,4217.436035,4188.205078,4231.282227,4217.94873
88,4203.589844,4222.05127,4189.743652,4214.871582,4247.692383,4204.615234,4216.410156,4247.179688,4218.461426,4215.384766,4213.846191,4183.077148,4231.794922,4218.461426
89,4199.487305,4217.94873,4185.128418,4206.153809,4242.05127,4202.05127,4210.256348,4235.897461,4215.897461,4211.794922,4214.358887,4174.871582,4229.743652,4216.922852
90,4199.487305,4219.487305,4186.666504,4201.025879,4238.974121,4198.461426,4204.102539,4228.717773,4206.666504,4201.538574,4212.820313,4172.820313,4222.05127,4208.717773
91,4196.922852,4214.871582,4180.512695,4202.05127,4240.512695,4198.461426,4201.538574,4221.025879,4195.897461,4192.307617,4202.563965,4169.743652,4216.410156,4195.897461
92,4192.307617,4211.282227,4175.384766,4201.538574,4242.05127,4199.487305,4203.589844,4211.794922,4192.307617,4186.666504,4196.922852,4163.077148,4216.410156,4193.846191
93,4192.820313,4211.794922,4179.487305,4201.538574,4243.589844,4201.025879,4210.256348,4215.897461,4193.846191,4187.692383,4196.410156,4162.05127,4214.871582,4199.487305
94,4198.974121,4211.794922,4184.615234,4208.717773,4244.615234,4203.077148,4225.128418,4233.846191,4207.692383,4197.436035,4202.563965,4169.230957,4217.94873,4200.0
95,4203.077148,4215.384766,4187.692383,4214.358887,4244.615234,4204.102539,4236.922852,4247.179688,4226.153809,4208.717773,4213.846191,4177.94873,4229.743652,4206.666504
96,4199.487305,4216.922852,4186.153809,4206.153809,4243.077148,4201.538574,4229.743652,4248.205078,4234.358887,4215.384766,4220.512695,4184.102539,4235.384766,4215.897461
97,4197.436035,4213.846191,4185.128418,4200.512695,4243.077148,4200.0,4217.436035,4248.205078,4236.922852,4220.0,4219.487305,4184.615234,4231.282227,4215.384766
98,4201.538574,4215.384766,4193.333496,4207.692383,4244.615234,4200.512695,4214.871582,4245.128418,4231.282227,4215.384766,4217.436035,4185.641113,4232.307617,4213.846191
99,4206.666504,4218.461426,4200.0,4212.820313,4247.179688,4197.94873,4217.94873,4233.846191,4207.692383,4205.128418,4216.410156,4187.692383,4234.358887,4220.0
100,4205.128418,4216.410156,4195.384766,4209.743652,4247.692383,4200.512695,4222.563965,4225.641113,4185.128418,4197.436035,4213.333496,4181.025879,4227.692383,4216.410156
101,4200.512695,4211.794922,4190.256348,4206.666504,4246.153809,4213.846191,4226.666504,4225.641113,4183.589844,4190.256348,4206.153809,4172.307617,4217.436035,4202.05127
102,4196.922852,4204.102539,4185.641113,4203.589844,4245.128418,4217.436035,4218.974121,4220.512695,4186.666504,4183.589844,4196.410156,4164.102539,4207.179688,4198.974121
103,4195.897461,4201.025879,4182.05127,4202.05127,4244.102539,4207.692383,4214.871582,4216.410156,4191.794922,4181.025879,4194.871582,4156.410156,4200.512695,4205.128418
104,4198.461426,4202.563965,4185.641113,4204.102539,4245.641113,4203.077148,4221.538574,4224.102539,4207.179688,4183.589844,4198.461426,4161.025879,4204.615234,4202.563965
105,4199.487305,4207.692383,4188.717773,4204.615234,4242.563965,4203.589844,4225.128418,4234.871582,4217.436035,4192.307617,4200.0,4171.282227,4215.384766,4198.461426
106,4198.974121,4209.743652,4188.205078,4201.538574,4235.384766,4201.538574,4222.563965,4237.436035,4217.94873,4201.538574,4203.077148,4171.282227,4218.974121,4201.538574
107,4200.512695,4208.205078,4189.743652,4202.05127,4237.94873,4199.487305,4220.0,4235.897461,4218.461426,4203.077148,4210.256348,4167.692383,4219.487305,4204.102539
108,4203.077148,4207.692383,4190.256348,4204.102539,4245.641113,4202.05127,4216.922852,4234.871582,4219.487305,4202.05127,4217.94873,4173.333496,4227.692383,4206.666504
109,4200.512695,4207.179688,4187.179688,4204.102539,4240.0,4204.615234,4212.307617,4229.230957,4214.358887,4204.615234,4216.410156,4168.205078,4229.230957,4207.692383
110,4195.384766,4203.077148,4183.077148,4201.025879,4230.256348,4198.461426,4204.615234,4218.461426,4204.102539,4197.436035,4205.128418,4149.743652,4219.487305,4198.974121
111,4192.307617,4198.461426,4180.512695,4199.487305,4232.307617,4190.769043,4198.461426,4211.282227,4196.410156,4187.692383,4199.487305,4143.589844,4214.358887,4193.846191
112,4195.384766,4198.974121,4182.563965,4201.025879,4236.922852,4196.410156,4203.077148,4211.794922,4196.410156,4187.692383,4203.077148,4154.871582,4219.487305,4195.897461
113,4200.512695,4199.487305,4186.666504,4202.563965,4232.820313,4202.563965,4211.282227,4215.897461,4199.487305,4191.282227,4204.102539,4162.563965,4222.05127,4194.358887
114,4200.0,4200.0,4185.128418,4200.0,4227.692383,4191.794922,4207.179688,4216.922852,4200.0,4189.743652,4198.461426,4156.410156,4214.871582,4187.692383
115,4195.384766,4199.487305,4183.077148,4198.974121,4230.769043,4181.538574,4199.487305,4215.897461,4198.974121,4181.025879,4191.282227,4151.282227,4207.179688,4185.641113
116,4193.333496,4192.820313,4184.102539,4201.538574,4232.820313,4184.615234,4201.538574,4218.461426,4196.922852,4173.333496,4187.692383,4155.897461,4204.102539,4188.205078
117,4190.256348,4185.128418,4178.461426,4197.436035,4225.128418,4186.666504,4203.589844,4218.974121,4192.820313,4168.717773,4180.512695,4146.666504,4197.436035,4183.589844
118,4180.512695,4178.974121,4165.128418,4187.692383,4217.436035,4186.153809,4200.0,4212.820313,4187.692383,4160.0,4168.717773,4124.615234,4183.589844,4172.820313
119,4172.307617,4173.846191,4153.846191,4184.102539,4219.487305,4189.230957,4198.974121,4207.179688,4187.179688,4154.358887,4166.153809,4122.563965,4181.025879,4161.538574
120,4169.743652,4171.282227,4152.307617,4186.666504,4220.0,4188.717773,4197.94873,4205.128418,4188.717773,4161.538574,4172.307617,4140.0,4193.333496,4155.897461
121,4171.794922,4175.897461,4160.0,4186.666504,4214.871582,4184.615234,4193.333496,4204.102539,4185.641113,4168.205078,4173.333496,4143.077148,4201.025879,4156.922852
122,4178.461426,4184.615234,4168.205078,4187.179688,4216.922852,4184.102539,4194.358887,4205.128418,4189.230957,4167.179688,4173.333496,4134.871582,4201.538574,4167.692383
123,4184.102539,4188.205078,4169.743652,4188.205078,4220.0,4181.025879,4197.436035,4206.153809,4196.410156,4169.743652,4180.512695,4135.384766,4206.666504,4175.384766
124,4183.077148,4184.102539,4168.717773,4185.641113,4215.897461,4171.794922,4193.333496,4203.589844,4191.282227,4170.256348,4184.102539,4139.487305,4212.820313,4168.205078
125,4182.563965,4187.179688,4171.282227,4185.641113,4214.871582,4167.179688,4189.230957,4201.025879,4180.512695,4165.128418,4181.538574,4138.974121,4212.307617,4170.256348
126,4185.641113,4196.922852,4174.358887,4187.179688,4218.461426,4169.230957,4191.282227,4198.974121,4182.05127,4168.717773,4183.077148,4137.94873,4208.717773,4189.230957
127,4185.128418,4191.794922,4172.307617,4185.641113,4217.94873,4173.333496,4195.384766,4198.974121,4186.153809,4167.692383,4182.563965,4141.538574,4205.128418,4186.153809
