,AF3,F7,F3,FC5,T7,P7,O1,O2,P8,T8,FC6,F4,F8,AF4
0,4211.282227,4197.94873,4190.769043,4219.487305,4184.615234,4230.769043,4239.487305,4231.282227,4249.230957,4227.179688,4246.153809,4238.974121,4222.05127,4215.384766
1,4215.897461,4200.0,4202.563965,4221.025879,4183.589844,4238.974121,4253.333496,4243.589844,4266.153809,4234.358887,4249.230957,4248.717773,4232.307617,4226.666504
2,4216.410156,4201.538574,4203.589844,4220.0,4182.563965,4246.153809,4254.358887,4242.05127,4263.589844,4234.871582,4250.256348,4249.743652,4234.871582,4230.769043
3,4214.871582,4201.538574,4202.05127,4225.128418,4186.666504,4239.487305,4244.615234,4232.307617,4248.717773,4230.256348,4245.128418,4245.641113,4234.358887,4227.692383
4,4216.922852,4203.077148,4208.205078,4228.717773,4187.179688,4232.820313,4240.0,4230.256348,4249.230957,4233.333496,4246.153809,4249.230957,4235.897461,4228.205078
5,4215.384766,4205.128418,4209.743652,4220.512695,4183.589844,4230.769043,4235.384766,4226.153809,4254.358887,4231.794922,4249.230957,4252.307617,4233.846191,4228.717773
6,4207.179688,4200.0,4199.487305,4213.333496,4182.05127,4227.179688,4223.077148,4215.384766,4244.615234,4221.538574,4241.025879,4246.666504,4230.769043,4221.025879
7,4207.179688,4198.461426,4197.94873,4218.461426,4183.589844,4228.717773,4216.410156,4212.820313,4235.384766,4216.922852,4232.820313,4242.563965,4230.256348,4216.410156
8,4211.794922,4204.615234,4201.025879,4220.512695,4186.666504,4236.410156,4220.512695,4216.922852,4237.436035,4218.974121,4232.820313,4241.025879,4223.589844,4217.436035
9,4203.077148,4196.922852,4190.769043,4214.358887,4185.128418,4236.922852,4221.025879,4214.358887,4239.487305,4214.358887,4230.769043,4234.871582,4214.358887,4211.282227
10,4195.897461,4182.05127,4185.128418,4214.358887,4184.102539,4234.871582,4221.538574,4212.307617,4241.538574,4213.333496,4228.205078,4230.769043,4214.871582,4205.128418
11,4200.512695,4189.230957,4196.922852,4218.974121,4185.641113,4236.410156,4231.282227,4220.0,4252.307617,4223.589844,4238.461426,4240.0,4220.512695,4211.794922
12,4205.128418,4200.0,4203.589844,4217.94873,4185.128418,4234.871582,4236.410156,4227.179688,4258.974121,4232.820313,4248.717773,4248.205078,4224.615234,4225.641113
13,4208.205078,4198.461426,4202.05127,4216.410156,4184.102539,4231.794922,4232.307617,4223.589844,4251.282227,4230.769043,4245.641113,4248.205078,4229.743652,4230.769043
14,4223.077148,4209.230957,4210.769043,4222.05127,4187.179688,4229.743652,4231.282227,4223.589844,4245.641113,4229.743652,4241.538574,4256.410156,4235.897461,4231.794922
15,4232.307617,4221.025879,4221.025879,4224.615234,4189.743652,4227.692383,4235.384766,4229.230957,4248.205078,4233.846191,4245.641113,4268.205078,4235.897461,4234.871582
16,4223.077148,4208.205078,4216.410156,4218.461426,4186.153809,4219.487305,4231.794922,4224.102539,4246.666504,4232.307617,4247.692383,4262.05127,4231.794922,4236.922852
17,4217.436035,4199.487305,4214.358887,4216.410156,4184.615234,4217.436035,4225.641113,4216.922852,4243.589844,4231.282227,4242.563965,4252.820313,4230.256348,4231.282227
18,4216.410156,4201.538574,4214.871582,4217.94873,4186.666504,4229.230957,4225.641113,4216.922852,4238.974121,4228.717773,4233.846191,4249.743652,4226.666504,4220.512695
19,4206.153809,4192.307617,4204.615234,4214.358887,4185.128418,4236.922852,4226.153809,4215.384766,4233.333496,4221.025879,4224.615234,4238.974121,4220.0,4215.897461
20,4197.94873,4182.563965,4196.922852,4208.717773,4178.974121,4234.871582,4224.102539,4214.871582,4232.820313,4216.410156,4224.102539,4226.153809,4213.333496,4214.358887
21,4198.461426,4181.538574,4196.410156,4205.128418,4177.436035,4230.769043,4226.666504,4220.512695,4236.922852,4215.897461,4230.769043,4223.589844,4212.820313,4208.205078
22,4201.538574,4184.102539,4197.94873,4203.077148,4178.461426,4222.563965,4231.282227,4225.128418,4244.615234,4220.512695,4230.769043,4230.769043,4220.0,4209.743652
23,4210.256348,4195.897461,4208.205078,4209.230957,4181.025879,4213.846191,4230.256348,4231.282227,4252.307617,4232.820313,4234.358887,4243.589844,4231.282227,4227.692383
24,4219.487305,4205.128418,4218.974121,4217.436035,4185.128418,4214.871582,4228.717773,4235.897461,4245.641113,4238.461426,4241.538574,4249.230957,4235.384766,4235.897461
25,4223.589844,4204.615234,4217.94873,4216.922852,4188.717773,4217.436035,4224.615234,4228.717773,4224.615234,4232.820313,4239.487305,4245.641113,4233.846191,4231.282227
26,4230.769043,4212.307617,4223.589844,4220.0,4193.846191,4214.871582,4223.077148,4225.128418,4206.153809,4238.461426,4240.512695,4254.871582,4242.563965,4242.05127
27,4234.358887,4217.436035,4232.307617,4226.153809,4200.0,4216.922852,4225.641113,4229.230957,4191.794922,4247.179688,4248.717773,4263.589844,4246.153809,4251.282227
28,4228.205078,4206.666504,4224.615234,4222.563965,4200.0,4224.615234,4224.615234,4222.563965,4174.358887,4236.410156,4243.077148,4253.333496,4236.410156,4236.410156
29,4221.025879,4198.974121,4215.897461,4216.922852,4198.974121,4230.769043,4223.077148,4213.333496,4155.384766,4220.512695,4223.077148,4241.025879,4226.666504,4219.487305
30,4215.384766,4199.487305,4213.333496,4220.0,4199.487305,4233.333496,4224.102539,4215.897461,4134.871582,4211.282227,4211.794922,4236.410156,4220.512695,4216.410156
31,4215.897461,4195.897461,4206.153809,4220.512695,4194.871582,4230.769043,4222.563965,4216.922852,4123.077148,4209.230957,4212.820313,4230.769043,4215.384766,4216.922852
32,4214.358887,4191.794922,4200.512695,4214.358887,4191.282227,4221.025879,4221.025879,4216.410156,4118.974121,4209.743652,4212.820313,4230.769043,4209.743652,4216.410156
33,4213.846191,4192.820313,4202.563965,4214.358887,4194.871582,4218.461426,4224.615234,4227.179688,4113.333496,4217.94873,4215.897461,4240.512695,4215.384766,4221.025879
34,4224.615234,4198.461426,4204.615234,4218.974121,4198.974121,4224.615234,4229.743652,4235.897461,4108.717773,4232.307617,4227.179688,4248.717773,4231.794922,4229.743652
35,4229.230957,4203.077148,4206.666504,4217.436035,4198.461426,4223.589844,4230.769043,4233.846191,4103.077148,4236.410156,4234.871582,4250.256348,4237.436035,4235.384766
36,4224.615234,4202.05127,4212.307617,4217.436035,4198.461426,4216.922852,4229.743652,4232.307617,4093.846191,4233.846191,4233.846191,4247.179688,4235.897461,4235.384766
37,4223.589844,4200.512695,4214.871582,4222.05127,4200.0,4215.897461,4226.153809,4230.769043,4084.615479,4237.436035,4231.794922,4249.230957,4244.615234,4236.922852
38,4223.077148,4199.487305,4211.282227,4221.025879,4200.512695,4214.871582,4224.102539,4226.153809,4076.410156,4234.871582,4228.717773,4248.717773,4243.589844,4235.384766
39,4213.333496,4191.282227,4199.487305,4213.846191,4198.974121,4211.794922,4215.897461,4213.846191,4055.897461,4213.333496,4215.384766,4231.282227,4219.487305,4221.025879
40,4202.563965,4182.563965,4188.205078,4214.358887,4200.0,4213.333496,4212.307617,4198.461426,4036.410156,4198.461426,4200.0,4213.333496,4209.743652,4203.589844
41,4202.563965,4183.589844,4190.769043,4218.461426,4204.615234,4224.102539,4223.077148,4204.615234,4037.94873,4204.102539,4196.922852,4211.794922,4213.333496,4197.94873
42,4209.230957,4184.615234,4197.94873,4216.922852,4204.102539,4231.794922,4232.820313,4225.128418,4045.641113,4210.769043,4203.589844,4216.922852,4211.282227,4204.102539
43,4215.897461,4188.205078,4200.512695,4215.897461,4199.487305,4231.282227,4234.358887,4235.897461,4045.128174,4214.871582,4209.230957,4224.102539,4217.94873,4211.282227
44,4220.0,4197.94873,4207.179688,4218.974121,4205.128418,4232.820313,4236.922852,4239.487305,4040.0,4226.666504,4216.922852,4239.487305,4231.282227,4217.436035
45,4227.692383,4204.615234,4218.974121,4221.538574,4213.333496,4229.230957,4238.461426,4247.692383,4042.05127,4235.897461,4227.179688,4248.205078,4234.871582,4228.205078
46,4226.666504,4200.512695,4216.922852,4219.487305,4207.179688,4216.922852,4228.717773,4249.230957,4043.076904,4234.358887,4225.128418,4237.94873,4234.358887,4237.436035
47,4216.410156,4189.743652,4204.102539,4216.410156,4200.512695,4212.307617,4216.410156,4240.512695,4036.410156,4227.692383,4216.410156,4227.692383,4234.358887,4234.358887
48,4215.384766,4185.641113,4207.179688,4217.94873,4210.256348,4217.94873,4215.384766,4233.846191,4028.718018,4221.538574,4217.436035,4230.769043,4232.820313,4230.769043
49,4216.922852,4188.717773,4212.820313,4220.0,4217.94873,4222.05127,4217.94873,4230.769043,4026.153809,4217.94873,4215.897461,4233.333496,4235.384766,4235.384766
50,4205.128418,4186.666504,4203.077148,4216.922852,4213.333496,4225.641113,4213.846191,4226.153809,4025.641113,4212.307617,4205.641113,4221.025879,4230.769043,4229.230957
51,4196.410156,4180.0,4194.871582,4213.333496,4210.769043,4231.794922,4211.282227,4220.0,4026.153809,4203.589844,4198.461426,4212.307617,4216.410156,4213.846191
52,4206.153809,4189.743652,4199.487305,4217.94873,4216.410156,4234.871582,4223.077148,4226.153809,4041.538574,4206.153809,4202.05127,4221.538574,4217.94873,4220.0
53,4216.922852,4202.05127,4205.128418,4221.025879,4218.974121,4235.897461,4230.256348,4240.512695,4069.230713,4220.0,4211.282227,4231.794922,4230.769043,4234.358887
54,4214.358887,4196.410156,4207.692383,4215.897461,4211.282227,4230.769043,4224.102539,4248.205078,4092.307617,4224.615234,4216.410156,4227.179688,4232.820313,4235.384766
55,4212.307617,4194.358887,4216.410156,4214.871582,4207.179688,4221.538574,4226.666504,4252.820313,4104.615234,4225.641113,4218.974121,4229.230957,4231.794922,4234.871582
56,4217.436035,4203.589844,4223.589844,4220.0,4213.846191,4216.922852,4234.871582,4253.846191,4105.128418,4227.179688,4221.025879,4241.538574,4235.897461,4238.974121
57,4220.512695,4202.05127,4223.589844,4220.0,4218.461426,4221.025879,4230.769043,4244.615234,4100.512695,4221.538574,4216.922852,4243.589844,4234.871582,4233.333496
58,4217.436035,4189.230957,4220.0,4215.384766,4215.384766,4228.205078,4225.641113,4237.94873,4103.589844,4212.820313,4209.743652,4233.333496,4227.179688,4228.205078
59,4213.333496,4184.615234,4215.384766,4215.897461,4214.358887,4230.769043,4228.205078,4243.077148,4124.102539,4211.282227,4210.256348,4229.230957,4220.0,4237.436035
60,4214.871582,4184.615234,4216.922852,4217.94873,4218.461426,4231.282227,4231.794922,4247.692383,4155.384766,4218.974121,4214.871582,4239.487305,4222.563965,4247.692383
61,4218.974121,4187.179688,4224.615234,4217.436035,4218.461426,4226.666504,4232.820313,4245.641113,4180.512695,4230.769043,4217.436035,4244.102539,4229.230957,4249.743652
62,4220.512695,4190.256348,4223.589844,4215.897461,4215.897461,4219.487305,4226.666504,4241.538574,4190.769043,4233.333496,4221.025879,4235.897461,4232.820313,4246.153809
63,4212.820313,4182.563965,4213.333496,4214.358887,4216.410156,4222.563965,4217.436035,4233.333496,4190.256348,4223.589844,4216.922852,4230.256348,4228.717773,4238.974121
64,4201.538574,4175.897461,4210.256348,4213.846191,4217.94873,4231.794922,4215.897461,4226.666504,4189.230957,4212.820313,4202.05127,4227.692383,4219.487305,4229.743652
65,4204.615234,4184.102539,4215.384766,4215.897461,4216.410156,4233.846191,4225.128418,4233.333496,4197.94873,4217.94873,4203.589844,4228.205078,4218.974121,4231.794922
66,4215.384766,4189.230957,4217.436035,4217.94873,4216.922852,4231.794922,4233.333496,4248.717773,4220.512695,4235.897461,4226.153809,4237.94873,4233.333496,4245.128418
67,4216.410156,4184.615234,4218.461426,4217.436035,4220.0,4233.333496,4231.794922,4255.897461,4238.974121,4250.769043,4240.0,4246.666504,4246.666504,4251.794922
68,4213.846191,4189.230957,4220.0,4218.974121,4220.0,4233.333496,4232.307617,4253.846191,4233.846191,4248.205078,4235.384766,4242.563965,4244.102539,4250.256348
69,4216.922852,4196.410156,4218.974121,4219.487305,4218.974121,4232.820313,4232.307617,4250.256348,4216.922852,4236.410156,4230.769043,4237.94873,4233.846191,4246.153809
70,4217.436035,4195.384766,4217.436035,4216.410156,4218.974121,4231.282227,4223.589844,4243.589844,4205.641113,4231.282227,4228.717773,4236.410156,4229.743652,4243.589844
71,4213.846191,4197.436035,4215.897461,4216.922852,4221.025879,4229.743652,4217.94873,4238.461426,4202.05127,4234.358887,4228.205078,4230.256348,4232.307617,4238.974121
72,4216.922852,4202.563965,4216.410156,4218.461426,4220.512695,4232.820313,4225.641113,4244.615234,4204.102539,4236.922852,4230.256348,4227.179688,4231.794922,4236.922852
73,4214.358887,4197.436035,4215.384766,4215.384766,4215.384766,4234.358887,4227.179688,4248.717773,4206.666504,4235.384766,4227.692383,4228.717773,4230.256348,4243.077148
74,4205.128418,4188.717773,4215.897461,4213.333496,4211.794922,4230.769043,4218.974121,4238.461426,4208.205078,4232.307617,4223.077148,4230.256348,4232.307617,4247.692383
75,4205.128418,4190.769043,4224.102539,4214.871582,4208.717773,4229.230957,4216.922852,4237.436035,4222.563965,4231.794922,4226.153809,4232.820313,4229.743652,4244.102539
76,4213.846191,4199.487305,4231.282227,4214.871582,4208.717773,4232.307617,4221.538574,4247.179688,4244.615234,4236.922852,4230.256348,4231.794922,4229.743652,4240.0
77,4215.897461,4201.025879,4232.820313,4214.358887,4212.307617,4231.794922,4225.128418,4249.743652,4260.0,4244.615234,4231.282227,4231.282227,4233.333496,4243.077148
78,4214.871582,4198.461426,4233.846191,4220.512695,4218.461426,4232.307617,4230.256348,4249.743652,4276.410156,4247.692383,4238.461426,4234.871582,4233.333496,4248.205078
79,4218.461426,4208.717773,4236.410156,4230.256348,4221.538574,4244.102539,4235.897461,4252.820313,4292.820313,4249.743652,4246.666504,4235.897461,4238.461426,4246.153809
80,4221.025879,4216.410156,4236.410156,4230.256348,4221.538574,4245.641113,4232.307617,4247.692383,4293.846191,4247.692383,4244.102539,4234.358887,4247.179688,4239.487305
81,4214.358887,4205.128418,4229.743652,4219.487305,4215.897461,4229.743652,4217.436035,4236.922852,4288.205078,4237.436035,4231.794922,4227.692383,4235.384766,4232.820313
82,4206.666504,4196.410156,4216.410156,4212.820313,4208.205078,4223.589844,4209.743652,4231.794922,4296.922852,4229.230957,4221.025879,4213.846191,4215.384766,4222.563965
83,4208.205078,4200.0,4210.769043,4214.871582,4208.205078,4230.769043,4211.282227,4233.333496,4309.230957,4230.769043,4215.897461,4205.641113,4216.410156,4214.871582
84,4214.871582,4203.589844,4214.871582,4216.922852,4213.333496,4234.871582,4212.307617,4240.0,4312.820313,4232.820313,4219.487305,4215.897461,4228.717773,4224.102539
85,4214.871582,4204.615234,4217.436035,4216.410156,4216.922852,4232.307617,4215.897461,4247.179688,4307.692383,4232.820313,4225.128418,4229.743652,4233.333496,4233.846191
86,4216.922852,4208.205078,4222.563965,4216.922852,4215.384766,4224.615234,4218.461426,4249.230957,4299.487305,4228.205078,4223.077148,4232.307617,4232.820313,4229.743652
87,4224.102539,4209.230957,4229.743652,4217.94873,4213.846191,4223.077148,4217.94873,4246.666504,4297.436035,4219.487305,4215.897461,4231.794922,4231.794922,4228.717773
88,4224.102539,4204.615234,4230.256348,4217.436035,4216.410156,4232.307617,4224.615234,4245.128418,4304.615234,4221.025879,4215.897461,4234.358887,4230.769043,4236.410156
89,4218.974121,4203.589844,4227.692383,4217.94873,4216.922852,4236.410156,4234.358887,4247.692383,4314.871582,4232.307617,4219.487305,4237.436035,4232.307617,4235.384766
90,4221.025879,4207.179688,4228.717773,4218.461426,4217.436035,4232.820313,4233.333496,4247.179688,4318.461426,4232.820313,4217.436035,4233.333496,4230.769043,4227.692383
91,4229.743652,4214.358887,4232.307617,4218.974121,4218.974121,4232.820313,4227.179688,4240.0,4313.846191,4227.179688,4219.487305,4234.358887,4225.641113,4234.358887
92,4233.846191,4215.384766,4233.333496,4218.461426,4213.846191,4230.769043,4227.179688,4237.94873,4309.230957,4230.769043,4227.179688,4247.692383,4230.256348,4247.179688
93,4227.692383,4209.230957,4231.282227,4215.384766,4207.692383,4227.692383,4226.666504,4240.512695,4311.282227,4234.358887,4224.615234,4248.717773,4233.333496,4241.025879
94,4220.0,4201.538574,4227.179688,4214.358887,4211.794922,4231.282227,4221.025879,4241.538574,4318.461426,4232.307617,4216.410156,4235.897461,4223.077148,4226.666504
95,4214.358887,4194.871582,4218.974121,4215.384766,4215.897461,4231.794922,4215.897461,4238.461426,4323.077148,4231.282227,4215.384766,4227.692383,4211.794922,4226.666504
96,4213.846191,4194.358887,4214.358887,4214.871582,4212.307617,4229.743652,4215.897461,4237.94873,4326.666504,4234.358887,4221.538574,4228.717773,4214.871582,4233.333496
97,4217.436035,4200.512695,4223.589844,4215.384766,4213.333496,4230.256348,4219.487305,4237.94873,4328.717773,4237.94873,4229.743652,4230.769043,4226.153809,4236.410156
98,4217.94873,4207.692383,4231.282227,4217.436035,4217.94873,4230.256348,4218.461426,4237.94873,4318.974121,4232.820313,4232.820313,4230.256348,4229.743652,4231.794922
99,4217.94873,4212.307617,4228.717773,4220.0,4218.461426,4231.794922,4216.922852,4236.922852,4307.179688,4228.717773,4231.794922,4229.743652,4229.743652,4230.256348
100,4223.077148,4218.461426,4230.769043,4221.025879,4221.025879,4227.179688,4218.974121,4234.871582,4310.769043,4239.487305,4232.820313,4233.333496,4233.333496,4240.0
101,4224.615234,4217.436035,4233.333496,4219.487305,4222.05127,4218.974121,4220.0,4237.436035,4322.05127,4245.641113,4234.358887,4234.871582,4235.384766,4237.436035
102,4213.333496,4205.128418,4221.025879,4214.358887,4216.922852,4223.077148,4215.897461,4235.897461,4327.692383,4236.922852,4228.205078,4223.077148,4230.256348,4218.974121
103,4201.025879,4196.410156,4203.589844,4209.743652,4215.384766,4234.358887,4211.282227,4231.282227,4328.205078,4228.717773,4218.461426,4204.102539,4214.358887,4212.307617
104,4197.436035,4201.538574,4197.436035,4210.256348,4216.922852,4234.358887,4211.282227,4228.717773,4324.615234,4226.666504,4213.846191,4195.384766,4205.128418,4214.358887
105,4205.128418,4211.794922,4206.666504,4214.358887,4216.410156,4229.743652,4211.282227,4232.820313,4324.102539,4229.230957,4220.0,4205.128418,4218.974121,4215.384766
106,4220.512695,4215.384766,4222.563965,4216.922852,4218.461426,4233.333496,4217.94873,4244.102539,4326.153809,4238.974121,4233.333496,4224.615234,4233.846191,4226.153809
107,4231.282227,4215.897461,4232.307617,4217.94873,4227.179688,4231.282227,4226.666504,4248.717773,4318.974121,4243.077148,4242.05127,4235.897461,4234.358887,4242.563965
108,4234.871582,4223.077148,4235.897461,4219.487305,4232.820313,4220.0,4225.641113,4248.717773,4309.743652,4240.0,4244.615234,4240.512695,4241.025879,4249.230957
109,4234.358887,4229.230957,4235.897461,4219.487305,4230.256348,4215.384766,4220.512695,4248.717773,4316.922852,4243.589844,4247.692383,4245.128418,4248.205078,4241.538574
110,4232.307617,4223.077148,4234.358887,4218.974121,4229.230957,4223.077148,4219.487305,4245.641113,4331.794922,4249.743652,4247.179688,4245.128418,4236.922852,4231.282227
111,4226.666504,4214.871582,4229.743652,4219.487305,4231.282227,4231.794922,4218.974121,4235.384766,4332.820313,4243.077148,4235.897461,4235.897461,4226.666504,4229.230957
112,4226.153809,4219.487305,4229.743652,4217.94873,4230.769043,4232.307617,4212.820313,4227.692383,4326.153809,4232.307617,4225.128418,4229.230957,4228.717773,4230.256348
113,4232.307617,4228.717773,4240.0,4221.025879,4229.743652,4230.769043,4212.820313,4225.641113,4326.153809,4235.384766,4233.333496,4235.384766,4229.743652,4235.897461
114,4234.871582,4230.769043,4247.692383,4226.666504,4231.282227,4228.205078,4221.538574,4227.692383,4328.717773,4246.153809,4247.179688,4247.179688,4235.897461,4247.179688
115,4241.025879,4232.820313,4255.897461,4230.256348,4233.333496,4228.205078,4229.743652,4234.358887,4329.230957,4249.743652,4247.692383,4256.922852,4248.717773,4251.794922
116,4248.717773,4235.897461,4262.563965,4229.230957,4233.333496,4230.769043,4233.333496,4236.922852,4323.077148,4246.153809,4248.205078,4266.666504,4251.794922,4251.282227
117,4242.563965,4233.333496,4255.897461,4226.153809,4232.820313,4227.179688,4232.820313,4234.358887,4309.743652,4242.563965,4246.153809,4264.615234,4238.461426,4247.692383
118,4232.820313,4230.769043,4247.179688,4222.05127,4233.846191,4224.615234,4227.692383,4233.333496,4304.615234,4242.05127,4234.358887,4252.307617,4229.230957,4238.974121
119,4230.256348,4228.205078,4244.102539,4220.512695,4234.358887,4229.743652,4223.589844,4233.333496,4309.743652,4241.025879,4228.205078,4244.102539,4231.282227,4229.743652
120,4220.512695,4217.94873,4235.897461,4216.922852,4233.333496,4233.333496,4223.077148,4229.743652,4312.307617,4233.333496,4230.256348,4240.0,4226.153809,4221.538574
121,4210.256348,4207.692383,4224.615234,4212.307617,4231.282227,4233.846191,4220.0,4227.692383,4313.333496,4226.153809,4225.641113,4228.717773,4217.436035,4218.461426
122,4218.974121,4215.897461,4231.282227,4218.974121,4233.333496,4235.384766,4220.0,4229.230957,4324.615234,4235.384766,4227.179688,4227.692383,4224.102539,4225.128418
123,4231.282227,4230.256348,4245.128418,4229.743652,4241.538574,4234.871582,4227.179688,4236.922852,4339.487305,4250.256348,4242.563965,4245.641113,4238.461426,4233.846191
124,4233.333496,4234.358887,4249.743652,4230.769043,4246.666504,4231.282227,4229.230957,4243.077148,4340.0,4251.794922,4248.205078,4255.897461,4239.487305,4240.0
125,4240.0,4239.487305,4250.769043,4230.256348,4246.666504,4232.307617,4229.743652,4244.102539,4327.692383,4249.230957,4244.615234,4249.230957,4239.487305,4247.692383
126,4247.179688,4247.179688,4255.384766,4235.384766,4250.256348,4234.871582,4235.384766,4245.641113,4318.974121,4251.794922,4252.307617,4250.256348,4249.743652,4253.333496
127,4236.410156,4241.538574,4248.717773,4228.205078,4246.153809,4230.256348,4228.205078,4241.538574,4308.717773,4244.102539,4251.282227,4249.743652,4245.641113,4245.128418
