,AF3,F7,F3,FC5,T7,P7,O1,O2,P8,T8,FC6,F4,F8,AF4
0,-1.591891762859724,-1.066861879836051,-1.3722193701648198,-0.9486335074758172,-0.7456362808342639,-0.7073025938737821,-1.63327893749762,-3.7438546280389717,-0.9061476482796951,-3.2945062410946746,-2.4884950359376936,-2.5216355718129764,-2.8843792303448823,-3.2524627996889994
1,5.8783458311482235,7.1084112417156415,8.965207029496051,9.629568879592993,7.027510809778992,9.88607530877947,13.72489650572816,15.837478901385037,1.3973706477219752,8.19987984229923,2.898498012547926,9.038463588140448,1.5689689869063566,6.243767199943449
2,12.927316867736437,14.645117819518848,18.62106131789266,19.363957392250875,14.10037721610339,19.567957989642437,27.79870567881785,33.897784284107374,3.505698824636971,18.728291088599192,7.918488312931935,19.836215804842656,5.777912970414552,15.164871787747117
3,18.931295286501197,20.774979346188033,26.76353378618676,27.309371827201506,19.74795147657818,27.509003163741955,39.32575442058346,48.82200908663832,5.191194981792559,27.247825696073885,12.068444084039735,28.91319794950625,9.295714007558264,22.7040926778201
4,23.34659875488969,24.868069015307213,32.68640319928593,32.69524157089497,23.405842362614727,33.068391773449854,47.309050605145174,59.3171432526517,6.279444528926804,32.94769750833537,14.94292013027127,35.46751663514728,11.755346114662368,28.182931079131592
5,25.7589101849535,26.49813644308257,35.87236254885826,35.00265140644554,24.730352056098102,35.85071699031051,51.11255109856959,64.53554464516036,6.668119955067708,35.33335271774664,16.275259094699905,38.9284765193105,12.909311771119993,31.115585171541483
6,25.923053378613485,25.487012480349005,36.040274623845974,34.015455122967204,23.631985440241852,35.733583036741244,50.51585605707603,64.14933597275635,6.33664419493264,34.2727664855052,15.963066665889745,39.00927715555393,12.655716420234205,31.255064831105685
7,23.789463061559974,21.923517076619007,33.1720226376863,29.840394073266065,20.279056539781216,32.8641326995017,45.723093481234216,58.369011222406684,5.345775137502068,30.000449987118575,14.075592488160037,35.732801700952486,11.047882509254803,28.616542413919362
8,19.514373414118836,16.15492368733322,27.51626666162733,22.89442616659315,15.071795538903997,27.626700957936922,37.326527597851246,47.905810584592665,3.8275415884667816,23.079895428759,10.84268436961214,29.428115967636373,8.286681282176184,23.475631719944356
9,13.45191228342452,8.751884968001093,19.56836809080265,13.860892098186532,8.590963190516971,20.587327255097605,26.230710131032897,33.88375264314907,1.967167256322142,14.330161806166545,6.627009240659236,20.698100748163732,4.696713442521644,16.34167321733359
10,6.127791866812839,0.4505018660477099,10.027860788006752,3.619378955144145,1.5279767469115086,12.423466048641746,13.547401248607487,17.71268388114627,-0.020438851090111038,4.726433938500502,1.8830294339115798,10.36142593886623,0.6892524535659698,7.90852192872879
11,-1.8039850802954578,-7.922383813973126,-0.2630593429878553,-6.843168265411926,-5.394441381403798,3.848562428233852,0.47446097193194064,0.937654783433414,-1.9164858664749438,-4.712835615162248,-2.892417768125873,-0.6254457969284576,-3.283725263552094,-1.0124573375480992
12,-9.618211113257217,-15.532847913938388,-10.394698353200056,-16.53069041304254,-11.501306322184112,-4.4589490516459565,-11.82689926232881,-14.918099607502885,-3.5231375297727316,-13.038487940262284,-7.212322956319274,-11.258628676889948,-6.7792139839508305,-9.570715558037021
13,-16.584555855415044,-21.623776375155547,-19.471941878744655,-24.535417238302426,-16.234838957976176,-11.91413052759885,-22.342799556781102,-28.49948847226537,-4.684436906407014,-19.469865889110007,-10.64878692229476,-20.580819573296093,-9.411074816868158,-16.95855655047953
14,-22.03663085730989,-25.59034073890635,-26.69571072032076,-30.124559721628156,-19.206787313069327,-18.065947259799415,-30.293977224643584,-38.74034560204089,-5.301062245808595,-23.469881595412286,-12.874271189667681,-27.76994582725484,-10.891027813570505,-22.488894973265808
15,-25.437380954541474,-27.039421678205123,-31.436189350304765,-32.8078164616134,-20.228614917598573,-22.617163792512333,-35.19198897023205,-44.94767015987436,-5.3375983738002315,-24.788675376521297,-13.690888751891558,-32.214105574986355,-11.058534739277329,-25.661169369395047
16,-26.434191811791155,-25.827182107847086,-33.29090598219205,-32.37949496218153,-19.317650926082568,-25.424511139038028,-36.860982243618736,-46.84323340585238,-4.822053363906493,-23.472842398190313,-13.045401299707104,-33.565913883040764,-9.896722018817774,-26.20903316068199
17,-24.897865311413337,-22.071410716303006,-32.12211480475361,-28.931907427761566,-16.68041552807353,-26.482675142772848,-35.42607205175463,-44.561665391063705,-3.8383439748648756,-19.8415600721616,-11.029345760926766,-31.771470195584012,-7.5330925940075995,-24.125264689732123
18,-20.941025262940894,-16.137950814834692,-28.069848287581575,-22.839776872810678,-12.677046129636958,-25.89755519086586,-31.27317346704077,-38.608944824854156,-2.5132796380922358,-14.434816151197305,-7.865367877879545,-27.071657382792598,-4.225407311096852,-19.661578428816064
19,-14.913432003114595,-8.603171231808929,-21.539272545051414,-14.718309131733083,-7.772694901933507,-23.855011953438606,-24.987902447611546,-29.789037062819574,-1.000095345436427,-7.941820766294504,-3.8821686480622564,-19.976096539623164,-0.3345866755425963,-13.303439896313998
20,-7.373907370788942,-0.19672761382140516,-13.163364298756818,-5.360023274310238,-2.482728141162555,-20.59091433068679,-17.282589544755524,-19.108877347054655,0.5392302845620653,-1.1192687785228006,0.5186802034904757,-11.212553707220948,3.712354812908695,-5.7223406378333825
21,0.9591257595412188,8.269422453914558,-3.744204574113153,4.342846187547523,2.6815132144909906,-16.366878065257623,-8.92050690087641,-7.6728447923044385,1.9507768239436576,5.290698561778176,4.900476797859961,-1.6567076700692642,7.465562166357102,2.289942063925528
22,9.274329242020343,15.978773233795344,5.8218510096727885,13.482667546634882,7.260608695361602,-11.45401226886536,-0.6452646193794858,3.422571601908489,3.1029158916330415,10.634079663584492,8.830268141752194,7.7512114349242225,10.497648281746953,9.898962298390074
23,16.745392846862877,22.187521856660677,14.62837031905836,21.219659344550085,10.88444348922097,-6.12471433784441,6.8786618495344225,13.18474091045288,3.8968614782258113,14.403456471736197,11.915933552820428,16.095398559175347,12.446947912768824,16.309910765768826
24,22.61296887487107,26.2944016792293,21.844738455315593,26.85688498787834,13.296834105145308,-0.6505495471741258,13.110707674257661,20.804503393578205,4.273042679984298,16.27720378478468,13.839152161548656,22.571164922826945,13.054935501902015,20.846984629810144
25,26.262658762675688,27.897067015903367,26.795795880299323,29.900934829428408,14.36700551202462,4.697090909609834,17.663073701483462,25.714838854527002,4.213367190047626,16.13803730747455,14.38249917836344,26.561653199494526,12.194573410670422,23.022383320638202
26,27.291134221101366,26.830264933965438,29.02765184009295,30.10367886517513,14.089042138782963,9.647303840577134,20.31434824862943,27.6262396055101,3.7398641512854667,14.071796550749779,13.449320724999296,27.697646125253296,9.887057005608675,22.58826583088004
27,25.553226238222745,23.182549450514983,28.353137299808953,27.482076554752226,12.571418874363056,13.934212058261199,21.009838883333316,26.538280488943712,2.910428165167855,10.349055735909593,11.07526354074142,25.894799762872683,6.305233954533026,19.56631841848032
28,21.18429238250542,17.289972348840774,24.872007116837068,22.31469223154267,10.019134825415614,17.3076836450895,19.85110467327889,22.728251840178718,1.8124320645275334,5.393112632549469,7.430452283141542,21.364349695737328,1.7628853638122641,14.251372582193108
29,14.594324482502321,9.706960934324586,18.96318072334915,15.115236984674755,6.710907407527367,19.550393786502365,17.07712447164148,16.718695332711697,0.5548757464532766,-0.261825447626852,2.811440511912556,14.595455591375448,-3.3099307055923766,7.187702154371317
30,6.432960871601585,1.156412552545351,11.248891215434574,6.585119621635939,2.9735078944476014,20.49947940874093,13.03909871904506,9.226419573158934,-0.740437273990605,-6.018672688431024,-2.377643117319093,6.309780685827396,-8.404160885652812,-0.8808996199763487
31,-2.4723919455461782,-7.537173286717872,2.5333991879986972,-2.4513866493635335,-0.8451626330734999,20.069416937803513,8.170332870842685,1.0962623449200704,-1.9483719587110793,-11.268601606287573,-7.654754116798408,-2.6084895111638455,-12.979169716666453,-9.083570866563342
32,-11.200039124701192,-15.526048497033315,-6.278332921997832,-11.124229145372865,-4.403057898391468,18.27177394943206,2.9522478296728347,-6.776336831775809,-2.9503445712704286,-15.442619023672288,-12.499481597601767,-11.201397636863312,-16.516610055435883,-16.51117091614185
33,-18.83101403267937,-22.022202971081246,-14.274211868020945,-18.60046010501781,-7.390025849377505,15.22736493295425,-2.122512976655088,-13.528926943042118,-3.6443359884609787,-18.061120232938876,-16.400356810470143,-18.53662816639941,-18.5760122259998,-22.313073714821655
34,-24.549467317438413,-26.377206371300936,-20.63128416318573,-24.165508848664047,-9.55185004808343,11.167123652194602,-6.588598715465907,-18.41571189464342,-3.9545832654067232,-18.778839360195196,-18.906415846730617,-23.80772857476205,-18.846563889454583,-25.79211072777718
35,-27.73517486295207,-28.15082789613298,-24.704329789843467,-27.295005813465963,-10.711009820386103,6.4195583203831,-10.046178368050615,-20.884248588311067,-3.8402402786186536,-17.42222318591217,-19.678207530914875,-26.424392047374646,-17.189214632534703,-26.487186074213252
36,-28.037079531385135,-27.160828896028057,-26.096690128232456,-27.7095971870829,-10.782588144366562,1.3847124565969675,-12.196203150086689,-20.63756335054173,-3.3020364428361377,-14.015782264766756,-18.53248003477052,-26.082276213897153,-13.663515119264954,-24.233570190945027
37,-25.418322634769638,-23.507651720087697,-24.704726746266015,-25.406276831665817,-9.783570165458746,-3.5032331703734227,-12.869368366576781,-17.67420482569903,-2.3857934092009816,-8.793691530885948,-15.47444663894566,-22.80331375431789,-8.534601458130448,-19.192577669754083
38,-20.166080101374938,-17.569906257798213,-20.7299292045218,-20.661694782711326,-7.833843428539411,-7.82057921137839,-12.045143470566323,-12.299845567801912,-1.1816781626196342,-2.193124681718681,-10.712048994237762,-16.940215100600586,-2.257488426030639,-11.845219889333078
39,-12.863456870947594,-9.969462571606545,-14.656232564009464,-14.005597752506954,-5.147642492194487,-11.200349846773149,-9.857516151401041,-5.106243982712922,0.1816542450676595,5.173231787767648,-4.648123160765909,-9.142693307362018,4.5617449923671485,-2.9482996464275066
40,-4.325297278771462,-1.5083479292815696,-7.194206778553702,-6.165805082549795,-2.015011082705725,-13.37390758118267,-6.58506020029211,3.0833597559650183,1.5483252406759478,12.566201792185119,2.151214883547934,-0.2874900900787264,11.225425154162878,6.544084649569344
41,4.495518854654141,6.916846436712883,0.8020430132894133,2.010418540472247,1.225974483718539,-14.201989174528489,-2.6245679316135604,11.29928952566119,2.7514237306527947,19.188761401690446,9.010549913647992,8.62098750044888,17.018985903016773,15.586060948577282
42,12.620548798618415,14.414176056180565,8.435730128039408,9.650510187303317,4.224122757119874,-13.690462367014346,1.5503880940736765,18.533462010583655,3.6327503854716254,24.26926063398511,15.216738573511947,16.568353650571837,21.292856632880742,23.160912063482893
43,19.163285091076656,20.197959942068106,14.873797945956737,15.955697775292027,6.653780311213931,-11.98814479183071,5.4422958376754265,23.858993334968776,4.063897251627054,27.1511018035495,20.100219220597015,22.652085738571444,23.54168706895478,28.40293815427535
44,23.436651810791275,23.680521570061654,19.445530082640495,20.29314202040295,8.252812340014415,-9.366558303642352,8.588194741710383,26.547142482168184,3.9658275168651347,27.37832876770266,23.115994947353062,26.191994320331737,23.4704898276121,30.70469867176002
45,25.036220416623927,24.54227067984813,21.72061207851836,22.269440787864628,8.85503502180476,-6.184125001086264,10.616606780694118,26.166255717937528,3.323891042706208,24.765426383425613,23.913358495416496,26.81454795582267,21.03819364741164,29.795119311673016
46,23.887674178545268,22.770493020783338,21.556312145528853,21.775633030558424,8.412450459052671,-2.8396304410067597,11.295200232779624,22.64842858437038,2.195475506571155,19.44018543106318,22.384196649929745,24.499205954630906,16.471506739596954,25.77714476388825
47,20.2516142784851,18.660844632374854,19.107410172757547,18.997162186386394,7.003604680725051,0.2785926485998976,10.562135267890644,16.312878565271095,0.7082740491596817,11.850925106041617,18.682129323934017,19.5797110909264,10.245641623094112,19.118641009375562
48,14.684523431158281,12.78023389683298,14.797496574164683,14.386691533025925,4.826025300665603,2.840647236019755,8.535857949828934,7.840224127986126,-0.9516240848712492,2.7335140756640968,13.208526062182523,12.699334847456067,3.0328673425893626,10.596446461142476
49,7.960778591778382,5.894902282817648,9.255580365513163,8.602619406363562,2.1728003191458227,4.613539044647283,5.500894790169639,-1.8016536883616272,-2.5611074052955964,-6.961012702715779,6.5660643464532855,4.7254821606739466,-4.375606863220127,1.1999573669042622
50,0.9661421104817624,-1.1276409580105178,3.2268056369268416,2.420915956043852,-0.6043607371581322,5.484906799036034,1.8705788204980252,-11.472639171144015,-3.8886143520124152,-16.17164993319203,-0.514757390147624,-3.365112400650045,-11.164942037600415,-7.993557023602396
51,-5.4226776038188556,-7.430337953279119,-2.5302577139616833,-3.368219631971607,-3.1411360951433336,5.46905710273979,-1.8688940229791673,-20.002574507577087,-4.726298135592881,-23.85351751699185,-7.266623087583246,-10.615031072820438,-16.596929857893343,-15.955477321937469
52,-10.455670493695537,-12.27723968641814,-7.345375717133162,-8.065012168655498,-5.109638382326292,4.695049172084446,-5.225675508370063,-26.34233484321997,-4.921297465820873,-29.10899312937485,-12.981585427823315,-16.210943227474104,-20.101857636170667,-21.835783337056455
53,-13.607898670933546,-15.148162358560969,-10.723247371439625,-11.151744033076278,-6.263685626382758,3.379288546742391,-7.771308707839259,-29.703370242347575,-4.401387041684496,-31.30617600557245,-17.09908984720899,-19.587173935096583,-21.349423738601583,-25.06865210239374
54,-14.64476078019131,-15.804279813174237,-12.402933598809526,-12.35861564526984,-6.473685532941422,1.7873798661189355,-9.201491223504574,-29.666043477492572,-3.1907733717105975,-30.167676308552082,-19.273471341828095,-20.493664739411244,-20.288771351354427,-25.43913791651165
55,-13.64497892841847,-14.315362076983675,-12.382072424059777,-11.694517393715302,-5.74573747943937,0.19149463864583235,-9.379300286546515,-26.240750815521658,-1.4129976600893632,-25.816023060638667,-19.411418532993743,-19.018966541399916,-17.151824287662656,-23.101729355969667
56,-10.978187180637455,-11.044551386999064,-10.902962528802677,-9.438241679340463,-4.2216546078077295,-1.1700005975140144,-8.353956745635438,-19.87197083670169,0.720338662868602,-18.76751989997731,-17.674223033621054,-15.56535233608867,-12.41914817871861,-18.548333295450025
57,-7.240555080115913,-6.592448018338238,-8.403147553584777,-6.091237594632643,-2.1593038186081768,-2.1245029590242455,-6.351718298750381,-11.383219394404591,2.9342469343871422,-9.873407322037616,-14.444767654119074,-10.780043473711837,-6.75280036105099,-12.530407131051238
58,-3.1579879562859485,-1.7080284270274093,-5.438296959607603,-2.2985172956148476,0.1044409467029592,-2.5841333289798625,-3.7396777062194038,-1.869278887386275,4.9255819547849375,-0.21469102992533728,-10.264372133740503,-5.45288641166033,-0.9053036249643565,-5.946496745228673
59,0.5287901109537786,2.821292189088939,-2.5892055331439012,1.2510356659393784,2.2031756795317254,-2.5493909960159966,-0.9674636839790725,7.450221434208016,6.404252570416903,9.036162175452612,-5.749028960652856,-0.39565907115141513,4.382708135102945,0.28862265061777115
60,3.1802530708477548,6.285017551406405,-0.36703948234256234,3.9306109509919587,3.7959048041989947,-2.097808152615763,1.5045647241720619,15.39593626203519,7.134708207491006,16.76832928659877,-1.4975665286613375,3.679184568624927,8.481975479116647,5.374387500297309
61,4.357924868861254,8.153933450284017,0.8687933473371989,5.272242828915409,4.619434418519432,-1.3604255932352192,3.2796661865477272,20.98960993546435,6.971683384781853,22.079596046935233,1.99457268368826,6.2624880480675404,10.957394236720454,8.735738398690312
62,3.893075577797947,8.158405998107616,0.9676242178869665,5.040103744292318,4.530338811867575,-0.49091475324286654,4.089910687572384,23.587710008826445,5.884761326096609,24.39660001898717,4.403130465901518,7.119805798369231,11.622580488978462,10.099311721495877
63,1.9137558240563564,6.329065442933298,0.010536327707023589,3.2692202382715085,3.52992662626397,0.3666757954479463,3.841606953085509,22.968565060996532,3.967734551099082,23.551110194735006,5.614387815266598,6.31977817679325,10.558669490775738,9.52365463880155
64,-1.1742688208842296,2.9935616212455294,-1.7043633388874295,0.26338051279740915,1.7679638627300522,1.1054711499501162,2.633150180294726,19.360090471313608,1.4308088774527659,19.800995362975307,5.730351194759846,4.215339467359294,8.094835723073558,7.379243534251561
65,-4.750333954042731,-1.2706920656747005,-3.712516182664796,-3.448132576529409,-0.47605353699962494,1.6735148151582653,0.7416061406301856,13.403585600670702,-1.4238726200123935,13.792170232250198,5.039219056630406,1.380614984184909,4.753427993632099,4.281378236920333
66,-8.076561167135216,-5.721522829041753,-5.461958559828066,-7.189319438622801,-2.8319783306607427,2.078488218067299,-1.4207995368977264,6.058272785051335,-4.240470481033845,6.46611622341516,3.9558747866472417,-1.4870267125389887,1.1676360742681302,0.9859203909705436
67,-10.416204877734568,-9.562937893307323,-6.409005591741682,-10.240766287898207,-4.893252034712292,2.378656600223743,-3.3742849470969376,-1.540114116734972,-6.656455204150014,-1.0746231040327225,2.9417957362855507,-3.685022989793014,-2.016452882189563,-1.7366362315995572
68,-11.155125563212854,-12.066242921234233,-6.11594455538872,-11.952654948820594,-6.278706660030815,2.661925357114823,-4.65315135407888,-8.246560622246083,-8.351966441649187,-7.7243866975427515,2.417071532393483,-4.625846724802486,-4.239237716620684,-3.2299249194073223
69,-9.908031884788619,-12.68383396673134,-4.33543471898503,-11.850901067003132,-6.692969004006711,3.0172256319584068,-4.888778450579818,-13.075687923716423,-9.094590419324616,-12.53352562870555,2.678686064556916,-3.9408950400203566,-5.113907041502735,-3.0637735956150163
70,-6.592981982321267,-11.138887349217823,-1.067894539383128,-9.720440244781564,-5.976421109149463,3.504064693189787,-3.8805551090964316,-15.347648814429602,-8.773084233563042,-14.845875341156463,3.838581306074429,-1.5516219289291922,-4.486840179530619,-1.1121902031291693
71,-1.461942964851389,-7.477326012389283,3.418170355359612,-5.652604503028407,-4.136900323260647,4.126665726260182,-1.6426487826925538,-14.789294726336038,-7.414982252613558,-14.394387007516526,5.792313865526141,2.303927208320516,-2.462842336058582,2.4154109541535513
72,4.918584785466059,-2.0736234507944995,8.607658928022051,-0.048417865741997336,-1.357730576451884,4.8185435333668,1.5822176385455833,-11.57511312064716,-5.185195832850075,-11.340365065458611,8.224654906168258,7.094573035066808,0.6090614601174111,6.995714798149911
73,11.735620114728558,4.411481201463222,13.80077555307154,6.424159339211208,2.020047105223257,5.441681734748594,5.346023441787779,-6.301032273837333,-2.3653731699496086,-6.249656438429332,10.652859153799648,12.067411482440734,4.18779627818131,11.86392767622058
74,18.03791358564112,11.116354147258072,18.20776006744764,12.91434989656988,5.539677760940874,5.801955438371173,9.054138281887878,0.10600832519366582,0.683450036382732,-0.008236754764624538,12.502335749493662,16.357788320914356,7.623189739114819,16.127541921630765
75,22.869608951231637,17.09557324141988,21.063617047467357,18.50318839858425,8.68976215201817,5.679492986081644,12.052162029860233,6.530217837568513,3.5699070417528103,6.311355136387127,13.203994646296982,19.122298426152927,10.257723732655085,18.905300893244476
76,25.41045689911147,21.45258801600357,21.746491683553867,22.33303445991245,10.976249278749357,4.869784057904899,13.728804639345505,11.840346336651429,5.926254336407522,11.61371093960484,12.29849181368467,19.67526774186469,11.531961067250474,19.470876647113755
77,25.10218135553389,23.469175819256176,19.882123389685198,23.733705601893973,11.99530881944975,3.229016917570129,13.619491310579143,15.068659988662214,7.459558567127558,14.950395895864316,9.53066146029922,17.607992220040035,11.077581038833328,17.37938135300667
78,21.74207328264894,22.71304382026695,15.418156839558497,22.326906497705288,11.496534576505171,0.7157882569940034,11.494383745708644,15.568393455915034,7.992701329440049,15.670459473311572,4.918021651183892,12.87190042815129,8.783436971490898,12.556708380801592
79,15.529195955267003,19.10775973157463,8.655891647052316,18.093243433571573,9.426944292036657,-2.5787491681720494,7.415991330525223,13.125144494686136,7.489136214041839,13.528429440638778,-1.2195791166711265,5.811580746788639,4.823803448361745,5.336663711723901
80,7.05515472956421,12.954386114122459,0.23282619433174984,11.391089505407157,5.948684096898357,-6.418973652526804,1.7554062523121847,8.004011061140728,6.05760765731471,8.732480962718359,-8.27669045086866,-2.859357196752895,-0.35649334451633913,-3.5617508622958294
81,-2.760717911264899,4.901011213554433,-8.9436929323304,2.923235054219344,1.4269092416337605,-10.435320711733661,-4.838039578432903,0.9235325891657117,3.935926322689105,1.924145324029301,-15.425952702717618,-12.138317172133068,-6.098874324549279,-13.115755856696152
82,-12.783841239416102,-4.136180609358249,-17.80426199565403,-6.345328184584833,-3.611491466402101,-14.158113674814127,-11.512022742965156,-7.041626038706198,1.4559725144326252,-5.908856495325844,-21.721926458831458,-20.86001629605995,-11.622073656019108,-22.12890194673487
83,-21.80957412770383,-13.089679917026311,-25.252925455815834,-15.308065242022348,-8.543432589197419,-17.07184484911037,-17.32272648333745,-14.616418453784176,-1.005094231140424,-13.574842959598287,-26.23149901671171,-27.852258407374283,-16.134381367848075,-29.39227405360473
84,-28.72122663406325,-20.879189881304264,-30.31222563737299,-22.859891669083297,-12.730899794752329,-18.68352655696018,-21.36791373417437,-20.51751073548405,-3.080337489398837,-19.855011006642,-28.1723864208269,-32.099539636220825,-18.950471562994405,-33.85409467087564
85,-32.63893926719818,-26.55273679181138,-32.257719405672404,-28.042966784221854,-15.60692464298428,-18.59596568474562,-22.922811359947886,-23.653495946093106,-4.467108183756528,-23.688760778723147,-27.039018263783746,-32.891089538130316,-19.59524480434144,-34.77323316904212
86,-33.03858699711133,-29.410835793991268,-30.722854421117244,-30.17510603255828,-16.754286033355076,-16.575291215369553,-21.558601105283277,-23.302967499981172,-4.971665552272992,-24.33961688270686,-22.69602104908548,-29.931616667695934,-17.878843067430875,-31.8339658992655
87,-29.82400906869302,-29.096698267204555,-25.758859207937718,-28.942892694086492,-15.965716523915654,-12.602097801484351,-17.22486641788061,-19.24269672365143,-4.53769994274752,-21.516334005761827,-15.423574851967762,-23.39793028455288,-13.931193269281378,-25.204578312224605
88,-23.342434726365568,-25.64040583497282,-17.84035031694505,-24.4464223763782,-13.276796475404534,-6.897251917902321,-10.281800955632683,-11.804945841754568,-3.254464882126052,-15.430170156645278,-5.905569278975758,-13.93207568615862,-8.190461828995973,-15.530306294668977
89,-14.340998547430342,-19.451592585196884,-7.814841223165806,-17.18935766995624,-8.966451858518866,0.08342490056259723,-1.474802352361579,-1.8530891825386913,-1.3432495384584915,-6.77868538250177,4.8402447508778135,-2.5705765689298232,-1.3467236780126008,-3.8605140654291255
90,-3.8705251677416004,-11.262468894612288,3.197832852103596,-8.015615477318475,-3.524503035594289,7.687142608526065,8.147683207937998,9.32325234188334,0.8758479269312771,3.3426392241025837,15.582279577666878,9.38149308253321,5.751115647844227,8.480508933350409
91,6.849915257179586,-2.029898388481477,13.943130080884073,1.9985682441424952,2.4096207179281923,15.131640745195993,17.363737751760468,20.180228249040216,3.0319413472526793,13.588841298323999,25.029830016237938,20.514942138687847,12.211607036545127,20.06161004730767
92,16.58888487004976,7.189293961501741,23.188209714465113,11.682330599118995,8.12877214880885,21.59456955920873,24.938246623235848,29.13520820124111,4.7590573591104155,22.552798731351885,32.001523242459044,29.497160185799576,17.223298704990082,29.52859441765957
93,24.257557266474148,15.372301948368127,29.87625289030573,19.918810950593027,12.949401315792956,26.313582812067356,29.791990034837475,34.79491911494577,5.75126250282806,28.96434904584786,35.58407995259849,35.24444723915312,20.165743128769783,35.77849690460309
94,29.0429922346032,21.655392434016623,33.2581148489634,25.78464260010746,16.29976145722948,28.68393343250164,31.155610743938897,36.16298282746943,5.809063919595546,31.8722542495328,35.25892597796444,37.06246182136746,20.69302410289234,38.100444092463746
95,30.502339955746496,25.433675247532797,32.98388860487147,28.66181094839666,17.79292165745651,28.34019601103234,28.68597263864717,32.795976371532056,4.870249323766196,30.78250220629814,30.978438366391742,34.73571838038689,18.778054561835827,36.264089011218516
96,28.606400534394595,26.423322138693127,29.14251699660882,28.307520412963314,17.27469023525726,25.210523153724324,22.52727205281584,24.884212917148044,3.020662301730496,25.73281577948369,23.180530874043274,28.554173259774277,14.711781605350408,30.54409312372288
97,23.72822790955355,24.679633899935503,22.24474171312532,24.87377418726132,14.840153016145232,19.535349651703264,13.30684845019371,13.24418008071247,0.48339613727249425,17.292593647125884,12.738884246804137,19.273677061942923,9.058106300692614,21.678155535656675
98,16.580131596937413,20.57072167122503,13.152406149992812,18.87545396609601,10.817007110425825,11.847193658789584,2.0648687992056978,-0.7776104420497453,-2.4119200342900746,6.488419926109067,0.8551638511521752,8.016184323492086,2.571772900332848,10.765332149835631
99,8.109390588361629,14.712687045411348,2.9643401306913737,11.112756516810542,5.718556208082309,2.9134823965940106,-9.873440787147292,-15.476640345137334,-5.27515922216828,-5.333897688609202,-11.092275638263237,-3.876200887111606,-3.908262068040453,-0.8804826058211007
100,-0.6317273532826071,7.877174999205061,-7.125263535356381,2.5598879076178327,0.17343133608037828,-6.350618679798872,-21.066007026236964,-29.014404470693446,-7.710284973402423,-16.690707760378718,-21.722620102080196,-15.013158676135923,-9.574183354894444,-11.901174958680025
101,-8.623155008104519,0.8853587855230622,-15.976697089539094,-5.76390244086059,-5.157801905527303,-14.988304924021147,-30.13965172832095,-39.66295201179851,-9.370566671456867,-26.1592548491276,-29.826074699257678,-24.130697211990437,-13.756739481194144,-21.065599016767266
102,-15.00275657800197,-5.4965724936544165,-22.642891639486695,-12.923082688951455,-9.667424340182073,-22.11254719514957,-35.96787010006201,-46.03552974366349,-10.006541946394613,-32.56566305621361,-34.51321280386407,-30.245074947779646,-16.00972596238658,-27.418398536553923
103,-19.164377051410973,-10.646539048606337,-26.478088284819286,-18.177310325551858,-12.875166488592004,-27.00855601329082,-37.81627204183387,-47.271062010770464,-9.500048706263984,-35.136157737336134,-35.32046032732511,-32.7662377036282,-16.16034474122345,-30.387342434631258
104,-20.816594616659877,-14.149509206782557,-27.20377020593933,-21.061666535576816,-14.482884784393786,-29.214334779999618,-35.43595611442149,-43.147076484428304,-7.879799161078242,-33.59137196904674,-32.258379400570476,-31.556954715881904,-14.319606856302673,-29.836433733237264
105,-19.996581601916567,-15.82788032432519,-24.924838826672083,-21.426658124789466,-14.402727126155769,-28.569419542061564,-29.092543966154498,-34.10618927245526,-5.316716872443364,-28.172195669100056,-25.797582502605568,-26.931642988834962,-10.852963936415634,-26.060000993586762
106,-17.039988691290223,-15.737972469567607,-20.096036218107063,-19.434979208189134,-12.756211233469326,-25.226259238095874,-19.527746861488065,-21.19376536352607,-2.1001776696227563,-19.59562858650982,-16.795816027305957,-19.597277734463642,-6.317108803098487,-19.721301440415022
107,-12.513802937219822,-14.136177728686674,-13.445387077592954,-15.518136162425215,-9.845857432550895,-19.623709817021723,-7.85978272337717,-5.9169568171258735,1.4010508391630345,-8.948967139318817,-6.377729319842127,-10.546581465040655,-1.3735221989449429,-11.746642243484247
108,-7.12384163597648,-11.422296695592152,-5.86698915449203,-10.301381671555593,-6.104801355246954,-12.427077735258113,4.562699108114388,9.953890245641936,4.787366811316538,2.461052630110943,4.215032990661663,-0.9197711314085257,3.307783904411833,-3.1916176562511516
109,-1.61132099477318,-8.070171131809348,1.700934378758606,-4.509242848618919,-2.032611930268274,-4.443360352399197,16.332502523139354,24.61302412036605,7.67948353102706,13.281956640991831,13.782331645641932,8.145285345986961,7.140111902931523,4.900955579353981
110,3.346509326468238,-4.556614877526157,8.395626967571278,1.1342065031566804,1.8730124678539581,3.476769331154085,26.157995067412823,36.444714932795776,9.765190416088211,22.287697622572658,21.311183268073645,15.654005095754107,9.694657310322858,11.631751075099352
111,7.21829685643589,-1.2988516921337545,13.531228632467295,5.996444599176189,5.179042334946872,10.537451895412334,33.01639465814634,44.21625798805382,10.835658371552762,28.5262627573991,26.08979607315874,20.868872933021997,10.748147126742174,16.347354404137917
112,9.673150386689805,1.3915662063681924,16.66969235040705,9.607319875458819,7.566226799039194,16.084357315079668,36.26693737325066,47.21418877621022,10.806943633364089,31.424234437863305,27.77645031628876,23.382534607099675,10.298317613408472,18.70242855036816
113,10.602557076151214,3.3336197353667,17.653854213557903,11.701694928176462,8.858874567677326,19.6695312094729,35.7109226240667,45.30823397900163,9.72458627639237,30.836707013456458,26.416599280032013,23.14305136439182,8.547018688590812,18.6760638089786
114,10.109485951401673,4.47939386029794,16.6010961669435,12.230653096851333,9.03285591779223,21.087667833833432,31.593434064264162,38.93815923266874,7.751612157472186,27.03910939350591,22.40909525637703,20.431228264377026,5.855518634035009,16.54358331826897
115,8.469294738365868,4.896789520123676,13.861671586118959,11.342757010438772,8.202687435752331,20.381201677092598,24.549649363851884,29.02942797482892,5.142473624757499,20.665648222028064,16.429447972532298,15.796595791320945,2.6804300627510145,12.811300038642079
116,6.070800550938178,4.7376078322825395,9.950422294685017,9.340995394087091,6.5914821613845955,17.815794710654085,15.505903419644126,16.852897306926845,2.2071972986170345,12.60609157948002,9.323483706389354,9.963928368079563,-0.49896398444015033,8.126441918474665
117,3.3480683598059526,4.197944685683964,5.463661128655588,6.624009710073616,4.489661690108648,13.831481524375421,5.551080642532277,3.8503940099496448,-0.7289663874863711,3.877518705699591,1.987960530389319,3.725412937115922,-3.250629844335035,3.1770553731088933
118,0.7138809954175089,3.478261907570262,0.9940772838701307,3.6215987063509436,2.2093752578274164,8.977443633260298,-4.2031638372642615,-8.548839795185799,-3.364870493411002,-4.510104797611847,-4.744728830603433,-2.1656136828042376,-5.2467971561524624,-1.4030957008312646
119,-1.4954554838476457,2.7496860195091304,-2.944378866347451,0.7342721059770414,0.04148282262517771,3.8398179554410845,-12.754661869042009,-19.0963833675002,-5.456799070342039,-11.676246875472641,-10.202583236209376,-7.085013360415692,-6.300605340274186,-5.111668820329087
120,-3.0570147229718487,2.1312644346516207,-5.972271257566411,-1.7150547644244643,-1.7791512402848566,-1.0279883955420959,-19.31915142051713,-26.856999900413673,-6.842001297100902,-16.96485916730234,-13.939568520697819,-10.601482058487598,-6.378590058891269,-7.627788518303246
121,-3.8764550274741407,1.6804711782529531,-7.875512788008803,-3.5118699459005973,-3.096172097745142,-5.164190942655332,-23.402958688931104,-31.291004358165008,-7.450248087644612,-20.002006896425286,-15.764866822454378,-12.507508327844588,-5.5892286052100815,-8.830763403962237
122,-3.9818803185732743,1.3966698238353903,-8.609898758912939,-4.561284009235315,-3.84042725947008,-8.24059975942283,-24.83373062325363,-32.28037949922398,-7.303004257508505,-20.711967928796117,-15.735627709669947,-12.816976090322282,-4.151459409663104,-8.788349510484577
123,-3.5000449665483657,1.2349763807297123,-8.281992780599714,-4.880782082541283,-4.025454643785349,-10.084282069199812,-23.749061463861796,-30.100438766641222,-6.501489455022617,-19.293789044908248,-14.118250691882038,-11.733616605489356,-2.349897159835432,-7.719933401290175
124,-2.620978386029103,1.1263972231148303,-7.112192388303717,-4.578287389760858,-3.7322652535427583,-10.678426637967133,-20.54840918064891,-25.345925055828708,-5.206254035177193,-16.165540486005796,-11.327177474544856,-9.598275048419909,-0.48498055133028256,-5.943225861362835
125,-1.5582319769678066,0.9994700482419963,-5.387714416156678,-3.821039503013438,-3.087183654732956,-10.144587675756565,-15.81801930450923,-18.82564411191411,-3.6117600608047318,-11.887214128512467,-7.85237709689361,-6.825111969177477,1.1736505747363453,-3.8145836620726126
126,-0.511748727472962,0.7989450687006262,-3.413721834661241,-2.8014090814006356,-2.237026838803305,-8.710602788565966,-10.24117581540417,-11.442500209941345,-1.9197569874219553,-7.074962975732571,-4.186998443714748,-3.837228837253857,2.42355685793438,-1.6728193098789983
127,0.36100351130470676,0.4981635636144983,-1.4699496812817123,-1.705316702882122,-1.3256801827861464,-6.669829139253707,-4.506778398346348,-4.0759731053739,-0.31498980118004366,-2.3191174126208822,-0.7651954932045638,-1.0109194265744794,3.1510373898298534,0.2054654143339093
