,AF3,F7,F3,FC5,T7,P7,O1,O2,P8,T8,FC6,F4,F8,AF4
0,-1.7968045728642712,-1.066948752374095,-2.236712592497683,-1.5383131549473845,-0.833852362241617,-2.4886903017814546,-2.474135164828454,-1.8092421841528412,-0.11214803477604031,-1.942879613835141,-1.7885542735874365,-2.4141724118848473,-1.6432612137691753,-2.1610606310743115
1,-6.865800609815409,-3.7591430751304356,-7.711868801001927,-4.88736476813827,-2.673201571618403,-5.06758866144257,-6.554255799229555,-2.403859082043098,-0.7418416591269273,-3.18667922010502,-4.789210012464625,-9.332864526979836,-7.503583509316035,-9.196573663105369
2,-11.140316986700272,-5.915286785548135,-12.473937571814123,-7.658319999414255,-4.245165574906014,-7.509971690683019,-10.351425138163442,-3.1529936436422252,-1.3602026434338168,-4.386487387735064,-7.517661119863938,-15.509838084448372,-12.619250392778357,-15.351665355360788
3,-14.14890691900493,-7.250174796752828,-16.03511953905685,-9.525412317771254,-5.395841305211957,-9.808037285215605,-13.748712590774185,-4.34634293602507,-1.9747660521996127,-5.67533682429939,-9.83206579953537,-20.43545167271514,-16.529199422667368,-20.053062635610814
4,-15.566850011990764,-7.587385157072018,-18.024482270081386,-10.270788280477934,-6.018810602495344,-11.923908928191514,-16.623543796863668,-6.151658337408007,-2.5818630542501597,-7.120349314503751,-11.590347756351006,-23.698425142335328,-18.89002136554266,-22.867018810740586
5,-15.25394604690652,-6.8827068140659815,-18.22782764806582,-9.810440724521765,-6.065577372913025,-13.774488442809876,-18.84078032953178,-8.570521781699613,-3.1624006250669336,-8.69782855320864,-12.654902984715072,-25.021013672777233,-19.50787719023774,-23.542091596867913
6,-13.270880970390465,-5.2307634803027465,-16.612510566163465,-8.2045621175223,-5.549716483564078,-15.227621791170524,-20.2545551631515,-11.425546673234043,-3.681445742530231,-10.28866991432667,-12.905143559106394,-24.285367338380066,-18.356764969613963,-22.03512068690929
7,-9.871906392429231,-2.853681607446335,-13.334063512221128,-5.650836342144949,-4.544263273883662,-16.11121360240513,-20.719641398521073,-14.381224012634847,-4.09177370186841,-11.694876304525529,-12.25649062432157,-21.548232610881914,-15.58106311044896,-18.5172847730065
8,-5.474337177228223,-0.07289151360414828,-8.72314280867173,-2.4611234005794365,-3.17253725961905,-16.23454199416291,-20.11088855294061,-16.994705132358277,-4.3407334597591705,-12.673865837305987,-10.682299246400362,-17.041534487738865,-11.48149619356628,-13.358791114061814
9,-0.6081606311217445,2.7326737530417975,-3.253284868410783,0.9760495686042365,-1.5932802096926921,-15.418743464229925,-18.347316696687976,-18.78763856002034,-4.379119426261409,-12.983857798135684,-8.2337426345241,-11.157216243751149,-6.485143045086742,-7.092753610241484
10,4.148458108386618,5.176873513830394,2.5079206823242965,4.243009227080083,0.018357132256259887,-13.531653155039807,-15.41620568355384,-19.32665874595269,-4.170347998406441,-12.431569494594806,-5.052276551929826,-4.416045793578284,-1.1017546745428357,-0.3610066132015073
11,8.240097724592422,6.918764432787326,7.959585244487722,6.944913449826968,1.4918881925610703,-10.52120464805375,-11.392201733990323,-18.298847556634318,-3.698190192375103,-10.913124990429859,-1.3701122039221088,2.5781472868844584,4.129677037923028,6.1532217548527735
12,11.202713609278879,7.710208801517612,12.533823543707431,8.759833678100748,2.682148091560169,-6.441574654633825,-6.447136115021833,-15.569621498318691,-2.9716084944719516,-8.440499808418288,2.5039472858670497,9.195357278870707,8.698681949898646,11.79895473452495
13,12.721261355145167,7.432124142397882,15.76009713896163,9.480518353471536,3.4869301740253307,-1.4671885735550003,-0.8477570748083256,-11.213754422054965,-2.0258149416905296,-5.148682967959463,6.21325351407111,14.842060209878932,12.178973435861813,16.029292250399024
14,12.668693932239695,6.114040451189954,17.319801341189294,9.042147097148254,3.8591868749284015,4.108588268656794,5.059397262289734,-5.514964005130255,-0.9193839414077849,-1.28242933827722,9.393648373323332,19.022836345246745,14.275281019885627,18.46283664761573
15,11.120864648579326,3.9336441541990226,17.083999501047618,7.531913002739427,3.811921592362093,9.891049597065987,10.87461132650501,1.065224144797294,0.2720302983281288,2.8347435318626766,11.71980925771312,21.39348510745529,14.855223219713498,18.926783136954874
16,8.34485151433248,1.1955702826860006,15.128927428004562,5.178468397688486,3.4147681218299804,15.416673737741853,16.179854457875553,7.943716155117944,1.4642445663758334,6.843522621365596,12.950344083105799,21.798538597661324,13.961625280503457,17.475534921253026
17,4.761693513734445,-1.7084536009481204,11.726492400012315,2.321901548238151,2.7823711001316345,20.197086583625612,20.57740793273395,14.487877973235854,2.5739040283911145,10.396023922544499,12.963987552591773,20.287589465200366,11.803043796394448,14.381533706500322
18,0.8880540187930406,-4.353279451910083,7.310183766916831,-0.6323514978724625,2.0559047330072038,23.76936318397813,23.72732299225952,20.092110102188094,3.527143480637717,13.19918978576543,11.780292993233063,17.107378110158983,8.723163566478421,10.098555489534133
19,-2.7355895666894687,-6.340772748176269,2.4201746951651657,-3.26980070674185,1.380211582468529,25.746678729767815,25.37915019276222,24.247777926494212,4.266291223681346,15.04743472490468,9.560547075633648,12.669817679438198,5.152772368063412,5.20153895722642
20,-5.62046293742954,-7.358602283633356,-2.3655669926003737,-5.22576032782635,0.8799032571004772,25.863230770659346,25.394436791028912,26.597170114770975,4.753810547073272,15.840009206908844,6.587859609219542,7.499592612911881,1.5507114030837248,0.31051688294188645
21,-7.39808309316166,-7.228769303514414,-6.505117792557364,-6.238355417945352,0.6381565054084218,24.008033307840414,23.757970345913062,26.965358925902002,4.97323889840393,15.581644785703833,3.228917409559201,2.1680801033878088,-1.6579361209077375,-3.9911750782313433
22,-7.87192923344664,-5.938315284414012,-9.56134040625948,-6.187701987446552,0.6817423063463227,20.2435019157368,20.577345831525637,25.36770528094098,4.927439956878504,14.36819252487598,-0.11691123868452301,-2.777437770229809,-4.137496081430807,-7.233022955341192
23,-7.04436746562127,-3.646904742143467,-11.255927151190619,-5.114975063928202,0.9750219052013381,14.806511771001993,16.071863776977644,21.99456444244056,4.6349215624005256,12.361549503393805,-3.0731748688349705,-6.879408201572954,-5.683007720832859,-9.116873165317953
24,-5.1144296900320985,-0.6691752693980749,-11.50105185316271,-3.2178405553236007,1.4243245630000596,8.091585080566142,10.552818358293292,17.17786517437467,4.125216332308451,9.759712077844311,-5.33780233441311,-9.8212683366607,-6.241077942226501,-9.551152584395036
25,-2.4462866641559513,2.56655285448349,-10.404079073908807,-0.8221920299370075,1.8924813561279745,0.6178151433686482,4.397804798432209,11.346209121857653,3.434339777444464,6.7680602934091825,-6.722252616947758,-11.457245454697768,-5.907322373394453,-8.65468122750914
26,0.48731346115150126,5.577960457989392,-8.244708009382999,1.6662135463417491,2.2215934058915257,-7.017149595479314,-1.9782243804624182,4.9757760088059735,2.601148858952587,3.5769969796062973,-7.172267287472016,-11.8169139312047,-4.901132197615598,-6.729562899361811
27,3.1784365105108505,7.898533978845778,-5.428043343395177,3.8233712036315493,2.260652604265921,-14.191424009077059,-8.152690870543351,-1.4563042937767383,1.665079929608363,0.34912018851996557,-6.767288192602041,-11.084663657152628,-3.5221524678776297,-4.20742188922262
28,5.16319262236644,9.147340434956925,-2.4207317997225895,5.272740495770292,1.8936710937090697,-20.316070534559895,-13.723921052321062,-7.511047808165337,0.6653341186963857,-2.783338472446736,-5.699223016081066,-9.558142274562394,-2.095818292870306,-1.5774518395302355
29,6.094667890343359,9.08825078497123,0.32011439048963797,5.744971330685583,1.0636967304201126,-24.889481089795016,-18.337004252871115,-12.816250705787727,-0.35880591603766887,-5.712485182508995,-4.234683208129434,-7.592948769099175,-0.9170472832888029,0.692362418156828
30,5.79815341441511,7.669345995634096,2.4143975339994133,5.122209430929669,-0.21143499506139826,-27.543621407549676,-21.705937480547696,-17.08393149847616,-1.3671198477933508,-8.34368858731324,-2.667478541372952,-5.542839488858447,-0.2014158901044419,2.22840681274049
31,4.299819926524171,5.0359812017642644,3.6127040970595075,3.4597213248168943,-1.8345959909912977,-28.077648505669654,-23.631288470355656,-20.117694983942677,-2.3177610554801396,-10.583964247750353,-1.2695834598805193,-3.7051393737888234,-0.0518058050495702,2.807473943690033
32,1.8239953644171074,1.5148188284521678,3.828148409524057,0.9809634061104078,-3.6374080272623215,-26.475678916811326,-24.0127234667577,-21.812328877223173,-3.167380342830678,-12.33421899727222,-0.24877553573828295,-2.2798791371195612,-0.44581849296422377,2.386974744051515
33,-1.2409348906873836,-2.429502325762807,3.141838287171544,-1.9536989247943184,-5.400192554771815,-22.907044012128182,-22.855754240868713,-22.148369458868377,-3.872487601839735,-13.488637900741331,0.2802762461169701,-1.348620130414959,-1.2456762377883324,1.1048654270352622
34,-4.403024408559571,-6.25918585797798,1.7815964069114603,-4.90027202092022,-6.881289911538249,-17.709065155112608,-20.272047088668394,-21.18407336182818,-4.392150330780259,-13.942626604174643,0.3072481395174587,-0.8754280070517492,-2.2284663226186763,-0.750196632850526
35,-7.144409098900605,-9.44030584128712,0.07781561296909799,-7.398517445621941,-7.8516526567515825,-11.354057079596041,-16.472707042890754,-19.04640586196664,-4.691764492090463,-13.608505469114599,-0.08129033890028632,-0.7286154218529373,-3.1311039004546593,-2.793062929805822
36,-9.00397295577873,-11.520718373895184,-1.596053771646196,-9.04317143673398,-8.129651982947923,-4.403776711259711,-11.754196785911523,-15.921600797011598,-4.747312274986702,-12.43606249448436,-0.7257415179434167,-0.7183514293881874,-3.7018904976779456,-4.611273493282281
37,-9.65192476922471,-12.197183173641697,-2.888480283577357,-9.54794406210188,-7.610823924682445,2.5442519004466946,-6.477028623005133,-12.044894225230202,-4.549314896860041,-10.433556198799884,-1.4286998221667462,-0.6426334441431059,-3.7494612011077995,-5.8373949322320575
38,-8.944273949399195,-11.361455696713556,-3.529589379212053,-8.792182834330328,-6.28786903528846,8.913297292816246,-1.0380766106463992,-7.6884652771097945,-4.105646243436322,-7.684146953372397,-1.9946721352284782,-0.3328764745733966,-3.180428700717493,-6.212277596632088
39,-6.948240567723821,-9.118129750627036,-3.3759050543961515,-6.842631068748699,-4.257528028110006,14.201304778575345,4.161777565025873,-3.146595423608153,-3.4425105873264403,-4.353171335382426,-2.2669254663122618,0.30930590240272215,-2.0190514948975644,-5.628624122150393
40,-3.934168362769996,-5.771170742634589,-2.4328689683493803,-3.9464793781968783,-1.712799519445407,18.026755371182247,8.752063264039693,1.2824167862295237,-2.603180509164716,-0.683090693531949,-2.1549120514223357,1.2907474976937359,-0.4054213851277976,-4.147676269228781
41,-0.33481744099074634,-1.7807537123645603,-0.8516174386651915,-0.4963222238512048,1.0789226522996778,20.161887172511033,12.425871777410924,5.317125853987148,-1.6444791359740423,3.024922658953539,-1.647702449760844,2.5244627251126137,1.4275703855178261,-1.986446737495056
42,3.32185306309174,2.303501970853286,1.0992300353655846,3.027992152084171,3.8091411040931473,20.549878827430316,14.968019947357707,8.715069412325224,-0.6313934643631731,6.44135133461104,-0.8116001531986322,3.8465563142033976,3.1945198104827934,0.5220363781464927
43,6.495988508834957,5.923207499566904,3.0818781523867167,6.131971647093043,6.168585355598005,19.30418568234421,16.274614409483366,11.293714355319134,0.3694570657070053,9.24693226217463,0.2269092507198833,5.048859263551776,4.608062589866654,2.988400461100176
44,8.722112050863158,8.593912330713819,4.749540178376299,8.382535093997845,7.889038634079246,16.69005698019701,16.36108447773694,12.947259660416075,1.2965631961136668,11.174022930869937,1.3090541216793068,5.92096462536485,5.430887824649779,5.0360579190001244
45,9.684619035325063,9.97753014483692,5.808307341626676,9.475792890018678,8.780727551266464,13.090179183837988,15.356983869075446,13.656394248310896,2.099500039331854,12.044398224195785,2.276810516854249,6.293628416087362,5.520092264600997,6.367743918298765
46,9.270279690954586,9.933543172118679,6.070206365136566,9.285913111771041,8.759785411302932,8.958187785266109,13.487515645358572,13.488784648079138,2.7432738166890247,11.797313003923328,3.004567258177023,6.075249955508575,4.855985025406218,6.817870253915434
47,7.589007573076281,8.54103739719209,5.48835441978604,7.887143186872787,7.861540109612311,4.765253074021564,11.043581792322719,12.589274921523371,3.2104428498234596,10.502861603671898,3.4233118101732107,5.274380796936273,3.550018409590436,6.381525810716783
48,4.9590229447102665,6.0878067866444,4.168008532423665,5.5450055561115645,6.237262242962059,0.9458716933621444,8.343903159172369,11.160317556379024,3.50076637690675,8.357700794289258,3.5327151199404643,4.003701154490791,1.8299920913821013,5.214924144460444
49,1.8580665084040997,3.027549806655525,2.351215119020805,2.677295282026979,4.134292604143082,-2.150770562357197,5.694088101356458,9.434741336290175,3.6285176928660072,5.662763279633577,3.398791629455044,2.464203903127035,0.004481370671781718,3.6069474885871338
50,-1.152345307810644,-0.08911332579006635,0.3770792926758465,-0.20989733926118614,1.8618429244816652,-4.298037114348783,3.3481901461106967,7.644305643004214,3.6179515487989677,2.785286407228081,3.1375070708724357,0.9118657260177203,-1.5880474938151894,1.9263584602448403
51,-3.518300943493335,-2.700118890985697,-1.3762810929039073,-2.602011267878287,-0.2531004631322278,-5.4131433280314685,1.4781324459415035,5.9883383387871305,3.497686453789704,0.10991219867962831,2.887333752223978,-0.38773984175799503,-2.6373206390642676,0.5534368956902901
52,-4.786522871870199,-4.321612068318988,-2.558888030767065,-4.059922179537547,-1.9137523865166706,-5.5599066679485,0.15537359357010733,4.606944452754497,3.2949118242471527,-2.0145825564074658,2.775863738258776,-1.2091556445770402,-2.917061777002967,-0.19243429347968943
53,-4.684473735581736,-4.628519838094183,-2.9142113637808764,-4.295200815094903,-2.898570480254284,-4.932652666675859,-0.6525246085492763,3.562761264332353,3.03034138706,-3.3254636900733137,2.8868288340033037,-1.4123509921695674,-2.3291882596297477,-0.1168148702194327
54,-3.1745696631429916,-3.5137179128001605,-2.33162976470118,-3.2248577085423866,-3.0966868050541025,-3.8234154170800614,-1.0699322203974473,2.8341021114221614,2.714715874716613,-3.685797286144205,3.2340319821791197,-0.9753520644934582,-0.9287013969244517,0.8054120365609018
55,-0.47310426035405406,-1.1161556540184439,-0.8767194989357343,-0.996326837593761,-2.5281396813559622,-2.576771720536558,-1.2875660890477474,2.3207597280167915,2.347434752676787,-3.107631499559673,3.7477310601478164,-0.007756891682624353,1.0755552612621224,2.4136559783327782
56,2.970466392907951,2.187572300249423,1.2067680541106385,2.0225186457364654,-1.3452361368707129,-1.5383040489748263,-1.5270768307833695,1.861972178127806,1.9175991475235121,-1.7545184556621605,4.27707053144952,1.2583524583798498,3.345426356493265,4.3772162063250395
57,6.532414331859331,5.828679728648594,3.525129100390263,5.28858585525019,0.18609988965597357,-1.0035559937761398,-2.0010415934352275,1.2643437345591018,1.4074076883107283,0.07798215315373627,4.609516449707309,2.4999815877893585,5.4605009640954805,6.241777015478106
58,9.504584197482744,9.123838650837529,5.590318801039659,8.159107046850389,1.7233273441780816,-1.1742889046239422,-2.8742448330695147,0.33609064241043524,0.7974979575962788,2.002133028825481,4.505314675980578,3.3534476475901354,6.9813452882936415,7.500700669286777
59,11.203090897291707,11.37534246218205,6.895687530057842,9.987902925714245,2.8982431165924902,-2.1278635855632464,-4.2318962142742516,-1.0769665077809711,0.07350819290399445,3.593533245422081,3.7422182710815086,3.476178733721984,7.5198462486055915,7.680814217590416
60,11.08048223186287,11.98037103720882,7.00105390113464,10.229215486028524,3.375235529736567,-3.803789638029896,-6.059378498612234,-3.05859930273563,-0.7671113732545897,4.455190170008971,2.1635677141346816,2.6107478341662342,6.80616888780072,6.429649929494646
61,8.824783996136583,10.53390050248429,5.614286290863826,8.534116175277907,2.9087128014769528,-6.009167494384699,-8.236433242758958,-5.59722798231235,-1.7091427460305957,4.281403648777386,-0.27836791287465706,0.6408892244531974,4.741915513369724,3.5902665019084754
62,4.429971470596939,6.909802159683544,2.6563629897948293,4.824682727071026,1.3911626642153472,-8.442237100507773,-10.546664599055394,-8.572674626302108,-2.715601009407336,2.9122278040269607,-3.491822230967366,-2.370133447476811,1.4306952423107577,-0.7489844292345571
63,-1.7742168988118074,1.306844759728066,-1.7013768685892479,-0.6665568271072025,-1.1159462964310023,-10.730903466107955,-12.701188087187335,-11.75715768679281,-3.7266351730928085,0.3700536426478418,-7.234397574126685,-6.16631905571689,-2.8197232994960038,-6.239197357696742
64,-9.139968856978761,-5.74950741422729,-7.035560193628734,-7.400185526748248,-4.374299545952503,-12.481248459280296,-14.373459584406458,-14.8314684536713,-4.661963140277086,-3.128127704385785,-11.125462014163178,-10.315020803267691,-7.525576664671515,-12.294875661832243
65,-16.766979733177642,-13.452869946304306,-12.707587662743538,-14.579058216226494,-7.986895190224572,-13.329883428323019,-15.241003399320352,-17.41551261755513,-5.427036075945437,-7.186166761711585,-14.682732900964055,-14.252286960302396,-12.083127832682413,-18.156189732571555
66,-23.609491821523946,-20.806065378791157,-17.936263078000444,-21.2392447892334,-11.441676171284357,-12.99365467722318,-15.029030327330602,-19.11064667736659,-5.922603861930569,-11.271556768708626,-17.379874076361226,-17.352966334622966,-15.845901690029589,-22.98283590479632
67,-28.612112522866223,-26.745823443817816,-21.898110339614302,-26.372672755295827,-14.176354395334215,-11.310670800002342,-13.550808888824122,-19.54964266335612,-6.056809838401955,-14.781324569752805,-18.718304607978403,-19.017065383009445,-18.2131087634087,-25.96776013299722
68,-30.8569750161164,-30.286701482457858,-23.842664786385107,-29.06617724700294,-15.656736993498331,-8.267762681317498,-10.740059230760483,-18.44882992600225,-5.758456295527097,-17.123173400471952,-18.303582024673673,-18.760840067670266,-18.71717101047779,-26.45546336709382
69,-29.702278370808283,-30.665148678737314,-23.207054458255588,-28.638328050358787,-15.458293762919391,-4.0111267667593635,-6.671470997142372,-15.656146897412782,-4.989729435619001,-17.801359759562782,-15.91518680298339,-16.299623946965173,-17.097872679195714,-24.048126866531703
70,-24.89240470119261,-27.46341789461578,-19.713331691365294,-24.754524146104583,-13.339409886297915,1.1611812591637218,-1.566588041460224,-11.18863748021566,-3.7565204644356704,-16.49543454955815,-11.558620396673344,-11.609729016315246,-13.35204588060502,-18.68367147444278
71,-16.622755756312177,-20.694639883604317,-13.433501352294591,-17.50269963638335,-9.29504690758369,6.824259533741406,4.21634508484245,-5.25346423411826,-2.1145745793625363,-13.120231548325972,-5.49052108593759,-4.9589510292693655,-7.750715381770818,-10.673049880980521
72,-5.547888885246098,-10.834751153707217,-4.810920343383592,-7.4164689454626735,-3.5814823195369963,12.466390300005727,10.20849386192331,1.7521566431243887,-0.1700594297407553,-7.857410030815804,1.7891734322707398,3.1009556353408843,-0.8198837911651602,-0.6891928661998108
73,7.271195115886473,1.2063664949638864,5.367711582589456,4.560838029851692,3.2937357838076315,17.54003419361672,15.87086769069163,9.264596419854033,1.9262501511865464,-1.152281677152076,9.579550158803634,11.781466025101075,6.713934785212051,10.293566000651476
74,20.47660219705569,14.17406292931912,16.048899143762082,17.169876909480443,10.617893880807689,21.51857931189743,20.645902792793567,16.600814284055048,3.9911823942850253,6.325827999810622,17.052129829362197,20.140258731581827,14.00740691204689,21.103936835928803
75,32.56799495299537,26.60948515168671,26.02971850114201,28.977206159072715,17.551440513669824,23.95298079132248,24.01560140694637,23.025434912421655,5.82689867802561,13.756403124876602,23.347246083406624,27.190850586785533,20.203055616004782,30.51004025144121
76,42.08342184175513,37.02501327759764,34.102213075927295,38.54869608859238,23.229785370108758,24.52232494028614,25.560478905937785,27.83157188745229,7.242403122505825,20.26561445397014,27.681500878603114,32.02554085262746,24.537766548757315,37.37086880587871
77,47.78372817296676,44.09245852458017,39.20662810613955,44.63252019205226,26.875852250193972,23.072814603859296,25.01284733239313,30.426466625576932,8.076375440237832,25.03714895152766,29.452155040579058,33.935757647526906,26.44279721015253,40.783291647237796
78,48.8164441186348,46.819210757279464,40.57326100658361,46.32748893328367,27.90830686671175,19.640677702832175,22.2978532591938,30.41131267459316,8.21842906614147,27.421423505923364,28.323993950965285,32.51344943377685,25.621724544406046,40.20492052729359
79,44.83698001474477,44.68820496434735,37.83342234661062,43.213465768480496,26.030085449960712,14.455995230023266,17.55634267277305,27.644228154480412,7.625828888899149,27.02809430686299,24.28594609837982,27.718979371977333,22.095403883363137,35.53572314281435
80,36.06996424652898,37.74166529192717,31.08347469893239,35.4248881485909,21.28379337923824,7.9263295606203314,11.14512178057036,22.276476294282297,6.333061257159182,23.788386540141342,17.668354989175455,19.90490421173325,16.207204126060006,27.146267115644644
81,23.301026576085807,26.595606907849078,20.891748805591387,23.655512144789547,14.064559048211436,0.6011529916764632,3.6124744651907035,14.7547471422437,4.452421777596778,17.977391021257443,9.116858219417583,9.790586110847691,8.586985733798851,15.847285330929187
82,7.7982912221766645,12.381115422371382,8.245576524261613,9.091488672492662,5.086520477606877,-6.879779249778555,-4.350309429111688,5.786370399624717,2.164893294508216,10.191670177555157,-0.4753649376572768,-1.6109292374989954,0.07779956101876828,2.802973298006555
83,-8.827900426316926,-3.381749507977866,-5.556282560951808,-6.720463063527371,-4.694473649327675,-13.849042819668128,-11.977484013287768,-3.7307585602839755,-0.2981149038022091,1.2835908141390655,-10.069460546261862,-13.105818838735786,-8.365653747356316,-10.601994065413848
84,-24.810232667860912,-18.962338395461938,-19.053037327867386,-22.054049117286677,-14.193073692401269,-19.67862375571258,-18.51058546697149,-12.80667298994594,-2.680289277309249,-7.740102455433791,-18.60448454005159,-23.458600134755173,-15.793861502021969,-22.925368705735224
85,-38.431658536488406,-32.627657289785226,-30.794406527645474,-35.21083161070599,-22.327435119741185,-23.84418234429154,-23.284138429004145,-20.474899927520156,-4.7302013338727065,-15.842735878408,-25.127019681891596,-31.539980568808964,-21.379505165593557,-32.83955212963191
86,-48.22852062502751,-42.85367899474535,-39.514217624694815,-44.7273808816896,-28.15553660784645,-25.979297726340487,-25.80484862533247,-25.910604635771072,-6.231620882376296,-22.088884295630947,-28.90994299318098,-36.46437048614908,-24.519359788996063,-39.291028167497814
87,-53.16374692263622,-48.512183778681326,-44.28257252558005,-49.55507246225132,-30.99638300649333,-25.913443222164368,-25.81389590138308,-28.535599158168026,-7.03036066417523,-25.764664033110247,-29.54456218223681,-37.69900176476634,-24.907744230599004,-41.62639408137445
88,-52.74810416705248,-49.00862632835922,-44.616786043577285,-49.18882219727776,-30.51935434874284,-23.68919001027877,-23.323501248915367,-28.095503421550156,-7.0539712055488115,-26.470685107114353,-26.993622284415093,-35.13011473606435,-22.571935680343564,-39.66868643945032
89,-47.0942406175532,-44.35294158429068,-40.536739063607286,-43.7277213351643,-26.78909166917821,-19.55648611180596,-18.621850557066136,-24.697550777561382,-6.321455121399073,-24.17471924248697,-21.597725859936983,-29.077246960491447,-17.865025043443502,-33.73423517890605
90,-36.897040995178486,-35.15412311854143,-32.557702830736474,-33.85958986877222,-20.259318111037384,-13.944530023784013,-12.24438436951732,-18.80255746867483,-4.941453827757397,-19.216529682380795,-14.03383554770069,-20.253515302881762,-11.417359437244736,-24.58814096774591
91,-23.34343802551376,-22.539593259345178,-21.622034338285925,-20.771649755603534,-11.716023892498663,-7.414422917441804,-4.913892976067091,-11.170748758723372,-3.098901527325715,-12.263818719163616,-5.230900556314113,-9.676971071414698,-4.053212783890773,-13.344567262420416
92,-7.963955568466372,-8.010408581689962,-8.97923964073781,-5.99939998677636,-2.177476018609842,-0.5980978254024071,2.5438347410215867,-2.767570527592474,-1.031723592644457,-4.224957658843793,3.7466066668510885,1.4553780130268181,3.3161048344128994,-1.325254074147166
93,7.554345735289928,6.748196351518113,3.9693759675429683,8.766038227727593,7.235481831979947,5.869320692700231,9.298514157298257,5.358637711973147,0.9994486566768433,3.8698794971558192,11.832132111339293,11.914352440020611,9.808459250567564,10.104986039264556
94,21.569178615582498,20.07570689284989,15.840826818347601,21.88649364149761,15.441280234108381,11.415809694824373,14.615499296046904,12.211044861920602,2.744572388237479,11.003197679174887,18.090043506991595,20.586997529977314,14.681098916752408,19.70425293736562
95,32.67290842465254,30.537248180018675,25.43315110654283,31.97385391154931,21.53248317563541,15.589721254277022,17.94450082552156,16.97276577931213,3.9960645373662405,16.302153546271082,21.830822733874964,26.607360292951913,17.42052082790685,26.499644015834537
96,39.84742463191624,37.09068659410726,31.86003373287324,38.050349799609926,24.885659246647418,18.101588534438783,18.98513873457754,19.11186141366766,4.614977806710946,19.15027518953415,22.693478037601402,29.45300421313742,17.80058094162963,29.89509496370039
97,42.56563781579315,39.19914685289082,34.64098569694054,39.65212099304595,25.23195425024382,18.846054821750425,17.720562162616126,18.448496237728953,4.547970769809426,19.26403442089157,20.68464983950684,28.995461478359772,15.901868347508124,29.72809655973758
98,40.828764617415445,36.87597282249392,33.73714798921188,36.86425724987285,22.679714431306905,17.902083974385747,14.414632850692003,15.175001935811304,3.8328195388688764,16.724288450469484,16.1697553972148,25.49922500120387,12.090684389272951,26.269514145662338
99,35.13731996741705,30.65852832793083,29.530388734315494,30.28502505712232,17.687295601527122,15.512355538664092,9.5731149361441,9.826105418123342,2.59179548196011,11.9588720680217,9.817994607617361,19.57093283451091,6.961430800613919,20.1684721293104
100,26.402479909389566,21.516832775321735,22.751030191576866,20.92656411794627,10.991105181837488,12.04529586660765,3.8742294269303943,3.203500621223117,1.0139033291774948,5.679337495522511,2.509207618698207,12.067088617407757,1.251051426718708,12.351539909655745
101,15.812004539444178,10.711512523534903,14.366191825453244,10.067622082381114,3.4999611018781978,7.945209536524802,-1.9218988298811586,-3.73473055765976,-0.6715038965784763,-1.2189490270397132,-4.784429135566897,3.974044641613275,-4.262277133952999,3.891259794101678
102,4.670226058333269,-0.3782226745803989,5.445465121256375,-0.9202359289748031,-3.8288355116066493,3.6772003981569883,-7.072556618364613,-10.004527236599161,-2.226058817177117,-7.779301118660798,-11.125738212447327,-3.7226958191855606,-8.862219717346175,-4.137380946783387
103,-5.7659332284716,-10.432687757526637,-2.977146376724538,-10.748800765552291,-10.11430287712849,-0.3261230038871212,-10.947113022296447,-14.728143700807276,-3.4343542517077617,-13.111915668790084,-15.731886949538984,-10.161953138885025,-11.98530916667948,-10.793039897182988
104,-14.4335675141468,-18.352228620619318,-10.026595177245676,-18.36836412622714,-14.660555186438346,-3.709775502431519,-13.104470465113115,-17.25030369929338,-4.13222254156267,-16.510441189641593,-18.07016380474312,-14.706914353075893,-13.288172382760004,-15.378990364172644
105,-20.57516482930074,-23.37988767271859,-15.080093241757174,-23.08237213064323,-17.035538941171588,-6.228382224122173,-13.34330808823411,-17.222633282561258,-4.2275585731165775,-17.541483481994256,-17.918137054938207,-17.009464448997782,-12.682812426165743,-17.515470308535644
106,-23.802669726037198,-25.172091891393602,-17.820043868943895,-24.60862651324402,-17.11049081477385,-7.762033906865281,-11.719078204271192,-14.645379209841856,-3.7110137134426955,-16.095611106358586,-15.381250280103462,-17.032061379567043,-10.33642624347007,-17.165793682694673
107,-24.10929332315001,-23.811033926620667,-18.242560789506445,-23.082113717587045,-15.056792660565076,-8.3152999768639,-8.52644427117925,-9.861477436702543,-2.655329840243568,-12.393902294647194,-10.866851034779124,-15.026701545035618,-6.637210081862001,-14.615327165644134
108,-21.831585683837396,-19.760756514202374,-16.624029039886718,-19.00290792105707,-11.303046134698029,-8.00095193161894,-4.250665810073761,-3.504688661226545,-1.2036712772958467,-6.950263449731477,-5.019587287956275,-11.476619688910226,-2.1322230835140608,-10.40900460285554
109,-17.570954055340806,-13.776600729921666,-13.453912459982634,-13.14004942589439,-6.460649463866007,-7.011888082163771,0.5043563300231065,3.5901808085642006,0.4511778185024256,-0.4957791390206673,1.3717907036833348,-7.011368712546322,2.5530001594866985,-5.258530535342852
110,-12.088753982313953,-6.783552821719461,-9.346187818911586,-6.407781252012786,-1.2301426593451767,-5.586101968827921,5.100665824295975,10.501890398356963,2.093665568791347,6.123612313133,7.482616692650995,-2.3091172119512664,6.801265410931256,0.06594680785890207
111,-6.191651952103434,0.2576643348842555,-4.943834288252761,0.2666944737066781,3.6974383312307353,-3.97012497047956,8.951392469552161,16.346000213799048,3.514533268449516,12.061473340709428,12.560314993548404,1.9990309698247022,10.08476190476496,4.8435982182902775
112,-0.6239041856915296,6.477527326574093,-0.8305415041192394,6.064985073469104,7.730190316845244,-2.3861397918440077,11.594795380739399,20.389747084154553,4.538050195801777,16.581383749300958,16.017685275690482,5.409205329260662,12.029509146323308,8.495117842211032
113,4.0193120999935985,11.200890749988345,2.5385860863003096,10.372836009003706,10.444226015709077,-1.0069747521470185,12.747643058823503,22.14322346699112,5.043771095455251,19.148787708030042,17.499590889397542,7.599219596516343,12.455258234910255,10.64761841313977
114,7.347788164476382,14.014347230280212,4.87953167127149,12.838195217933997,11.623938555581576,0.05836398341788152,12.331749642515454,21.415293331463385,4.980059070079356,19.492441026635337,16.915431090863322,8.451736000268447,11.386793373249093,11.165258649916513
115,9.1971520179207,14.79184175019264,6.092102983886015,13.38753829523074,11.270511284875953,0.7678101075281316,10.471604891649475,18.327979592046084,4.36787899249082,17.628399157030906,14.434936056574996,8.045753769090707,9.036875903676203,10.144170831231312
116,9.616084670298722,13.67911600735183,6.244757856144773,12.202463960922685,9.58036406006913,1.1390168538350758,7.465233805437277,13.289068673298093,3.2948000286367174,13.844999375292684,10.45008449886228,6.620890259853299,5.7651072192905675,7.875617647974459
117,8.826085477690217,11.043401387314816,5.5374172484502555,9.664164451043671,6.899393376870725,1.234318080481996,3.734061108427795,6.9284930407811425,1.9005289011929367,8.65280266480345,5.51051511951373,4.522685162202414,2.020154141671419,4.785666849804871
118,7.163334673944174,7.399116638320016,4.250837133166874,6.277279762491918,3.661785447201911,1.1413538190100005,-0.23988091628165042,0.00882257265874254,0.35641984743883753,2.7081494481117065,0.2430273938072221,2.1392792989569145,-1.725361675405342,1.3624031545213913
119,5.013668918993789,3.3226267416861,2.6921067850137135,2.586400529695991,0.32352581352905463,0.9531400741332547,-3.9798908913579965,-6.676739111890332,-1.1578873205600053,-3.2778176137274473,-4.732770132991124,-0.15992666758005913,-5.037669345385003,-1.9175140781039843
120,2.7512372006950887,-0.6307721587208827,1.1451739050120133,-0.9019719600596333,-2.699559236361798,0.7509888566404075,-7.074469848607605,-12.40446966793161,-2.4773490160639313,-8.63150457875147,-8.881008553534297,-2.0745249452473455,-7.573837546923545,-4.652254067590404
121,0.6893349494616081,-3.996348040023352,-0.16673414250367583,-3.781564291202959,-5.081112276653943,0.5927551717449241,-9.223523959774678,-16.60509839661868,-3.47087106409571,-12.798103089313688,-11.808708219461096,-3.405987390183463,-9.11674519365588,-6.5601482456900335
122,-0.9512348218355788,-6.447957334881708,-1.1028164552660464,-5.785810747193186,-6.615527472662427,0.5076152075501211,-10.265875411742897,-18.92332824954517,-4.05481046861773,-15.401643132933945,-13.301193449529228,-4.0704592870969964,-9.589865271324529,-7.502549898221471
123,-2.0544901701501415,-7.820772525880848,-1.6097159895184323,-6.802187588560359,-7.229058567053718,0.4972296581299351,-10.186133386174788,-19.245825543992332,-4.199307531122519,-16.2774714838585,-13.33130084369475,-4.09231713487502,-9.05191054283584,-7.4837175801562275
124,-2.6038348491837935,-8.109059237150941,-1.7118875675868126,-6.8630145034291115,-6.971772977403847,0.5419804208307797,-9.1020401709791,-17.696363502190998,-3.92723773504082,-15.475066370325996,-12.043751487413576,-3.5823433805738203,-7.67427425412669,-6.630738055569103
125,-2.662968795864963,-7.442911163760317,-1.4914525382195143,-6.1176258595706905,-5.994000058605361,0.6101956151089154,-7.236001002957956,-14.601378849208622,-3.3066062770082856,-13.23333559855961,-9.719317231281034,-2.706329090078489,-5.706336023834811,-5.159114938546311
126,-2.3487262753183393,-6.050327430256333,-1.0627508454910677,-4.792869662299346,-4.512668957069501,0.6680126573711455,-4.876294932998828,-10.432928456806382,-2.4380192593818926,-9.934101091683342,-6.72567532451987,-1.6506251500922333,-3.434841797742481,-3.331041524523788
127,-1.8017158521048862,-4.212171500210402,-0.5468101995916858,-3.149552089247605,-2.773642173938511,0.6877750168819642,-2.334274370260262,-5.73846148446556,-1.4393587979382314,-6.0418938171828085,-3.4628941867185183,-0.5906647528139249,-1.1436462539523486,-1.4134830974999726
