,AF3,F7,F3,FC5,T7,P7,O1,O2,P8,T8,FC6,F4,F8,AF4
0,-4.243429723842774,-3.1952746912464343,-3.8358759131542675,-3.2550020661245096,-1.8770018150164562,0.5672412245223755,0.25700821156389386,0.7429716388831858,0.4432711260760115,0.47685951761888656,-3.476703232983456,-4.605923401569252,-2.5202221631629453,-4.976884381293749
1,5.51315834764198,7.12987594427948,5.3676431209037565,7.273086713458635,3.5374278271993957,-0.8325413641505512,-1.1025187943972745,-1.0565504071153606,-0.0710206559939197,3.807052491229975,5.070172919610707,2.7003886603808254,2.429993713824179,5.450188870281727
2,14.38450651435335,16.80220674644413,13.64613451997004,17.06375838148726,8.739487239946609,-1.9926980848804734,-2.5595936878761814,-3.2350930246403875,-0.7965506423323943,6.192006372648242,12.519241765375858,9.062494016152648,6.669504301789897,14.765282018627595
3,21.243014532966686,24.840553407461,19.821926066742908,25.073148437299455,13.33729072422315,-2.785321180922572,-4.19228920647354,-6.012495859562502,-1.8394750185025739,6.853725115855228,17.66706674523707,13.301764364286132,9.377459287685697,21.56362030604144
4,25.237596694067804,30.448332932593154,23.01954941909023,30.47150175069996,16.984631581586697,-3.1372457395656537,-6.025001721270182,-9.47030698813596,-3.2396282815796735,5.286331839694274,19.64615759254365,14.571548516335682,9.967679928518105,24.78974803398563
5,25.900204478531634,33.10091324156124,22.780507505349945,32.73605712857361,19.40862585214364,-3.0376729188100486,-8.010018511239405,-13.512881710978816,-4.954227248812388,1.3474452821165406,18.047623670652932,12.481792701283835,8.178819875598416,23.880556340756762
6,23.199451988901025,32.59899901106365,19.118804943675745,31.703879714024353,20.431370963375805,-2.5374998431263136,-10.022747551807878,-17.859097812623766,-6.855098071527903,-4.7031169743201415,12.980106704867232,7.1577532398578505,4.118507745958529,18.842253224397766
7,17.535342738957272,29.08247041983335,12.51106427478957,27.579355891672925,19.9839895981228,-1.7404530622369883,-11.87186821055911,-22.067114190173488,-8.740381039503593,-12.223756419550554,5.057215042758707,-0.7747653501472552,-1.7448750881979604,10.25155930275612
8,9.677442192715146,23.004388330850958,3.8245014420546766,20.897326259459394,18.112060713050585,-0.7871379581339062,-13.323043922229097,-25.58920360811463,-10.359430769587183,-20.268624051313953,-4.684365152434527,-10.274684031541248,-8.641770101504886,-0.8183251919493464
9,0.6565747338224526,15.069948447316905,-5.8053393020531106,12.448637599737353,14.972099047849238,0.1659471857337128,-14.132508788376912,-27.848794179920343,-11.44756754404685,-27.7120804974547,-14.92439736178917,-20.028608725450272,-15.604212942621723,-12.936466424279688
10,-8.37387726647733,6.1493192409847595,-15.12865511232437,3.1794085825454306,10.819375523762856,0.9696377497631155,-14.085197826659373,-28.328241004652632,-11.765760635608789,-33.40318504838767,-24.236851372844523,-28.63087065817697,-21.597714854567293,-24.498822169711772
11,-16.28753844047962,-2.823992589070904,-22.94525554607833,-5.922054462469768,5.987939707037922,1.504334584655635,-13.031384617105667,-26.65405939203284,-11.1394662639338,-36.32898469867441,-31.281580576677026,-34.77540043627763,-25.664259081850336,-33.93431805581598
12,-22.12539755912849,-10.956609023716561,-28.255998361506936,-13.936227514341855,0.8642038802077769,1.69797437264378,-10.916085007965643,-22.666608310084605,-9.490819880687983,-35.76400410795164,-34.9841389868276,-37.433225811106105,-27.057014915689955,-39.90572032093693
13,-25.20917254422363,-17.488644319344115,-30.3824824311055,-20.108234069752484,-4.144115960647079,1.5369161670963563,-7.796668932075644,-16.46341357797822,-6.859193090805783,-31.385071079412555,-34.68000611394463,-35.99207967418518,-25.348604553649082,-41.47994774532744
14,-25.214499815033438,-21.867170181909614,-29.04113575939857,-23.918676588735984,-8.641527560940316,1.0678382469429573,-3.84594463705064,-8.409075624482611,-3.40665459014055,-23.33517642140701,-30.20466306927129,-30.340417418130848,-20.498393691351048,-38.246966401625336
15,-22.19685959390006,-23.793117770573605,-24.364821928585993,-25.123540777884823,-12.278271975585854,0.39003553878065944,0.6598865847856128,0.8905775544889967,0.5930885247052021,-12.22682204178576,-21.918463756655896,-20.886117315982286,-12.86977463645283,-30.37339696281584
16,-16.569765099872136,-23.23853870551818,-16.872486217500718,-23.76159898715024,-14.781119024613218,-0.36099477771146027,5.366901364140356,10.647450814795414,4.781425254846436,0.9166552275394361,-10.663994143638625,-8.5090720245392,-3.19500772947858,-18.58543711037731
17,-9.040911388476468,-20.43466695476434,-7.394082270786179,-20.131696676634796,-15.978696478233042,-1.0363315505839057,9.879465339067327,19.9760621150041,8.754216222643567,14.775047186476835,2.3375855487538844,5.54449138587238,7.50799429196058,-4.084526457586689
18,-0.5168769552128478,-15.834242312133512,3.0368314790042144,-14.745399568511166,-15.818756329416242,-1.499257542301756,13.802055609176874,27.9936282247394,12.108958053766699,27.88640459358952,15.637017967155625,19.810949417125816,18.056392997804252,11.592760449928376
19,8.009964324969328,-10.053785183470541,13.307436475559772,-8.262416265811051,-14.375196976868503,-1.6495769182836948,16.78177558061859,33.9225934650544,14.493691542742729,38.82366257085729,27.734402479228624,32.78162081092082,27.245385785550354,26.75277463494107
20,15.577671262165174,-3.8028294157426497,22.350901230540764,-1.4169289033355088,-11.843361767699589,-1.4424863008223012,18.546517683153677,37.182495907211845,15.651212947429203,46.370101666807024,37.260850628253095,43.07664097713521,33.995400523248705,39.739064291794556
21,21.360444168103495,2.192440226347221,29.258025881355156,5.057393441551693,-8.523114110132518,-0.8985945694730615,18.934392644132846,37.45942896426416,15.452618853702987,49.67096006732589,43.14162832789228,49.599417289086226,37.48510632002243,49.1199407716936
22,24.752756204722868,7.2639808869796125,33.364018351281345,10.497060753107682,-4.790394242605482,-0.10303898619791245,17.91116115670521,34.74420937893925,13.91550554966077,48.34146287823329,44.72100852287621,51.654211552189636,37.25372289598595,53.847979915173106
23,25.42449658333852,10.868732373082647,34.30340148232627,14.368012489576932,-1.0592876260172834,0.8065832923024656,15.57381577445441,29.334313339557834,11.204094449874713,42.517082468924926,41.834394607609,49.014832159317535,33.26003983131875,53.37404714658521
24,23.34376783628119,12.642187985946379,32.030591151813816,16.310945706552186,2.2620740129314503,1.6618517732803544,12.140011844299886,21.799187834706952,7.610915604428154,32.839270553671675,34.82024030452639,41.93893064880079,25.89098810049798,47.704177133217414
25,18.767837171041194,12.434561594580899,26.807815467853466,16.170582384940978,4.817383408702945,2.2914226991022657,7.924594017336665,12.913133009068352,3.5221420722407433,20.378242521966296,24.471939135168807,31.129067802895715,15.918843664945705,37.39442101536397
26,12.205940076581513,10.326644393664765,19.16524993216462,14.007765067448217,6.344725980115031,2.5507182311845606,3.305876498099134,3.5640358565576693,-0.6291028031876053,6.502558831777238,11.937191424577765,17.64769768905503,4.412408260044293,23.48577975860072
27,4.359898888090539,6.623722693633651,9.840243828382322,10.093987426126862,6.710632576004219,2.348495356633211,-1.3145186640545399,-5.350679961328794,-4.415457380347501,-7.287836829408023,-1.4215300539838394,2.7978461075254,-7.386959085491068,7.387790273155939
28,-3.950225113601748,1.8273172875352601,-0.29671881289990926,4.888521069127954,5.930891561864177,1.6657701449024265,-5.553703890366191,-13.027835995809127,-7.467151262701856,-19.543716459159686,-14.187609884521997,-12.01588564105292,-18.20945291963771,-9.275439625686884
29,-11.86788549951502,-3.413927994479994,-10.321951768587324,-1.0011032024679847,4.174525104377996,0.563720220895937,-9.086624188217712,-18.848918545098744,-9.51609416304987,-29.04045800596382,-25.05237511369216,-25.430417647976057,-26.90380120455012,-24.83942050151745
30,-18.582008273948624,-8.371112871694164,-19.337985012072654,-6.873667686022948,1.7490444857550078,-0.8210898870914828,-11.677679026113497,-22.44569809131773,-10.426361417817361,-34.92151361056883,-32.95960879772627,-36.256653800692234,-32.569670717178504,-37.77479680736296
31,-23.4027408619365,-12.314696590950431,-26.547307685837165,-12.001112916677753,-0.9327541518686899,-2.2938018231133017,-13.201183385084871,-23.732791793975963,-10.207036716037676,-36.79329596270544,-37.21630392769354,-43.58885223397673,-34.659947999841634,-46.84571236056123
32,-25.825546726576043,-14.599967710542693,-31.31643120950334,-15.703344533895693,-3.4018298141739516,-3.628338399382548,-13.648310777922982,-22.903224667467967,-9.005774745430774,-34.75975055938407,-37.558050235550624,-46.88169102443297,-33.04102619120445,-51.23479394099652
33,-25.579170139974966,-14.74986623037157,-33.22709661242816,-17.42499223433929,-5.192854045112333,-4.600504871238072,-13.119825821861085,-20.387926197259052,-7.084090865645847,-29.392819440111403,-34.163118981577504,-45.989530084568365,-28.00422798429046,-50.62226699561835
34,-22.653918296096883,-12.52566906559353,-32.11190281686872,-16.806567361694828,-5.908259749236595,-5.022163287456978,-11.805718402318771,-16.78489626753679,-4.777897673526993,-21.64339269988727,-27.615366177970603,-41.166123782438476,-20.22722438731471,-45.211553198926396
35,-17.307652579780967,-7.976024476723298,-28.071853268320748,-13.74149028190391,-5.2783485868103694,-4.771306941909839,-9.95456117515708,-12.767838136554866,-2.448833281611563,-12.705083670675062,-18.82183717469377,-33.02653007011233,-10.690125821357631,-35.699174505558666
36,-10.04799559333219,-1.456027907063976,-21.473584702718334,-8.410461170426599,-3.209174549782624,-3.813443788262805,-7.836787306387411,-8.986832210090148,-0.4331763607571995,-3.84924692402191,-8.895848071799998,-22.476021634004944,-0.556195431680908,-23.19244080665001
37,-1.5907006114438482,6.389418282193099,-12.924666780383129,-1.285926786806849,0.18922331982895624,-2.2109752300619308,-5.706922081214589,-5.974728429557807,1.0045584125993625,3.7466966396434156,0.9801053368912861,-10.6133541272496,8.96870491992971,-9.083762067422414
38,7.204020545176288,14.67993463203611,-3.226584365550818,6.897949875619045,4.59970443177934,-0.11901913161400479,-3.769968478930389,-4.0722037755989335,1.7069463288833668,9.154823512580522,9.695312207060999,1.3822648458636428,16.78124222894232,5.104970413671691
39,15.413201174679761,22.388986638523107,6.693084381967794,15.210531673552303,9.522582065417122,2.2319040700274444,-2.1566020145455953,-3.3819427171130507,1.6430929001903327,11.815618119491232,16.339231549165117,12.369805564311227,22.012929707278893,17.891105280813697
40,22.14446113968463,28.46050246997358,15.865325029289744,22.621180379711344,14.326860551266048,4.564022341888177,-0.9106281212259056,-3.75846396731762,0.9096401430411909,11.604660350390425,20.302493867641175,21.359326123312,24.133578589132362,27.99447119281211
41,26.632372526559465,31.940467806622014,23.374526926580263,28.118095735851853,18.32342313437951,6.587476847539561,0.009559667768106204,-4.83524510913099,-0.286607903586179,8.83855100023446,21.339011871733387,27.608093598640004,23.01308342740992,34.47672612181686
42,28.327608356224324,32.107695451382206,28.45443058461541,30.836354635016175,20.852027216123485,8.037714636565553,0.715790313265653,-6.085629468194319,-1.6618157619823009,4.219697031263704,19.582307956083927,30.690086228990577,18.933606722933263,36.84064639180039
43,26.96804402025185,28.586320636217035,30.57449815918918,30.179065985223744,21.37141470306871,8.710040524369468,1.3634926376155059,-6.909230820341584,-2.899199484463272,-1.272210746861855,15.514622278906279,30.531335548323863,12.55019207899176,35.077409376873746
44,22.621791221962976,21.423269271562702,29.505727432378883,25.91469827194831,19.540615680503898,8.486683360018137,2.1176937964443456,-6.731837027427061,-3.697771804552129,-6.527025171092049,9.89306335573311,27.40684938139449,4.804216351578158,29.655790359925764
45,15.694522010622315,11.11717766060104,25.356255677404725,18.235247124369632,15.279904755103043,7.352793432714651,3.116905183915264,-5.104681581368622,-3.8188624116076486,-10.46910127558628,3.642338930373796,21.898908715772844,-3.1998844891989937,21.454103721735134
46,6.897282075789004,-1.4091959401126959,18.570072093691508,7.76401721444626,8.801923537500791,5.3993274332500665,4.440624967509732,-1.7887253952003737,-3.123887032939175,-12.217731967809698,-2.2721917149799475,14.820959317772036,-10.339292108512202,11.6428589338633
47,-2.8241063783278726,-14.893755250767564,9.886485251756417,-4.492005855904389,0.6070150003231405,2.812568530066535,6.0858014303028645,3.188659238198133,-1.5980909090489956,-11.220955668125384,-6.974822507003101,7.115590489886841,-15.62048598673791,1.5325400113097334
48,-12.391658446246767,-27.869727588833797,0.26309854908527536,-17.242727749747836,-8.558612593683522,-0.14818399146107222,7.95639414660913,9.513678061066686,0.6430495424375,-7.3441481840773015,-9.796264906303495,-0.2613970827524495,-18.310749189079733,-7.594275187646552
49,-20.718604998402924,-38.83534365111876,-9.22984057685838,-29.05831448626894,-17.77828699228873,-3.181683783303222,9.868291599337157,16.606976891912137,3.365692451265555,-0.9008508555152888,-10.361561007577581,-6.4566710461252015,-18.036050242873248,-14.644838188354404
50,-26.83869476805384,-46.43781311539406,-17.531561337790738,-38.53854740578691,-26.065545256723592,-5.9804079619542,11.56955639085109,23.683995497674296,6.246193978913467,7.378935135585227,-8.637473981838466,-10.820266333715816,-14.83196738197844,-18.851057369319363
51,-30.024932913078622,-49.64770640298358,-23.714459537179565,-44.4868083877142,-32.4780886217678,-8.26617216748347,12.773613498861796,29.847913417556025,8.912541368468647,16.439277124682185,-4.9329747280076255,-12.978801774298523,-9.1403567574955,-19.859511018148023
52,-29.881942591623346,-47.90001073072345,-27.093741641784707,-46.06571003579088,-36.23087757454782,-9.821168261160778,13.200939262622663,34.203612602993836,10.99311295764029,25.03592016185122,0.14728339117288533,-12.871605215755903,-1.7516457050089094,-17.76489300313127
53,-26.399133999021608,-41.18173355046507,-27.308884559527197,-42.913021678435086,-36.793954633939336,-10.510632868972003,12.623376575179442,35.97792712354513,12.166279161825026,31.902763517122796,5.790203023503813,-10.745253857270095,6.300022543969311,-13.082847073009926
54,-19.95681341192985,-30.052559943626775,-24.36626057702333,-35.201292435009336,-33.9622572750502,-10.294564041322358,10.904623861975935,34.63027247468413,12.204298086255932,35.92497256571977,11.090256179303712,-7.10768767156913,13.875087173183847,-6.666505868515628
55,-11.283569023719926,-15.593831215589983,-18.637288971291774,-23.631807117793773,-27.888099982220023,-9.2274219751434,8.03081043165828,29.938710181289135,11.00576739961384,36.29547747858784,15.178277555716772,-2.648617390753601,19.881920132129885,0.4211521118121698
56,-1.369828863891275,0.7092449111367314,-10.812295167648955,-9.362216207192738,-19.071714412847847,-7.446377037137721,4.1263174151516795,22.049467166119342,8.612438954429503,32.633727496839875,17.34517927678631,1.8624050781633512,23.424632242213292,7.060928468494698
57,8.651563289131435,17.138108277399983,-1.8160501071252557,6.123884067826837,-8.310604961687103,-5.1501881285865965,-0.5480582102406719,11.482485809199913,5.208260391557268,25.05052676211244,17.143365930648535,5.685860329231553,23.925357081661897,12.235341611624289
58,17.64243194226032,31.942736846963836,7.304094486500632,21.18926055825023,3.386231790059296,-2.571996531481578,-5.615148861820353,-0.9088815915638077,1.1007948370555518,14.14989515206483,14.451713164586419,8.21473905448122,21.204418731566324,15.168849221975593
59,24.596328430217536,43.54914544923736,15.503146982890764,34.235370206359754,14.908689956020101,0.04996876955038856,-10.61778543158443,-14.02013104327866,-3.3126169263124288,0.9672037448990214,9.495083136292672,9.055550238241205,15.507480717229546,15.43113023094455
60,28.757950725171515,50.745820098877495,21.86072938787158,43.89011127506332,25.16694124292852,2.4996632692462613,-15.067402590654273,-26.61062032042399,-7.589725207684649,-13.148792670660955,2.815758579541637,8.077061810057362,7.475980473459713,12.989708926829987
61,29.709788652134787,52.825156672604614,25.68557329987137,49.16704986160274,33.20899396649748,4.604859788587426,-18.49910914058317,-37.438001577819556,-11.293749986952129,-26.695074938305392,-4.799037600133294,5.420755576099466,-1.935127821676413,8.205587895892048
62,27.415366960867555,49.66196660298947,26.589853412929795,49.57607939292485,38.3203334935881,6.250545451361066,-20.52650041633442,-45.39625388612488,-14.043157598585292,-38.19434752859004,-12.423188563848994,1.4725429636918792,-11.581141818148772,1.773720615851873
63,22.214338949897027,41.7195043885254,24.525159956289023,45.17206048358124,40.09412766536617,7.382866747345357,-20.889389491492494,-49.6409580774484,-15.554884647683167,-46.3729554469191,-19.11626432537391,-3.199188479936434,-20.276107859551548,-5.382091091991679
64,14.771097679445777,29.98308052507044,19.77703232005237,36.53630781237516,38.46449058900403,8.0039267111222,-19.488395313402396,-49.68691162861168,-15.675929289879567,-50.31413365269309,-24.04909849419784,-7.929449969562122,-26.94599037712799,-12.24404986147887
65,5.9846340376726435,15.830819069358315,12.92029613026139,24.69466399059976,33.70016037321002,8.15915748983657,-16.401848096162993,-45.46643176473908,-14.39968915888731,-49.56726651804152,-26.612843110183352,-12.053526951973005,-30.76596266632827,-17.845273960841585
66,-3.1277293410013964,0.8592113989639822,4.7422642383548625,10.984102277006013,26.36098186069529,7.9200861885469385,-11.882562485006124,-37.34132408862831,-11.86528840359526,-44.19959142014946,-26.496511541699647,-15.000689778847931,-31.26360632770004,-21.404078000230673
67,-11.556996160022521,-13.313272766180793,-3.8554224769423677,-3.1137781170479153,17.22411407952549,7.3659100423113415,-6.334432991940663,-26.066932666322984,-8.340181420690092,-34.784258540196475,-23.722671232205055,-16.371396101228534,-28.374641310992775,-22.4288912962626
68,-18.422890659186912,-25.2388584359711,-11.963359708977892,-16.150201218254136,7.190315589724899,6.567307981362842,-0.2712391916051862,-12.712290980907275,-4.188310818742626,-22.326882425021967,-18.637039249570673,-15.987373189503922,-22.44445469693045,-20.779664553422425
69,-23.072670955032265,-33.804857859697854,-18.76597120660464,-26.87472969794571,-2.817416072278322,5.575345974383948,5.737777193067736,1.454488860608561,0.17219963901957522,-8.140617555825145,-11.854373535200457,-13.908183623380596,-14.176211511414197,-16.678129929482118
70,-25.14641712001719,-38.3495925794853,-23.62606281162574,-34.368353989031604,-11.950348647649774,4.417286668018753,11.12934637189578,15.102412466090719,4.31662359307633,6.313676542544734,-4.169267878863944,-10.41294037261211,-4.533642985057014,-10.666762036675141
71,-24.601747555879534,-38.71664270592805,-26.143085132847105,-38.128729019178124,-19.514572176712168,3.0997743587481374,15.407470905882057,26.979723792044126,7.860717125429718,19.601310132063524,3.5546654566681752,-5.950992186070976,5.387327152285943,-3.5236439345800195
72,-21.696632039238523,-35.24280374817039,-26.179731025646692,-38.0990953422486,-25.02728237544155,1.618467102418199,18.197373031666242,36.045653408070834,10.501689537077786,30.479301417905333,10.50091650970538,-1.0698877060957983,14.4999932671492,3.8533866346363705
73,-16.934701045456773,-28.684098836373607,-23.8558926056621,-34.64026027514787,-28.244128479815597,-0.028034546032971713,19.285672000864036,41.576785470493064,12.048281538009777,38.03268246910064,16.004810005227533,3.667899751225976,21.861856379479224,10.575814500630333
74,-10.982416774892528,-20.092316186222984,-19.513315409686584,-28.452624858123098,-29.15698047916191,-1.8229585785731701,18.641966082655237,43.2360847975324,12.436602105053165,41.76491996776836,19.632226391607283,7.766583888235442,26.785159660223,15.887728189040166
75,-4.571003830420286,-10.660730567029987,-13.657931604705372,-20.461585446000413,-27.96527789893797,-3.718162287175773,16.419185459090556,41.097069425339214,11.730204996501463,41.632198934660295,21.22184772079012,10.864620245689617,28.90885911129007,19.265525107321103
76,1.6023373074036102,-1.5611193181880532,-6.889341354817929,-11.683877221214127,-25.027220874165724,-5.62605616426614,12.932612858625616,35.62092643797507,10.104881725774028,38.018989461591325,20.886056940795044,12.778156528895884,28.223715096785718,20.48004236057253
77,6.9599080880955455,6.205516303359928,0.17208195039774432,-3.0940381546273317,-20.799083906613884,-7.418967727973507,8.620038890195895,27.589929317101543,7.820558531794356,31.660212739305102,18.971804997248036,13.51416624289567,25.04900817781182,19.612871192158696
78,11.104192011165756,11.924934333653471,6.950563428414949,4.4909790262024245,-15.771677650916649,-8.93706183551562,3.987821486614591,18.005672981532136,5.184270393753425,23.522377913411237,15.988642237314371,13.251824717585828,19.966240628694447,17.025512803931736
79,13.846444101085858,15.238221204517004,12.964894555065312,10.494664916645203,-10.412450611717011,-10.004497330287283,-0.45062937719818275,7.964788182326139,2.5092446877147063,14.661331339242802,12.515855081898783,12.295701423642523,13.721115756626777,13.287089802555576
80,15.201115510318589,16.156108601466443,17.85821187719864,14.622417431985447,-5.120085927077707,-10.452051797018028,-4.236442206508119,-1.4725679075562674,0.07552533083186404,6.077044424204071,9.10359136697267,11.008859118024139,7.109267608773043,9.072528139106403
81,15.349472602227877,15.020199675461196,21.406445366820535,16.859260610976293,-0.19602171695814602,-10.1432105933204,-7.019374978190113,-9.405350097963304,-1.902746826636622,-1.4142030854566257,6.1835853700979335,9.737277969787671,0.8630732992175365,5.047563025035317
82,14.580559857559853,12.41980905014308,23.507879446674124,17.427980102611247,4.165499410157688,-8.999882555570226,-8.597679006386764,-15.190455157157906,-3.299270915890943,-7.2728018760406545,4.003494951271235,8.738620777839031,-4.443824822198132,1.758922832418126
83,13.221033125299678,9.079120112231676,24.159203268046898,16.71738759760285,7.870050537614426,-7.023607582266732,-8.938688453138939,-18.505812310305085,-4.084149741343334,-11.28187863221364,2.595145246971392,8.127918901626678,-8.460811461406253,-0.4527357459272985
84,11.566804730076107,5.732981939607027,23.42523111209238,15.194227323430425,10.901912954899066,-4.308428145681434,-8.177416215850853,-19.370330848747194,-4.31837034723203,-13.54145358825385,1.7816477303917873,7.850277993327068,-11.08505541948903,-1.5030734835521318
85,9.828661978289784,3.010443659208641,21.409862284891048,13.313791772854918,13.294542032665806,-1.0424970452448585,-6.59314981020585,-18.11882417685341,-4.135464984347187,-14.41348593886639,1.2221978654050956,7.686484500777238,-12.444712660116595,-1.5691880367311208
86,8.101176425722075,1.3430317840989632,18.234780009982433,11.44348184159047,15.098708002959805,2.503105571278198,-4.566826061108413,-15.335871326629976,-3.7134107274197796,-14.427969628754678,0.48727602034057643,7.292033793672006,-12.8451304506444,-1.0484819469202082
87,6.359794258118439,0.9102293442050797,14.030075931642129,9.810560621415787,16.354256517264332,5.998138003604314,-2.5244904686437284,-11.757988728140473,-3.2411867505726963,-14.166083567857907,-0.8480699013913031,6.264407214118056,-12.688410826748534,-0.4776726913983549
88,4.485745705883076,1.6283933163277202,8.93787448038505,8.48076908547959,17.070395837614267,9.087489564402908,-0.8741005537901104,-8.157743378810109,-2.88513528507473,-14.139819731227082,-3.108387367548504,4.228303012688132,-12.380816471086314,-0.4250138531741762
89,2.3132426769800434,3.1824617257467116,3.126719530046525,7.369084077029202,17.21769194976186,11.43223666456228,0.055954250705584116,-5.225946352726301,-2.760254610012267,-14.68796281232776,-6.435779371595635,0.9248362224891251,-12.244290565009972,-1.3735395232276957
90,-0.3107436190929926,5.09333218963023,-3.188374063267629,6.278588390883487,16.732819895633494,12.752393479676204,0.06815430299197536,-3.468436591732895,-2.910785801554571,-15.905670281286179,-10.736266507752031,-3.7108567841225155,-12.447514412685232,-3.6151315619067237
91,-3.466272353283337,6.808709522413397,-9.727128135625245,4.95902350490238,15.534905279110268,12.86561386770387,-0.8704804138266008,-3.1320827854125106,-3.303042910089772,-17.61956017343033,-15.665033127590732,-9.498266320499578,-12.968557341664866,-7.174028922482439
92,-7.112189390258001,7.802232700003717,-16.133787861040137,3.1737598699026526,13.550320474088979,11.716214797186664,-2.6177543012878095,-4.170680321010413,-3.8315773221914378,-19.41293541431179,-20.655111872250853,-15.997681446975873,-13.595805293349807,-11.774135531233028
93,-11.060251038787658,7.665151932236127,-21.98163662923021,0.763021145032745,10.741355386267736,9.389840438621516,-4.871195456983703,-6.255883212877625,-4.337730187175925,-20.69765726771759,-24.987203536625476,-22.539707136481702,-13.967344768416075,-16.857732433517526
94,-14.978105123065,6.176687250973466,-26.795811854863967,-2.307713720735664,7.133457272202362,6.110787430575396,-7.207572949344843,-8.831921707531716,-4.63771514536643,-20.821490108349558,-27.891599605651987,-28.2972086555623,-13.6423856004311,-21.65498594733494
95,-18.42247676545895,3.3430460743149064,-30.094447441110287,-5.922398766003415,2.8358161098878734,2.2212562605868524,-9.14261460905574,-11.206505576786034,-4.555878723792649,-19.19370764148888,-28.66764703085127,-32.391765098310096,-12.192715263502718,-25.295264225057075
96,-20.8984318616185,-0.5997811366869378,-31.44428936311232,-9.816458369880845,-1.9490585953361135,-1.8557229529973458,-10.203409967997926,-12.6649155051164,-3.957938157226946,-15.408372048415693,-26.80278227641336,-34.02057295903142,-9.29851909099186,-26.94409031736549
97,-21.935741771760387,-5.218727202252074,-30.523444896053533,-13.60589519299235,-6.929584395031004,-5.665568784493754,-10.003745958322787,-12.590639049459828,-2.7789268312320115,-9.344555230322538,-22.07245975882422,-32.585492998520856,-4.831791818737459,-25.944768260880572
98,-21.169995596555232,-9.945924769600932,-27.18151423276853,-16.838841802268874,-11.743983666679496,-8.777589894202281,-8.311616547318911,-10.574580423046628,-1.0412999508895635,-1.2259333324832693,-14.604483183179822,-27.804357744279923,1.0877908013641442,-21.942153885205787
99,-18.414793676980917,-14.160535800370884,-21.48652707042112,-19.061422300499583,-15.99239559990126,-10.839378200386056,-5.098599448407413,-6.496119171042799,1.1399336387304246,8.37180659046937,-4.89604124097221,-19.786138457728043,8.075518104030326,-14.968031250093222
100,-13.712343332160053,-17.277685356870336,-13.749110709911958,-19.88762530456058,-19.278732008868815,-11.622732183330276,-0.5627465849228424,-0.5630059973817034,3.5662850465319247,18.56936783853778,6.221533240750071,-9.056019253870245,15.507770733202587,-5.472857590075796
101,-7.352908608602137,-18.831529197522173,-4.517075854823739,-19.06234772248512,-21.257111202663534,-11.054529438252226,4.8800771047472855,6.697203731092222,5.978180309325075,28.283023056092325,17.667612684144196,3.476732430110445,22.589663585011376,5.703524865659584
102,0.14167420367211206,-18.54083755616709,5.4622647854487125,-16.50787895095356,-21.676706671050216,-9.227805049531892,10.637223958905007,14.494542227534566,8.08777586859218,36.3615254838899,28.23663647671132,16.606957444451048,28.455507405830712,17.420438574903372
103,8.069592274978932,-16.34840741794165,15.309865437716574,-12.346642341239551,-20.418702390766956,-6.390918062918328,16.00881830223901,21.876026793042914,9.617677048389789,41.741577405157706,36.745811372370184,28.968290727734427,32.28791924397016,28.373318083344262
104,15.62938793369445,-12.429623516048405,24.1057996267479,-6.896579849718707,-17.51981366177577,-2.9157554427400822,20.277570594626926,27.853853220787283,10.340070505864944,43.599396701254406,42.18617990574704,39.19747228619165,33.4380729267193,37.260594476332244
105,22.018054294295226,-7.16995424984475,30.992201066204665,-0.6396047888100762,-13.178437031992415,0.7510139568486827,22.807090349347718,31.544547642162783,10.11060611910779,41.47600693464259,43.856158786480385,46.10639976921777,31.5289102607131,42.957145501062975
106,26.533021413842427,-1.1154416317718194,35.27482532262599,5.832554177083044,-7.741726827551022,4.147044827412833,23.134971723309317,32.299115894161055,8.8920192942175,35.35733787986407,41.458756597567685,48.838151140385115,26.525257081911235,44.669502012814135
107,28.66341530503154,5.096265960047085,36.50926754833527,11.887614285099383,-1.6744440321511178,6.8555316445245165,21.04690660916162,29.805005642988224,6.763884306516157,25.69655240250171,35.14853785325787,46.98481855046248,18.7594002297315,42.05028983919065
108,28.157487567314764,10.81452860618308,34.559496785941725,16.927591233812937,4.487086937147965,8.559851864665717,16.620142125958925,24.14433934151728,3.916833983386117,13.37425874915621,25.521310827640118,40.649938232611404,8.907086795408317,35.25506882885208
109,25.05661910407944,15.453378677289711,29.619916168369812,20.459149131750877,10.190518154976871,9.083845434495524,10.228551286951527,15.798914362243613,0.6317871320077457,-0.39882228064643344,13.54746816762834,30.445878687651668,-2.0838719147470925,24.932939443772316
110,19.691215418656636,18.558336523932642,22.19711609698175,22.15024164930718,14.925800226293541,8.412044665888388,2.506918863235935,5.6000495351409185,-2.753132982916848,-14.223928170118533,0.45772963206720496,17.4256433150276,-13.103273741182353,12.15176664809068
111,12.639348171884919,19.85447764807262,13.053105943943647,21.86600796027206,18.279188004646954,6.687162070924464,-5.722006871044646,-5.370628031079681,-5.88354640423922,-26.681916546659565,-12.403428054116052,2.9577930382737043,-23.01175978329233,-1.7318124552247296
112,4.654298873865919,19.270773453962395,3.1172266620752014,19.679962322399266,19.976423044904703,4.185551461507686,-13.548496611944032,-15.91612699903539,-8.4320736485229,-36.50385635197813,-23.73707323740094,-11.438793028876379,-30.779473081255897,-15.239666550000482
113,-3.4285762767921057,16.939096362925508,-6.621676558446261,15.859993416432465,19.910033367041933,1.2746342323545428,-20.091222841210083,-24.876103486520083,-10.138042447327415,-42.72168773705113,-32.4408228499045,-24.27803184492037,-35.61126977128056,-26.953729940334128
114,-10.792638545203943,13.169588668163168,-15.228582304855907,10.832027732878931,18.14775064840333,-1.6410934465927627,-24.610945355854675,-31.274689867489112,-10.838334144916141,-44.77918595306231,-37.73207958485951,-34.28304276193714,-37.041644431737524,-35.68717671220778
115,-16.734794334506606,8.406894580415175,-21.92633660838923,5.126930444432591,14.921406469531393,-4.177295516196259,-26.606361048383295,-34.443476356369324,-10.485372750576373,-42.58933031095319,-39.228312494354,-40.532558154687806,-34.98698748386502,-40.62247521464673
116,-20.742148894946236,3.1737249745926537,-26.177243277365477,-0.6820179957395649,10.59801591878481,-6.021827909532693,-25.8784201891459,-34.1026651531539,-9.150127532325321,-36.53187889554317,-36.97547858202441,-42.55868898684115,-29.748950606134297,-41.39875285214221
117,-22.541380903271293,-1.990791832363783,-27.73250041427395,-6.043068149759772,5.636809077380649,-6.974163854223434,-22.55397661511164,-30.389622244928354,-7.010129796193174,-27.39329220223654,-31.422990205228864,-40.38460697193909,-21.969588184055347,-38.13843779601019
118,-22.11595472824797,-6.5905166141142555,-26.644503162190585,-10.483772466032693,0.5375098474422924,-6.966963553051272,-17.065612340906892,-23.83179162975703,-4.324567488057626,-16.258883135150207,-23.35084987506199,-34.49933175895753,-12.545519446286077,-31.411854420331114
119,-19.69091712511389,-10.222856348050668,-23.242236311211634,-13.656276253230192,-4.21396347712019,-6.067434858323568,-10.09090795817672,-15.268985343343665,-1.4002109231343058,-4.373089197459033,-13.760654283382733,-25.775516515160806,-2.5136617933530454,-22.14700103182487
120,-15.689355502067656,-12.61537300021616,-18.074876433595666,-15.365752206250889,-8.19607121649943,-4.4592875635991005,-2.4603031801934483,-5.7371737361313695,1.4469934565389657,7.0127238888804,-3.746298942680047,-15.343621931508633,7.0755902763035605,-11.498890346405162
121,-10.668038529172426,-13.645287487758818,-11.83263214230437,-15.579877666566285,-11.092812479925371,-2.4089922884469677,4.952900440550604,3.6689823264378147,3.9294728354221347,16.784871680800624,5.638068771467348,-4.441129207051073,15.280895836599202,-0.6976252454507371
122,-5.241922378309254,-13.340868158604605,-5.2562951708031935,-14.419594381047101,-12.721072427342284,-0.2222627355548383,11.344555264064502,11.93519805372665,5.819922226336591,24.086452696007907,13.496064946740905,5.742162089465469,21.372749987609737,9.103739793038356
123,-0.007910698924356793,-11.865813405002324,0.9522793522605736,-12.133536076358876,-13.041549409787512,1.8021380717735054,16.07800252512019,18.249117884723756,6.973774366653958,28.397456649313593,19.17922361304882,14.202349730294321,24.90447405411083,16.961639158073254
124,4.52246399419939,-9.489615902686511,6.207484982424327,-9.060239688358903,-12.152729120823912,3.4141578344202888,18.755515009523414,22.0885600466617,7.339960868910383,29.568361649814232,22.34003980979222,20.22617793482591,25.744221171692296,22.238650026816845
125,7.9737037453042925,-6.548339213004751,10.096182405482244,-5.5834051583516855,-10.26946593105751,4.443785156069879,19.254026142587502,23.266138768832977,6.959379297247393,27.806279350336645,22.94412177153625,23.450908588922115,24.066347866062245,24.654097249810665
126,10.13541993625363,-3.4010952147971514,12.407375000621865,-2.0859335250086213,-7.689574725438523,4.8179600991017235,17.721885151144665,21.92668746570439,5.952144352154129,23.618953333566793,21.243245637266693,23.87472964630817,20.305942571858083,24.28525268186489
127,10.968121574143938,-0.38769527051871383,13.133846265590838,1.09177366935753,-4.753191699331828,4.561606382916886,14.539214779964446,18.500836722762905,4.49610491326313,17.727010394350994,17.71603508289799,21.8201772389852,15.084907079411003,21.52273464930558
