,AF3,F7,F3,FC5,T7,P7,O1,O2,P8,T8,FC6,F4,F8,AF4
0,-0.1146676086837921,-0.4248042103783988,-0.1988892664984598,-0.056130312337194545,-0.18451458925730232,0.16962630918195482,-0.00991464570164816,0.10571994013371262,0.2313516701516152,-0.03462290660810089,-0.004224675902467718,0.4785242458649563,0.0024098323699624554,-0.00877179956453076
1,0.5599221096674893,-0.7613752786512125,0.5169939394012726,-0.5981890369832419,-1.0571122412854568,0.0601636379557648,0.5510230041299996,1.9744950978841758,2.4153319779484246,1.0167157290237474,1.3293857044654396,2.2736996507831053,0.960179907216093,-0.01625982910908324
2,1.260876275467129,-1.0123891165198058,1.3094000806069104,-1.0748379877978862,-1.8115301393934125,-0.054417561123500574,1.1216471498312282,3.684958588029602,4.351807968831326,1.9545658544309448,2.5472616955864833,4.014994489397609,1.8454590644868014,0.04587859514480648
3,1.9750719117711597,-1.1223503816188225,2.2014737227947183,-1.4320633643373604,-2.363341991291363,-0.15845506723096597,1.6942878508869161,5.115681346140779,5.850582520607775,2.6951238117537235,3.557847511759095,5.633560668440941,2.601282605528782,0.20775009545993245
4,2.6738246426870163,-1.056421963568575,3.180001879085287,-1.6297833293973285,-2.65403694197957,-0.23801817656969937,2.252278371159346,6.1715992933549035,6.774517025271898,3.1797743598263573,4.291367328301991,7.048158635835444,3.1805365577762674,0.47863188317550376
5,3.3107487741300545,-0.8068740559308212,4.188352493630562,-1.6470352846031746,-2.658245315879951,-0.28207388738581196,2.76810282295732,6.790682217109505,7.054312158185774,3.380684832166699,4.704566279196579,8.165309777362243,3.548475802670988,0.8424522028790384
6,3.823655506135901,-0.3954783558283281,5.128158209670412,-1.484824780996831,-2.386493739962204,-0.28349811806938985,3.2037783593841316,6.946961527554417,6.694273890854969,3.302118034438105,4.782265567361543,8.884171336205968,3.684351499660429,1.2576167784510641
7,4.140666137474819,0.12862099001613486,5.870063822441639,-1.166209341634447,-1.8831200225756406,-0.23984433088119392,3.5137007152289343,6.649896124689728,5.768538515640154,2.9774548530365355,4.5358836581376005,9.106175098459437,3.5821553520469585,1.6614362773461875
8,4.189946087369082,0.6953456674987611,6.272266684675642,-0.733543020902652,-1.2196571965267617,-0.15375128678086206,3.6497869503305505,5.940524084280209,4.408578736304602,2.4625518031028255,3.999481267779029,8.748483942885622,3.2505337196981747,1.9786640736085064
9,3.911757227013311,1.2235606156243617,6.204161838927241,-0.24317740065495044,-0.48463248600906955,-0.03287402757195071,3.5683477576377807,4.885220107032694,2.7840090188807025,1.8265857146864573,3.224176799171656,7.759437652109155,2.711957044589562,2.13298229863358
10,3.2709975637540403,1.6329889507638269,5.5713893725550445,0.24174576471699297,0.22877139414146974,0.11073841473618261,3.237774278339307,3.5680971707158227,1.0795749828206125,1.1418736141229506,2.2719087573436205,6.133536431136232,2.001248104439734,2.059772811439444
11,2.2681380477570405,1.8564332895443594,4.338136024723954,0.6595098953542131,0.8354499624756291,0.261825516364542,2.645888873890978,2.0831268709143327,-0.528369487346968,0.47424897774514674,1.20947869523072,3.9232595017455405,1.163575577413056,1.7182478848377176
12,0.9465267510844724,1.8504929247653745,2.5427452306437734,0.9579912224290301,1.2697163747064582,0.40357858510717365,1.8057315383891048,0.5269122149650202,-1.892667078490098,-0.12458438218871751,0.1036096188170073,1.2451928161419386,0.25201001993737676,1.1010304508343263
13,-0.6055838249310878,1.6031497590029684,0.30352262041861555,1.1017001751000244,1.4936657718063384,0.5196191136299612,0.7586594220388422,-1.0072333532845097,-2.9107494622409034,-0.6216813767637656,-0.9825550293783752,-1.721460969559422,-0.6752760332522751,0.2395661605084597
14,-2.259262182791886,1.1370181818711402,-2.187023253588752,1.076734567622728,1.5014179443619051,0.5960569587192832,-0.4260736122241985,-2.433605116349273,-3.5328261342318474,-1.0039659223065676,-1.991444747560436,-4.744962456564823,-1.5580952935787185,-0.7957174764183296
15,-3.8554862377842194,0.5076571225204134,-4.679582954816367,0.8929283516794808,1.3186889514081996,0.6233551691434852,-1.6556453961950586,-3.6768923309987143,-3.7622038792900563,-1.2759242953491046,-2.8718170956023577,-7.559489637615348,-2.337554666831979,-1.9008854025482327
16,-5.2212606832418444,-0.20295819167163096,-6.895401628315499,0.5828275572752811,0.9978164281988128,0.597730349482318,-2.82174363808289,-4.673794831116875,-3.6482460651763366,-1.4545533968795181,-3.578794533307168,-9.890492694419203,-2.959507559722701,-2.949200983055578
17,-6.189542466327172,-0.8970114366599072,-8.56031030570616,0.19753396256660846,0.6090156330062956,0.5218601362474716,-3.8116635304467295,-5.374010604352008,-3.2735316267951426,-1.562678983043784,-4.073820358833158,-11.48433195734173,-3.378041224194095,-3.8059062477480503
18,-6.620558592026233,-1.474082464532301,-9.440991565225435,-0.20012364259656668,0.22917732110220518,0.40474628940117585,-4.5211820480550715,-5.7411529426682,-2.737549263936066,-1.6220025803893965,-4.325132693766463,-12.138728559038777,-3.5588462009542026,-4.345293798698242
19,-6.421710160138362,-1.8452599782473433,-9.37848590837671,-0.5442552323237573,-0.07014344841171669,0.2606846567931834,-4.867596491521367,-5.754017647608568,-2.1396561629217437,-1.6472387501105183,-4.3091671890180425,-11.73013813286724,-3.482261165391567,-4.4678826992443375
20,-5.563244170812145,-1.946187183962836,-8.314102866842237,-0.7752965111047536,-0.2338009086284227,0.10741517545664118,-4.801153874455139,-5.408356399897162,-1.5639937093579583,-1.642465964511925,-4.012997332584236,-10.234257457371044,-3.145733033901223,-4.115389519411422
21,-4.087262341854105,-1.7472083536537157,-6.303761818533181,-0.84885739141594,-0.23159684819460946,-0.03634257719285289,-4.313184713300108,-4.7189822478900725,-1.0686012861862875,-1.6003779981611181,-3.4375692062126166,-7.73650637946425,-2.5653946519473974,-3.281375830990257
22,-2.108389668531836,-1.2591447610707127,-3.5182430093855364,-0.7427913622389805,-0.06305429064858581,-0.15363901703979255,-3.439597330592348,-3.721717172893846,-0.6801817786072296,-1.5045679861288972,-2.6011618859033385,-4.430432141175968,-1.7764599498885303,-2.0159391996057576
23,0.19454481962035816,-0.5337907682191516,-0.22868334869157458,-0.4614336524643251,0.24226632629288547,-0.231915491088004,-2.258959597587947,-2.474471651468518,-0.3949780325854307,-1.3344021273732136,-1.5422753778342153,-0.6034289666585261,-0.8321835978868968,-0.4235380615259811
24,2.5952917555007793,0.3410897637871742,3.2213537132384293,-0.03629832501503556,0.6289685706631826,-0.2650670941905061,-0.8851260475525453,-1.0566845303174628,-0.18517935878169478,-1.0715421793853266,-0.32106404157899227,3.38923516073666,0.1987678863407652,1.34609062161461
25,4.843755897816222,1.251761784635737,6.454053996269848,0.47701875710805763,1.0239558841119996,-0.2545840486149074,0.5448499084513522,0.4335259425025139,-0.009359916657192595,-0.7068379252462242,0.9814824097471903,7.159557865161271,1.2365427690297823,3.1130628427541525
26,6.693721534658375,2.072343396883485,9.101155131923255,1.0054721480808744,1.3473557811462764,-0.20954460626318258,1.8860795500434064,1.8848588668852202,0.17519377162392988,-0.24618804974889688,2.267161356596098,10.327325604293433,2.1957679400503465,4.686861859505415
27,7.9314459333337615,2.6807711482768015,10.847937179099835,1.4679779803741908,1.5246842364125943,-0.14541040635168845,3.00254437649002,3.1809254906274886,0.40067401879081743,0.2859171943068708,3.4271555400789393,12.561438063893636,2.9923151235738237,5.887961437960351
28,8.401609456861788,2.974914957782991,11.471870659706923,1.786433408860931,1.4985177075223954,-0.08176100287496124,3.7829982443300607,4.2104314815735915,0.679711178635629,0.846115726112311,4.351318028178714,13.617213399049756,3.550673552227284,6.5689564777460925
29,8.027330639003768,2.8867897061089787,10.871025293877993,1.8969003542895382,1.2379982689570515,-0.039266935698465684,4.154014341707105,4.878494758974589,1.000799001328153,1.3755742862192255,4.9393718295696365,13.365207495283443,3.811299899145528,6.632594366210625
30,6.821599697531419,2.3930015709349823,9.078603928796289,1.7594208296142975,0.7447890580033709,-0.03631807981956878,4.088496668409162,5.117796311217083,1.3290434023475854,1.8068591120371633,5.112821029775847,11.807982111876331,3.7372279582215504,6.044426388372413
31,4.888481371778466,1.5199931910740523,6.261682567655112,1.3650493631355094,0.054582245968615536,-0.08578535987840277,3.6085647210063776,4.898066771404782,1.612113286517255,2.0734371514645433,4.826070079463351,9.082603686760347,3.3191976337747318,4.838427177607027
32,2.413669740885208,0.34326697444148685,2.7041865426097282,0.7390080193829949,-0.7661267937884371,-0.1923960603630153,2.7824474924540876,4.232424787456542,1.7903255903299244,2.1204477449967203,4.07514625915592,5.448292613844021,2.5786217250878813,3.1147892640010926
33,-0.3547071721633334,-1.0195009199920921,-1.22393210580756,-0.06064289330377758,-1.6276314592269137,-0.3511435104000555,1.7157982056967465,3.1793323625218837,1.8090428910000853,1.9150624349113976,2.902556671896806,1.2603809469606453,1.5678568499363665,1.030077377428837
34,-3.132903362720046,-2.4207809482215557,-5.107671460449162,-0.9488301545869554,-2.4279974533117414,-0.5470298222388847,0.5385662883470448,1.839408532277748,1.6311270722424223,1.4546873480701827,1.3971868802716945,-3.0666325575088074,0.3674773764218328,-1.2191103290127263
35,-5.632876556267053,-3.6995755809339608,-8.533250125903312,-1.8231786702330657,-3.0659877762888725,-0.756264067308064,-0.6108619207686905,0.34699141034666814,1.2471443761167607,0.7714784883730277,-0.3112759349639014,-7.1028199920696125,-0.9194506251577842,-3.4170141916702415
36,-7.594401143263327,-4.69996855353669,-11.134207571802758,-2.5764402028119138,-3.4542031129943824,-0.9488309898501138,-1.602205174976009,-1.1429359111342703,0.6813526707513168,-0.0678919009978202,-2.0632142882977065,-10.448407568670742,-2.1757698389543694,-5.351611355121043
37,-8.81413212934635,-5.28964080333353,-12.63194955789012,-3.11006316892534,-3.5306760531275168,-1.0921408005600466,-2.328418483746305,-2.4711538501196455,-0.007843406485305505,-0.9676273174193244,-3.6843462051959532,-12.776022113447562,-3.2806646943007443,-6.836830236320044
38,-9.168145850795689,-5.376131742453351,-12.866089048861598,-3.347128311881169,-3.267367540627844,-1.1553030721998752,-2.7175683191970386,-3.492109144431603,-0.7334130795377445,-1.813020593361585,-5.003848279747406,-13.86481670014017,-4.121217373649832,-7.7315309349409995
39,-8.62528608006452,-4.918867929913523,-11.811212341792544,-3.2429152306529687,-2.674436522069288,-1.113463733902543,-2.740095312771227,-4.091161841711912,-1.3906773328419855,-2.484413185697043,-5.873329087536897,-13.622665982748007,-4.603983782656775,-7.953183718918632
40,-7.249774429794802,-3.935458546554549,-9.57834822541339,-2.7916404900971905,-1.7997254754544858,-0.9516189106341121,-2.4107478963069853,-4.198988179272241,-1.8723081062750602,-2.873194373257364,-6.18440839451344,-12.094040836716202,-4.665387920437874,-7.484893554748946
41,-5.192858072406896,-2.5014152351622236,-6.401226619296739,-2.0283873718940746,-0.7235440020446449,-0.6673770738961387,-1.7851637368702302,-3.8011946784571324,-2.085179235688374,-2.8977095537612247,-5.882693253299763,-9.452856242765145,-4.279751124047187,-6.37525756969512
42,-2.674602852513379,-0.7432222238578038,-2.609166266985556,-1.0258711669230378,0.4505474973828295,-0.27227456652928045,-0.9517321313295305,-2.9417049104203556,-1.966474939248262,-2.5168029757648345,-4.976264363816797,-5.9813332154674566,-3.463925085907582,-4.731393946490073
43,0.04187142426171139,1.174526653160815,1.41007406336817,0.11363014916495238,1.6077356161697716,0.20855979377647305,-0.019913812689814382,-1.7192013373666282,-1.4964326262226857,-1.7389006719336844,-3.537373240297648,-2.037518655101229,-2.2777885778196825,-2.706244737855822
44,2.680525643525084,3.066492363408294,5.2530775667424905,1.2701975037570337,2.6351709542118815,0.7383762370147149,0.8934323858534052,-0.27676310061883813,-0.7054894362497279,-0.6250406489159372,-1.6968412326809232,1.98462286506187,-0.8202785425703673,-0.48184549740264665
45,4.983237601601082,4.746478951446775,8.544250366819343,2.320536657213581,3.434715367227568,1.272183111462394,1.6779989238662987,1.2142677885928517,0.3256306158543764,0.7149780164377818,0.36845399284353353,5.697844658380582,0.7788880370618112,1.7493923821244945
46,6.737658050892888,6.047562495456512,10.975116901508299,3.152757467316729,3.933634387856655,1.7611293994748365,2.242586460752104,2.574356498580683,1.4733246040257981,2.1332319698210256,2.4537419338385162,8.76206837354311,2.3711447744360297,3.8032548516973583
47,7.79884914915704,6.840146323106514,12.335146822004228,3.679759253567582,4.091964215173191,2.157374866391072,2.524849526652627,3.6373529080482876,2.5853226124513324,3.460047986433807,4.3481693514163355,10.918117199797765,3.8035471574145174,5.520192273132767
48,8.102299420229333,7.045866521933976,12.530894067613152,3.8494932638824815,3.905755460789121,2.4188971072631382,2.497222784198064,4.270860993615881,3.4999620039952566,4.524217502289044,5.857745770094237,12.011112173909728,4.934313369760977,6.778100949448981
49,7.667014476868678,6.645747195790309,11.591621115365436,3.6507803989401104,3.4059531539188423,2.513725214339873,2.1685303864830434,4.3927592004960845,4.06797149721748,5.174532354932254,6.826707161018564,12.001233028511766,5.647745322833486,7.500373026906805
50,6.588624768816196,5.681667221931543,9.661146282938956,3.1139469725537277,2.6532361410345473,2.4231912155376585,1.5813213574979355,3.981671504862585,4.173766986260472,5.299829441774997,7.154714940232996,10.961108469753336,5.8668059447300145,7.65878433342782
51,5.023684462509879,4.250983679316755,6.977223581267122,2.306231081690341,1.729639433272714,2.143928968044338,0.8054758583254804,3.0799467967795797,3.753249885784493,4.844825070530909,6.8077821544556105,9.060717607787035,5.561811017156332,7.271414132745769
52,3.1674134123705304,2.4949775644469008,3.841175000035335,1.3226174060829465,0.7281622772900762,1.6884974135930018,-0.07096707832519496,1.7886815286612916,2.8055229578128436,3.8195020527208587,5.821586517687099,6.542161065606698,4.754100038497325,6.3963511587670085
53,1.2279229355018002,0.5825452771488575,0.5815844972016634,0.2733791728929012,-0.258224049190325,1.0846343159052942,-0.9525427889166843,0.2553805424797041,1.3967304836475731,2.300626259571699,4.29679343726084,3.6878171518879475,3.514144195851572,5.122371506791377
54,-0.599639571885782,-1.3088479156561432,-2.4835010418912127,-0.7299512890727451,-1.1467406747449072,0.3732418853550015,-1.7473317299978315,-1.3441609851495606,-0.34473246707498145,0.4250011882106312,2.387034653411003,0.78608920288861,1.954247933773285,3.558023997070285
55,-2.155650224049709,-3.012595809778118,-5.081319070074879,-1.5882653191525202,-1.8728935485511153,-0.39473007867169607,-2.3768978633148476,-2.827399868644877,-2.2412598548385714,-1.624830805496642,0.28111917303914785,-1.9009142545676905,0.21669458041421297,1.820597037731739
56,-3.3324049377465284,-4.39037159051052,-7.011998094669434,-2.2263739988184312,-2.3955996958525847,-1.1622861639201008,-2.7841164570572743,-4.027210576701113,-4.085849913930017,-3.6407221950551394,-1.818241077467455,-4.1638573004786865,-1.5412314289621811,0.026269223628443954
57,-4.082383369061443,-5.3454410316014025,-8.165897028544773,-2.600818123293367,-2.698913085049156,-1.8709970063254406,-2.938110909126544,-4.81181115692216,-5.666306644385888,-5.412393307803009,-3.716522701016149,-5.863836500385963,-3.1635284454916146,-1.7175993828996994
58,-4.417580503425142,-5.830346361462361,-8.52890331198046,-2.7030463494057235,-2.790414712236788,-2.465876515947627,-2.835886222354044,-5.0999125575865065,-6.790814916886321,-6.751312578749859,-5.24760956919837,-6.939547194910842,-4.511116709479941,-3.3175331020368586
59,-4.400385066765786,-5.8482235504084645,-8.175492332441577,-2.5577015205590237,-2.6967947142263684,-2.900115077580828,-2.500647175801201,-4.8692209361274035,-7.311636198608614,-7.512016227924776,-6.289783226084654,-7.403767785535252,-5.475016376780962,-4.6963488168572916
60,-4.127692406890458,-5.4478933207851,-7.250949688077744,-2.216469844026249,-2.457514591379275,-3.1392218395560403,-1.9771826190169501,-4.157335882081538,-7.143862723839458,-7.60826651744445,-6.7757634430312725,-7.330444525741626,-5.985628518922942,-5.7933348242915494
61,-3.710901412192078,-4.713705046074775,-5.945567160799527,-1.748580338987866,-2.1176447246809142,-3.164143653516898,-1.3250409608900386,-3.055120023169965,-6.27677751437623,-7.022158350055028,-6.695916655557361,-6.834910441393788,-6.0172483288485985,-6.562958860932738
62,-3.2550157219841114,-3.751788289638957,-4.464646186567406,-1.2294932927953741,-1.7210009132728268,-2.9730051163166706,-0.6104711377938354,-1.6936212451330004,-4.776317766851873,-5.805228459748417,-6.0946732906081085,-6.050628227673348,-5.587600249394645,-6.973029521714764
63,-2.8401615122068735,-2.6747845841177322,-2.998632097025822,-0.7295192157087087,-1.3045587561117482,-2.5812476967401485,0.10177829174086021,-0.22646553276041495,-2.7782975797079317,-4.071660434319238,-5.061072849209578,-5.106191565205846,-4.752839711869626,-7.003214352644112
64,-2.5084339956923323,-1.58724348726242,-1.6975895623480297,-0.30404303287454715,-0.8948419580369655,-2.020118294322889,0.7557368645467526,1.189808750388814,-0.4732492940921782,-1.9846669978011966,-3.7150695006739793,-4.106112558517137,-3.5990207216453656,-6.6446227625416
65,-2.258151608497718,-0.5736708700870904,-0.6535326422675211,0.0132825459388615,-0.506617201788164,-1.3336451749586125,1.3096658167544826,2.4148063881996222,1.9151795186771607,0.26206369247762984,-2.1916877128726115,-3.1182028883303956,-2.2314052902934494,-5.900831788773662
66,-2.0464474980016223,0.3092479597852506,0.10706271177521164,0.21350498912957921,-0.1438479942020791,-0.5744163754177513,1.7390614015246364,3.340228179225147,4.155535803977224,2.4654522181486387,-0.6252589912453309,-2.1692282315119527,-0.7631391038812236,-4.790320783302795
67,-1.7998194152883331,1.0353945696286158,0.6197532736724463,0.3112304243920066,0.19748016961804107,0.20138268711776838,2.0369331282421843,3.900745659612506,6.0344221257949355,4.434064994814568,0.8642171642522867,-1.249139947409431,0.695276201489456,-3.349847792582733
68,-1.4309736792226047,1.606855012040321,0.9684666143368412,0.3397189918811059,0.5253079574830947,0.9391290698905175,2.211469963949122,4.078596835122522,7.379758536698727,6.00670404724054,2.1810249315765975,-0.3227652904388173,2.044590834854103,-1.637914764166378
69,-0.859227030860409,2.0471506689985803,1.26406388426228,0.343114689344901,0.8470143816751253,1.5905537588401997,2.2815846904375388,3.9016142520710098,8.078694799235617,7.066618574691563,3.259115997288664,0.6534144140883171,3.202821275001077,0.26279231507757206
70,-0.031045498236589336,2.3914329620868755,1.6187198136103056,0.36711778347421253,1.1653071041550664,2.1176400618913385,2.2711423386142955,3.435312195685312,8.088143372035546,7.550070974491965,4.062807054289927,1.7126458414007355,4.108496371686248,2.2451669364337516
71,1.0628725507687822,2.6754688788483176,2.120395988356585,0.44962262485387333,1.4752116014171164,2.495205860316344,2.202885489073903,2.770454126657475,7.4368476070611935,7.448741554350129,4.583387269453834,2.861047437142196,4.721414727975589,4.180654609624309
72,2.377168715813453,2.9254159624577225,2.8117180211099284,0.6128347707235431,1.7626906158308202,2.711903831711757,2.0931287731327144,2.0080941453974472,6.218958842198934,6.806202279085139,4.832795475214818,4.06587669084541,5.021531638751611,5.926035215356949
73,3.8103257418942515,3.150238430400222,3.6769259657599713,0.8581491232708723,2.00516864440258,2.769575578371145,1.9481836881518344,1.2443674476127133,4.580152537998502,5.709351434065773,4.835866767370326,5.251473589823045,5.006770295265321,7.334032531493462
74,5.2130292617719265,3.338162011036936,4.639326920175039,1.1646449705092654,2.1739448256879563,2.6811214109089874,1.7631953248918373,0.5572621120272127,2.6982430929013894,4.276210590492657,4.622726693259993,6.304166522051331,4.690546434944084,8.267090227264376
75,6.405753745335238,3.4578652173695845,5.5700139667471555,1.4914922808311681,2.238187773251777,2.46726724964427,1.5236619717376285,-0.0027526278125878287,0.7609391657449344,2.6417903859977985,4.222725641432649,7.0858916469707065,4.099618657482896,8.612981802917242
76,7.203379492161766,3.464264906614638,6.306776033372859,1.783946392333514,2.169954887920263,2.152785463097677,1.2094335907370655,-0.4169909955399383,-1.056288012402815,0.943800871229883,3.660888298431795,7.454713139697556,3.272570548257683,8.300361298460427
77,7.44335459189577,3.307911780583003,6.680398580837999,1.9820280597005921,1.949499769711787,1.7628170116241382,0.8005266314675438,-0.697268598312815,-2.6093393954950965,-0.6901865844568823,2.9572721174310015,7.28910049798739,2.258866917569731,7.312014220880421
78,7.0131177449833775,2.946318236880993,6.544234098721177,2.0305366542420495,1.5700501647654215,1.3199184112208828,0.28373117053503416,-0.8795186229952283,-3.799251549294841,-2.1528872587433097,2.1289930645785735,6.511964684251331,1.1180973707407087,5.693528503575411
79,5.872361625069891,2.3551325879311733,5.802242798295018,1.8888056890181748,1.0412704248143194,0.8423134516130472,-0.34120975607908177,-1.0135713357562763,-4.579065062730487,-3.364012995142519,1.1941172508185278,5.110257852557834,-0.08118122212140506,3.555441600761551
80,4.066303037179829,1.5370361585504122,4.430803929115244,1.5386284320438743,0.39076814701088697,0.34359023765260155,-1.0570576673407335,-1.1509767524568386,-4.953320029908175,-4.273314338979551,0.17624779886437877,3.1464680431053993,-1.2636049341902593,1.0676403653037567
81,1.7273675019424566,0.5265870773409833,2.490476979980393,0.9890575930260223,-0.3367499437182786,-0.16620441847098277,-1.8271593385828293,-1.3330474753442334,-4.970765894791395,-4.86018719448049,-0.8914779769042085,0.7595171284991294,-2.3505854091397365,-1.5541809733319412
82,-0.935596581721884,-0.6100931140957647,0.12541148405162514,0.2772693237050076,-1.082753405715872,-0.678403704946756,-2.596737086111958,-1.5812223065076085,-4.7117911175035445,-5.130427886916018,-1.9641190465264076,-1.8457992652309976,-3.2654052696964295,-4.06901751026098
83,-3.6595599910251337,-1.7810167516151894,-2.449985777476619,-0.534706923767907,-1.7803354311358583,-1.1830471634134798,-3.297462900957793,-1.8914165988128202,-4.272721312227966,-5.110940516133626,-2.9851619833122696,-4.419882180983028,-3.939521732900111,-6.235881562869831
84,-6.158216466611747,-2.878713002179334,-4.975531376658859,-1.3669586297205745,-2.361255881438791,-1.6663704823940613,-3.8548485235795624,-2.2333141450494334,-3.7494292135700844,-4.843292583680843,-3.8895229509527653,-6.697274820024145,-4.319404486930137,-7.840945250648219
85,-8.157382369799985,-3.793789108204642,-7.17755842952244,-2.1313755813689013,-2.7637545798144605,-2.109122979642598,-4.1974969299853955,-2.5546968309722167,-3.2226309214092344,-4.37699568577862,-4.609047555359209,-8.429555349273393,-4.372969909410466,-8.722992161838144
86,-9.429983445495264,-4.4296089401879986,-8.804465451660962,-2.7426806184408616,-2.9401634438599054,-2.486229641315564,-4.266908990320752,-2.7900527116988174,-2.7468502977377742,-3.7632817638366074,-5.079755799605527,-9.41755665270427,-4.094572821542082,-8.793689395336743
87,-9.825718586065582,-4.715820650913727,-9.6604423919837,-3.1292694182498453,-2.8633259843241605,-2.7680612035249235,-4.026385716964129,-2.871993827293057,-2.3444007794882684,-3.0499818243173613,-5.24974752746154,-9.538304638140994,-3.5076074234317756,-8.049739301929616
88,-9.291220817329714,-4.618630570444283,-9.632537178800211,-3.2423863625650773,-2.5309446668394084,-2.923269348504778,-3.4676454196679147,-2.743562396403793,-2.004967379245226,-2.2779215501144083,-5.086550542587135,-8.762772200684063,-2.6640412362677632,-6.5749844487569975
89,-7.877872151235791,-4.146218679257635,-8.707173540113796,-3.062430293580526,-1.9672075452881466,-2.9228438286868155,-2.61407948610268,-2.3693709365357862,-1.6905782096029995,-1.479045185193757,-4.582766250733015,-7.161823678755923,-1.640612280890562,-4.531871278082291
90,-5.73616036702843,-3.348431203965404,-6.973727117600752,-2.6016014783951134,-1.2213656005133353,-2.744806305078105,-1.5200528931885335,-1.7437205827394566,-1.3450311687647218,-0.6762742629975583,-3.7591168319016917,-4.899372682252602,-0.5318903507226704,-2.14312622837612
91,-3.097336713670313,-2.3107487856318043,-4.6145900272405,-1.9026045303120447,-0.3633013423011518,-2.378808741105854,-0.2662374364044727,-0.8943361534240791,-0.906270255875312,0.11509041948023195,-2.664372134120458,-2.2135521759121155,0.5591349430078869,0.33415221930639155
92,-0.24488200549643346,-1.1433865655935969,-1.8830478982801364,-1.0336437432324233,0.52349623017842,-1.8298710251264811,1.048447268030045,0.11893405553210255,-0.3198499341349983,0.8847909725278554,-1.372072673280344,0.6116479529715201,1.5318891531668932,2.638724947978884
93,2.5203250118726204,0.03288794457205138,0.9280060340598106,-0.0804217280538634,1.350798823147389,-1.120575419942609,2.3172111933377892,1.210297320357587,0.44848161613352655,1.6243588211958246,0.02559553867230576,3.2805099601267194,2.2991623156958685,4.535889824084141
94,4.916412564986504,1.1021422539864039,3.5222313006417476,0.8637805571827967,2.0353402180388613,-0.29122260895479873,3.4366845805910438,2.278146249034637,1.4029084761484825,2.323759213058359,1.4260395398045478,5.52093481904365,2.796776335726259,5.844639655660065
95,6.713617001225437,1.9676245354375037,5.635945713976619,1.7086522683351286,2.5082040947026556,0.6022793336792344,4.317606931950621,3.2176060912873603,2.5118487941212875,2.968516756680125,2.725613240876472,7.116316329563214,2.9906821892405975,6.457792768956013
96,7.759752350821663,2.563005692673308,7.069322121368176,2.37670837767368,2.722752554242953,1.492710986334204,4.893528916563933,3.933624760006787,3.70736356248707,3.537848762077217,3.8289788821393396,7.929779726429021,2.8805013245996807,6.352537429118747
97,7.994883866613909,2.8589676826004173,7.708594564229681,2.8112776496767458,2.6600990428211673,2.3076271933254144,5.126485135208489,4.352698920122599,4.889952768391632,4.004212224330816,4.657421320096918,7.917738626199815,2.4989878829617003,5.590140833829536
98,7.453634093608041,2.8643380760312485,7.536534385482422,2.9817415880662628,2.3314110569931463,2.9765645532803813,5.0090886439129,4.431600672939655,5.9383237821221515,4.334490243052186,5.155254576707619,7.131259130402334,1.9074421902075203,4.305055424778313
99,6.25532566048137,2.6218306748710036,6.630159841374776,2.885535546198316,1.7767086842626951,3.4385128400958993,4.563052212710502,4.16198721638252,6.723057817749348,4.49282038561272,5.2937538661502765,5.705438544468277,1.1876633157146552,2.6850939669351575
100,4.583854900550868,2.199276435141026,5.146446241637044,2.5468553718882943,1.0602577975038272,3.6487163395828404,3.8346605652733516,3.5704445554369384,7.122561881904299,4.444825887990805,5.072386455463972,3.8386514223333172,0.43150061916837495,0.9455306773622438
101,2.66054625639599,1.6778839509692327,3.2984390160238095,2.012424378546055,0.26308653902367585,3.5839274981654845,2.8881163802041905,2.7142182025143784,7.039350069989977,4.162781290435406,4.517447105802179,1.7648481294572869,-0.2706184080479129,-0.6992503680776466
102,0.7140694346441427,1.1394560520129309,1.3254075708776247,1.3450147017471368,-0.5264751467231805,3.245422877749107,1.7979005529575707,1.6735007190476212,6.414599549625411,3.631060393115387,3.678483856790814,-0.27707442210914823,-0.8406823983302334,-2.062696114223882
103,-1.0482949148384912,0.6545598020189469,-0.5386489974097185,0.6156474113327889,-1.2230705804511697,2.6593836578251135,0.6412986848855464,0.5415789684719821,5.239085961758108,2.8511056627252622,2.6230969380557743,-2.0725793440234863,-1.2221884130386163,-3.008051530075999
104,-2.4641878325844586,0.273403499318997,-2.093800132317148,-0.10450533246157033,-1.7541289599888432,1.8745893854114661,-0.5079388670160158,-0.5856690304434902,3.558992250994208,1.8451425616597574,1.4307904261049509,-3.455610728965543,-1.3861747594245168,-3.4625816686538333
105,-3.4316321710389484,0.020664691435933188,-3.196535653737578,-0.7515327523996084,-2.067994576284012,0.9577133318419615,-1.5841733779817029,-1.6195084814157201,1.4756484915215902,0.657945534733188,0.18654974845154781,-4.324596696804612,-1.3334598437960357,-3.422447472551356
106,-3.9149116731630484,-0.10517511892466605,-3.7730357501798633,-1.2746967537057199,-2.139376624150609,-0.013211743698857895,-2.5324790501189063,-2.4861821100895316,-0.8610644007627778,-0.6438582950253464,-1.0252787184258756,-4.648720131846378,-1.092878185065144,-2.9480097355616888
107,-3.940876106818186,-0.12818716444421202,-3.8221720810193225,-1.6402902684678602,-1.971485836249394,-0.9563994302936801,-3.3094703538551937,-3.1321389935965804,-3.2651886848781935,-1.9751977009557764,-2.1263887303325903,-4.464334802199576,-0.715860792981053,-2.150709320505852
108,-3.5871034971862663,-0.08793776700940452,-3.4085973506673066,-1.8332064092588456,-1.5946683960088788,-1.7941435879625867,-3.8828806073319835,-3.526423360371221,-5.531878013195403,-3.2386034976457108,-3.0489622439085458,-3.862835704920196,-0.2682145672614206,-1.173836604501962
109,-2.9644597278927174,-0.030433676015363623,-2.6476766033994403,-1.8562986967626067,-1.061807369251881,-2.4600533751111833,-4.230590462253198,-3.6604206591971526,-7.457538202332386,-4.332469645350961,-3.7390992630878075,-2.972444367053034,0.17966048306551183,-0.1702872960676891
110,-2.1972248499578906,0.001251735238758814,-1.6850508870939622,-1.7278819401397154,-0.4411716095011878,-2.9049682159383905,-4.339796152722746,-3.5454894748697843,-8.860756557156382,-5.160781266875292,-4.159283487043249,-1.9370742524550997,0.5626772833873903,0.7193092992338689
111,-1.404026055154104,-0.024962021089096283,-0.6741623934124499,-1.4779093212802281,0.19230413447197084,-3.1010049409169858,-4.206821137306546,-3.209201971008522,-9.601711916084522,-5.643303755064724,-4.289986508594056,-0.8956064029118797,0.8296719782431368,1.3849472611374316
112,-0.6823551085591901,-0.1247194252621048,0.2449374838477104,-1.1434477637816538,0.7661643896576589,-3.043404448157912,-3.837756677070963,-2.690959683861645,-9.597888687989856,-5.725072997631601,-4.130490132366824,0.035467230886872585,0.9495399572436138,1.7596668170994458
113,-0.09857567885729748,-0.2951610444450218,0.9626794828081092,-0.7640647667343078,1.2188577613702678,-2.750077410915191,-3.2497477963626467,-2.0376560197804623,-8.834294452218389,-5.383998754448403,-3.6989314221380347,0.7738886433200113,0.91414101020795,1.824686816967956
114,0.3157688592601093,-0.516347394071324,1.4110204873855952,-0.37765324521757426,1.5064399039362468,-2.258977031086444,-2.472417770518356,-1.2998547105783256,-7.3669432616970445,-4.635503235992534,-3.0314836693715574,1.276905443093833,0.7377459158018788,1.6071010606138445
115,0.5616454154921813,-0.7556749830275499,1.5675574957321288,-0.017081856419037516,1.6068139861983797,-1.623634505179147,-1.5487323478360833,-0.5286972319971293,-5.319048084074153,-3.5333691061497245,-2.1805189309685646,1.5400536316867697,0.4533375361642131,1.1711413183532826
116,0.6654523997620282,-0.9743056824125006,1.4529039994709185,0.29210460305836855,1.5211059699560883,-0.9073651970649486,-0.5345959814959043,0.22649453175746892,-2.870103496783564,-2.1663580582072037,-1.211590826844459,1.5905458965353776,0.10653733751272236,0.604912109919365
117,0.6690301094659759,-1.1343621630486376,1.1224497460257552,0.5328700142577243,1.2721433001540807,-0.1767770804323859,0.5033470414937432,0.920130104697777,-0.2387806905781341,-0.6506563731564227,-0.19915471525366799,1.477078908223513,-0.2517701066818381,0.005026100229423509
118,0.6188616216805024,-1.2056108805101093,0.654291795496515,0.696828737697425,0.9003649915216808,0.5047266032413225,1.491902424959083,1.51205000722448,2.3387495152388613,0.8812433704414602,0.7788914726511201,1.2582105716429457,-0.5729347764534952,-0.5383429566476028
119,0.5564279342445917,-1.1705406874378768,0.13546595495086888,0.7835172819333734,0.45779652368089707,1.0827751063389905,2.3572942128537595,1.9692297359883766,4.632864662196831,2.294081198564241,1.6475354127447384,0.9913974114182131,-0.8170673040189571,-0.9537942825204095
120,0.5112266534227082,-1.027096258062587,-0.3513892036208048,0.7990301599206903,0.000940012135289752,1.516610945715432,3.0323010502143406,2.2675572770979633,6.444308678349314,3.464223171835604,2.3413005328753718,0.7243766552395986,-0.9577448206118839,-1.1968596155436098
121,0.49730339865775064,-0.7887675232607277,-0.7391026258744943,0.7542778925826414,-0.41646487804743815,1.7820130562734586,3.463640430284154,2.3935698602699587,7.625044704932029,4.293119002244985,2.810485956436392,0.4899349250604763,-0.984395525961487,-1.2532347111617226
122,0.5134140145220711,-0.48218868725313085,-0.9834693695566576,0.6631169646117749,-0.7498721927841006,1.8723604448421818,3.618518912917017,2.345876420996711,8.093600568974662,4.718065429057614,3.026185346892108,0.3043648741074091,-0.9022464880832378,-1.1371636184251546
123,0.5462670202722641,-0.14278919896445802,-1.0665293034287144,0.5405690655258341,-0.9687563915120355,1.7978523946765401,3.4892842778190567,2.135904492708053,7.842907902617537,4.718816794661447,2.9833345869886325,0.16921517685353343,-0.7300813471875464,-0.8857842234883456
124,0.5757994111069412,0.19069093557998454,-0.9956613052891533,0.401297233019083,-1.059284774415766,1.5830970657952774,3.0953173533966836,1.7876187416407425,6.939498472058782,4.319115120125646,2.7012410932244593,0.07540633817032785,-0.4963447298469606,-0.5507644709765236
125,0.5811856101063116,0.4818884675002066,-0.7991373335332038,0.2584463925022614,-1.0246070492922248,1.2634317737729597,2.4816621358239117,1.3359652503614476,5.51401243491801,3.5828970951554937,2.221365519053381,0.008490607962820744,-0.23431551799837397,-0.1888171790968182
126,0.5462920009872336,0.7018085240156076,-0.5192299766089318,0.12289244489649256,-0.8828791428645372,0.880438248480095,1.7143650127326604,0.8239848729130567,3.744147805825106,2.6056732081142466,1.6025108836204498,-0.04619412869637949,0.022865553837778406,0.14733152229711763
127,0.4635413066271289,0.8323952408599435,-0.2042013707377823,0.0028843145492693798,-0.6634527637102007,0.47716882982336406,0.873009547128675,0.29877756877677636,1.8322579977390585,1.50225239898453,0.9139612829434806,-0.09951137878721801,0.2465870918332216,0.41619682209029357
