,AF3,F7,F3,FC5,T7,P7,O1,O2,P8,T8,FC6,F4,F8,AF4
0,0.10755241196391907,0.4738108800318914,0.05760268010233712,0.1272695039912386,0.5336826203615709,-0.09223873088266435,0.29911863451576215,0.03169258866667975,0.45935180092602274,0.11336384275735595,0.0945620164311287,0.3734081263425852,-0.309817021849068,-0.25772250183063244
1,4.707912344042755,4.059773525057403,3.324416465919885,2.0141368984906642,2.519734190635874,-0.7859714112770759,0.7667299207757143,2.4273404921445487,2.9595802592933853,3.636564722487715,3.207827721103252,5.364815242805359,3.5708086729802972,4.5508638755407445
2,8.787555435618362,7.199199052572792,6.234399507260015,3.6813220801956037,4.276343121618196,-1.397274117177767,1.1387250456457818,4.619967899834976,5.26758585448096,6.829880456724938,5.9920983280175415,9.787963634592753,7.05395489278938,8.859236320501244
3,11.904568790988394,9.52531405429433,8.471088124820534,4.92766261691047,5.595027754878004,-1.8981302398629203,1.3422885114329361,6.404926364541808,7.179651102323574,9.363516583998198,8.131217475929892,13.16837587811156,9.75290500891268,12.21325969803339
4,13.724085421157175,10.76372786995825,9.791805186581762,5.601875981048747,6.316178119914115,-2.2673697523341163,1.3279818331612516,7.620898889736886,8.530975907424658,10.981038599130263,9.384381631843446,15.147415981462393,11.373120881607328,14.265453727623944
5,14.058571970475962,10.766517218655709,10.057867820248738,5.6220680884585725,6.349120591747876,-2.4907229510472058,1.0791831923223631,8.168136922172705,9.214818797117212,11.530817266723862,9.616915393581708,15.52516968625242,11.74880283096467,14.815669101748894
6,12.891037326668126,9.53139703974936,9.252763715381736,4.986539507301663,5.683742967134396,-2.5609722697110056,0.616935971927466,8.019165624045401,9.194145115088075,10.98411097998063,8.817518456861947,14.284771593633712,10.863257852202565,13.834599181981416
7,10.378014574829734,7.203391850002009,7.485722583467058,3.7744285233408226,4.3921856088036835,-2.478233226262268,-0.0007659860957463407,7.220570513996992,8.504235183175945,9.437383073044822,7.0996162859644985,11.594902008376403,8.85037287971616,11.46706314508578
8,6.8315915092466355,4.058536394233774,4.979862837891812,2.1360495914844266,2.6203765189456147,-2.2502785805755825,-0.6854634551138669,5.885649592685165,7.24601394648147,7.098620854562968,4.686583584333531,7.789826467805771,5.976983730150417,8.014433136454798
9,2.6823467217043264,0.47134942828335746,2.0460070223137192,0.2741243509059645,0.5704779530799085,-1.8927370543062694,-1.3298607230786221,4.17893148082025,5.571194763580454,4.259601304450134,1.882780536938766,3.3291361631133847,2.608448789424307,3.8981347748574717
10,-1.5725254881758577,-3.130126342591348,-0.9548953784224946,-1.581712165240665,-1.5235425768682604,-1.428960336572971,-1.823176134787901,2.294657353355401,3.6614908853348833,1.2579312168728973,-0.965752514038051,-1.258074509577132,-0.8380601444920912,-0.3914844297685404
11,-5.429660137286004,-6.316298845570298,-3.656256310333575,-3.203868300601936,-3.4241448794421014,-0.8893632161927284,-2.0681485892991542,0.432146518404379,1.704966167064768,-1.565979456478634,-3.5157163069592032,-5.437814370580054,-3.9464429326716206,-4.35474305357945
12,-8.441078700896702,-8.708612323138961,-5.731742377767683,-4.395496105162455,-4.9187138235059376,-0.3100981526720636,-1.9972500795115697,-1.228613326607448,-0.12705510287653646,-3.911248379963559,-5.470197729598157,-8.736575133068646,-6.3538496030543214,-7.543342323678227
13,-10.26911353840074,-10.02614716653076,-6.936721861867827,-5.015240181993563,-5.844767959252271,0.26898382785934155,-1.5856065738424963,-2.547862027007268,-1.6992753511159708,-5.552586718101041,-6.615782343390253,-10.799235222341446,-7.7954112641351765,-9.614627710450188
14,-10.72766482966678,-10.120284261903022,-7.139825454778021,-4.994843827996636,-6.108760097326916,0.8070252609530618,-0.8584488214275463,-3.440687168211211,-2.925333223269978,-6.365480704037562,-6.848292546987635,-11.432053973968983,-8.135813665271222,-10.372515132426056
15,-9.804399544338379,-8.992915720184206,-6.34032325030161,-4.347342266491147,-5.696182783440288,1.265333881601492,0.10841899564449524,-3.883538105189688,-3.772813551014848,-6.337431474262935,-6.183874269676784,-10.625119964771544,-7.383780244009045,-9.789807471944098
16,-7.660894843271826,-6.795740881448024,-4.668774954040401,-3.1647965455916474,-4.671816443202582,1.610753767320691,1.1957014907120362,-3.912003786205138,-4.260101506924107,-5.564146993830032,-4.7541548337708575,-8.551197837121723,-5.687814178587729,-8.008961514921644
17,-4.610574877097686,-3.8106189162193163,-2.3705675924105383,-1.6058910014072731,-3.1702314871792945,1.818868839449073,2.2547130084739098,-3.61051157885308,-4.446094467324892,-4.2316440769524775,-2.7863523794376874,-5.540968175366704,-3.3140310559118773,-5.32114374840888
18,-1.0772145242028903,-0.41343867303400555,0.22576761033620527,0.12495068022292258,-1.377907288852992,1.8766239597456433,3.126866517197319,-3.095775614855566,-4.414845659177321,-2.5871012311075647,-0.5712288429250065,-2.0377771688679305,-0.6092563717600561,-2.1262683193137093
19,2.4606179608626326,2.973831413563574,2.751488315411326,1.8041626775070452,0.4906105245082733,1.7839622267463395,3.6659996658216865,-2.496689746288455,-4.257890941727876,-0.902738687912918,1.5766391346823954,1.4622207391923714,2.045555841895565,1.1207545895235584
20,5.531905114437266,5.936652346047369,4.846272878336299,3.217838785113742,2.219370588434272,1.554163284456345,3.760406257834564,-1.9337849537418128,-4.057205025192162,0.5622013940113045,3.360858825034771,4.476626099178466,4.285355672487822,3.970475471965856
21,7.734111050196367,8.119968178746284,6.206154284791467,4.188965103811454,3.6170580718224663,1.2127237355093567,3.3513146329767745,-1.5012971841994134,-3.871435874671458,1.596235619387592,4.541900254116397,6.601192464017312,5.807937542326146,6.038072212646991
22,8.784693369773551,9.272004292411795,6.624383682805337,4.5995577415893445,4.5391538241192215,0.79482899887861,2.444926352139511,-1.2543533704184537,-3.72735435369128,2.062687184800409,4.967455233652875,7.563422962194401,6.411805854558741,7.053404967630494
23,8.556482149308751,9.274167384300831,6.019749164765514,4.404900921627865,4.903545531817798,0.34169108215100663,1.1159569352398702,-1.2028963608661971,-3.6174864100336652,1.9157326537586696,4.590720719548145,7.25815038517659,6.0203199470066195,6.895377605080316
24,7.092409254754541,8.153330381641133,4.44851973924831,3.6381663014220713,4.697857972107055,-0.10377999908882171,-0.49821842373695624,-1.312900841871385,-3.50386673411522,1.2037679609695815,3.4745427286173327,5.760298904134654,4.6893697580729965,5.606154721769198
25,4.597856745073116,6.075194572228828,2.098344140918448,2.4049843332717176,3.9778933220513255,-0.5013902029866061,-2.212393808913208,-1.5143595275508652,-3.326951929521006,0.06011512106166124,1.78124121879162,3.313099651990698,2.5980135839548915,3.3835000884901643
26,1.411879983283574,3.319967145574138,-0.7351812210194151,0.8688518587357851,2.8577293621012783,-0.817576700931569,-3.8156359716200123,-1.7145944031719917,-3.018082064579717,-1.317321699468282,-0.25024032595500084,0.29335387535652224,0.02367859141839139,0.5524307495273767
27,-2.038653741984854,0.2439209746914798,-3.686265533552858,-0.7705786979613586,1.4930582545541211,-1.028348794755987,-5.097901653804899,-1.8147809957056167,-2.513529555579305,-2.694542981510192,-2.3366716470487496,-2.8415388201543617,-2.6945852225597973,-2.4798689116774226
28,-5.2957573317730935,-2.767799240442927,-6.366086190157971,-2.303419672425221,0.06013221235081634,-1.120972349972809,-5.877714408237052,-1.7272253976740597,-1.7681080830073848,-3.8342816756652014,-4.188069340545022,-5.617568162685241,-5.199914572995249,-5.279718244745795
29,-7.930241317434631,-5.350725672607781,-8.413192461732454,-3.536300902125097,-1.2668701361868826,-1.0943446276481696,-6.027210145282275,-1.3909168201229851,-0.7664774075451892,-4.528944073985752,-5.545588076069705,-7.6103656519195315,-7.162875053483296,-7.445662450237922
30,-9.596929610200474,-7.206420039637995,-9.540537452141896,-4.316546968732874,-2.3371654671445983,-0.9582120743538491,-5.491109043335322,-0.7831648135357492,0.4693930127499624,-4.629493120500224,-6.21497137425546,-8.50462453073203,-8.32246450011789,-8.662346604012226
31,-10.077986995231521,-8.137810326304333,-9.572955585126905,-4.550766970010715,-3.0407655079132914,-0.7315165824499625,-4.296874807804108,0.07433263678834441,1.8776987529356757,-4.0666246345495045,-6.09137660315783,-8.13848811073102,-8.517854921031358,-8.742340286985069
32,-9.3088701334334,-8.070191873817238,-8.470162783428218,-4.215609176745418,-3.3199361573877986,-0.44019496348932236,-2.554404919516259,1.1159178220419537,3.359782155210509,-2.8615245241372,-5.172501962446821,-6.526743510113653,-7.707100849624218,-7.650384162167389
33,-7.383837774297366,-7.055626889413453,-6.332292410804264,-3.359465998586819,-3.173518902168773,-0.11471428838271437,-0.444938913439172,2.2389788936765918,4.788582587623439,-1.1247681034952026,-3.5584356680662164,-3.8595726019731322,-5.970742713741382,-5.506960632067768
34,-4.540766427493368,-5.260789216400189,-3.3873355782748473,-2.0950850275781594,-2.653863456576866,0.2124623103604132,1.7996845229095755,3.316724539673441,6.021853576677322,0.9565953441736339,-1.4383475541908184,-0.4770138602485384,-3.5001751211683065,-2.5709497653391904
35,-1.1278136111744923,-2.940540467803395,0.037699532482227245,-0.5842010149630769,-1.8570716780769279,0.5093757891614015,3.9249365243226286,4.215092593806941,6.91878121184491,3.1422088421651475,0.9341593765806612,3.177300924315477,-0.5725833044580811,0.7959868888020696
36,2.443148576311256,-0.40137022545803425,3.557909751250389,0.9836964828062309,-0.9080906371528801,0.7469906788360576,5.6851181039943235,4.811504539622139,7.358061053422032,5.168896171432405,3.273746842587534,6.616649597888929,2.4840765936409777,4.17816596015343
37,5.7497756785215,2.0399679549579863,6.778295364996372,2.4156330801744503,0.057188037832546425,0.901491166071109,6.874322678690698,5.012809678757047,7.255103555866687,6.784525831843321,5.299750802290724,9.377479193332203,5.331386048584614,7.160924625908535
38,8.411948325523431,4.096892455779216,9.341837421626435,3.539297736450483,0.9103451015600463,0.9563667218344148,7.35263423622232,4.769763039131432,6.575936192320106,7.780789669262723,6.7714968153622435,11.08216581130451,7.660839495092288,9.384349933113102
39,10.137066779699799,5.54719342054273,10.971584885753574,4.223996214503483,1.5469101415619595,0.904132183369421,7.063929848933029,4.085784756915901,5.345617649469672,8.020521221069378,7.517905083669205,11.48958661785019,9.229216970502714,10.588455107437765
40,10.752384547079533,6.256839424292667,11.501493931834053,4.395824491878681,1.898795070002814,0.74746798962711,6.04278406664442,3.018524035321793,3.6495859073858723,7.455877433313484,7.457598328841595,10.526638228290222,9.884713649916588,10.643939256048933
41,10.220831664609284,6.190907021015911,10.892479197218561,4.045291382889129,1.941211363641757,0.4995450145849217,4.409497457537721,1.6737946771606982,1.6272711503957107,6.1349357509662585,6.607075653845854,8.296632788206999,9.580959277102087,9.564839548038712
42,8.639169766671737,5.411068338205045,9.232280070229704,3.226643253847883,1.6934028382148418,0.18333328291062817,2.3539619588622984,0.19260038782327923,-0.5416063954587215,4.195844915882891,5.076184208166444,5.063843625039732,8.377763491644641,7.502013200848194
43,6.219729860102289,4.060938121920968,6.7199798558072725,2.049233913572604,1.2133881690972845,-0.17021079660616073,0.11066921968215596,-1.2669629896741852,-2.6565358342286802,1.8493779170052782,3.051857893560343,1.2168444765542554,6.429196706390662,4.719070990859888
44,3.2590661836500536,2.3421254241122846,3.638009327352908,0.66229417415139,0.587708813647647,-0.5250372982606781,-2.071582987825801,-2.5503353131182585,-4.519075883456388,-0.6476867479308321,0.7726428823765051,-2.7838158602054848,3.961204551985399,1.5547302834304677
45,0.098346677439399,0.48485906099050696,0.3159408968841585,-0.7647405191448403,-0.0821855994496519,-0.8437575263589484,-3.9610173341729964,-3.526651350662176,-5.956064758442152,-3.0247153869439596,-1.5023247104719806,-6.466052237914771,1.2421477295000816,-1.6227636965587502
46,-2.9189689420406313,-1.2825410522741785,-2.908845219228312,-2.0636864236572485,-0.6948902110873311,-1.0918665133685461,-5.370892760549371,-4.105494801204548,-6.840040970389671,-5.030576756399316,-3.525628409731425,-9.406381736524256,-1.449674948271978,-4.462694879520634
47,-5.4866825874843865,-2.7612942744842153,-5.728527974319643,-3.0880543839309023,-1.163209884299173,-1.2419005775728367,-6.18043555276644,-4.247829534545571,-7.104081803384004,-6.463807725442267,-5.090919107836948,-11.281708119917168,-3.8573720987116413,-6.674097990336573
48,-7.3679633674495735,-3.8035956918285416,-7.895843116972195,-3.7299131839598876,-1.4256045081222715,-1.2769311700469834,-6.346033129440821,-3.9695818703898365,-6.749030948088519,-7.195712970755146,-6.0556400537729,-11.906174123290297,-5.7719775412809975,-8.057845026511465
49,-8.416690454010748,-4.325703023269191,-9.24554904982301,-3.9311727441833066,-1.4534407690346625,-1.1928285877601514,-5.901533450032812,-3.3374688564819994,-5.84215198558286,-7.183563516941068,-6.3545276140871065,-11.248835792423355,-7.051336906588745,-8.524993999750158
50,-8.586404401711729,-4.311843971269591,-9.7047543798025,-3.688102940557141,-1.2532269357176749,-0.9988700705461023,-4.9481268823821685,-2.457839627292885,-4.507446928987562,-6.472459308556071,-6.002650466967837,-9.4307290636102,-7.629742325043745,-8.099896836433713
51,-7.926974768993837,-3.809416549066662,-9.292109381094912,-3.048851058306712,-0.8637528907012227,-0.716506012811614,-3.635805597919953,-1.4603339351306386,-2.9090364441868224,-5.185982730110118,-5.0882140042743735,-6.702771939035741,-7.517987380736014,-6.908736612490274
52,-6.5706266901386385,-2.9170494834794916,-8.107278664663179,-2.1046608728024623,-0.34878912022722935,-0.37640067587888687,-2.1395649287092455,-0.4789016058067798,-1.2299372766087555,-3.5072695826187257,-3.75670832773343,-3.4084613201628082,-6.7947351530234865,-5.15608752086417
53,-4.710106547189109,-1.767842312138962,-6.313143057754743,-0.9762953855093705,0.2133898045536254,-0.014171650331232353,-0.6341540014459118,0.366942176051323,0.3508431312067811,-1.6533493766132252,-2.1890303624680594,0.06286068161933041,-5.591080714245876,-3.093497953792526
54,-2.572394899526627,-0.5104467643073074,-4.113717914719001,0.20228482982433812,0.7419859870812124,0.3345026358996215,0.7287934411379392,0.987870776375236,1.6798199455918466,0.1536059104691279,-0.5768312200269141,3.325501667768453,-4.07083339260565,-0.9848243052995934
55,-0.3914751532138187,0.7094164607717616,-1.7308123151033032,1.3007007845939855,1.165346645475934,0.6386114771923951,1.8380010131573932,1.3352944999392906,2.646356224967966,1.7142262050547301,0.9015284889750522,6.043100893455508,-2.409293664140901,0.9269487999091909
56,1.6166937178613723,1.76482382358932,0.6179321555250409,2.207200335257456,1.4306324648894837,0.8756000333193593,2.6319925545766125,1.4053529546326098,3.193657874650573,2.8754601950470033,2.1013691009186948,7.964919724715634,-0.7731690391224774,2.4473026625847085
57,3.274545718748385,2.5593630729085093,2.737651517809282,2.840170390717781,1.5101727773082554,1.0336032915692475,3.099933790089094,1.2360446992231766,3.3222189356259717,3.546793949089428,2.9260987933812355,8.948840308483032,0.6961696789485043,3.4492165281663585
58,4.45703640994883,3.033910885255133,4.470329249814594,3.1549312253539115,1.403751073695333,1.1117896305232662,3.274498121468436,0.8982427536797435,3.0855549577813566,3.7073989845366806,3.334274241537384,8.969234862677583,1.8945444126842355,3.882061101880901
59,5.098855515316414,3.1684193861157337,5.703882107246228,3.145361548696437,1.1367132940790734,1.1188205439429748,3.2186325075569795,0.48224633799021116,2.5791044635180427,3.403722636510477,3.339019468042282,8.109992905601493,2.7611440067790975,3.7702313212703036
60,5.194865472651303,2.9792675338534944,6.376416729384314,2.8406411062881793,0.7544305316935156,1.0697778809251464,3.0089786773485985,0.08213177122679657,1.924064089987633,2.7383283988461793,3.0005282702622256,6.544884483541651,3.2789721691048346,3.202701975012603
61,4.794558154302439,2.513160775072632,6.476207256503982,2.298031755569505,0.31417826424457734,0.9821919243378797,2.719086031720222,-0.21959635664478555,1.2485388224863776,1.8519268060880683,2.4132207425976153,4.508861508535546,3.470186485713299,2.3156939094193993
62,3.9917656967749577,1.8387811529313918,6.038131880489824,1.5930624141399667,-0.12416368412696327,0.8719687333705934,2.4053927664076142,-0.36471034712795997,0.6686653390370251,0.9013627609862778,1.6896948768895275,2.2647117752592765,3.3874576907469454,1.271249971445727
63,2.911101218899374,1.0374134603670875,5.137326927150023,0.8086891116613832,-0.5070800247852315,0.7500301127148514,2.0982978773701646,-0.3274872171105812,0.27228430108253193,0.03674393845926757,0.9438569002778802,0.06963562518332476,3.1028049179519126,0.23471233930933005
64,1.692678061497248,0.19364589912072236,3.8807422641986227,0.02496295281900775,-0.7946851165416713,0.6203389668160423,1.7996273118089068,-0.1173892472102239,0.10732404973718813,-0.6191317489611335,0.2755278011803207,-1.8541341593013372,2.6954961960670016,-0.6461001137720846
65,0.4766121799650204,-0.6129742936011008,2.3971886061141863,-0.6895103836316365,-0.9652618925807627,0.4797118896037873,1.486598646079846,0.22398484289887,0.17637750071258054,-0.9863414535081055,-0.24154978111556716,-3.3414722130058547,2.24055741129122,-1.2577152367850573
66,-0.6113081176625048,-1.314702809070278,0.8264131568943203,-1.2834349281460284,-1.0165493936170007,0.31947061377563074,1.121218612504573,0.6309854121682371,0.43809447272373536,-1.0364849249687684,-0.5669709441655927,-4.29728490144502,1.79923299706859,-1.532233682648495
67,-1.47157707957008,-1.86039840404878,-0.6922487068717426,-1.72560240734712,-0.9638107707998467,0.1286197636094327,0.6631009722825087,1.0256050993825212,0.815079127467512,-0.7935315528581197,-0.6955823988836811,-4.699576731700441,1.4124200989037101,-1.452152819407144
68,-2.0395705952084677,-2.2182040320148184,-2.031026268654014,-2.004650406486873,-0.8352374152861941,-0.10207294964357501,0.08311895069829431,1.3308531530471404,1.2070932208040697,-0.3270975895496846,-0.6541949579654749,-4.59328854404229,1.0976902559389914,-1.0487733440055533
69,-2.2900916664569335,-2.3761426074904417,-3.0839510100563943,-2.1262815546682394,-0.6656515046606082,-0.3759190531622807,-0.6248085649475564,1.4836892948298595,1.5076352882244408,0.26056877725317423,-0.49393284175939983,-4.076604795484041,0.8500547646469809,-0.3948853198249022
70,-2.23750629472616,-2.340821459429975,-3.775379989623831,-2.1087270179816144,-0.4896959415366236,-0.6869511453448269,-1.436146230682229,1.4455209536209261,1.6214910306926518,0.8517764118434662,-0.2796055261291042,-3.282183430149481,0.6461605110137042,0.4069923507554721
71,-1.9315106776784756,-2.134570499504553,-4.066001215045523,-1.9773963060552915,-0.3357151450930737,-1.0181305119452775,-2.293984699374445,1.2086842145307737,1.4806979601852257,1.3321140620730805,-0.07782509330870045,-2.3561449220282333,0.45116741609894323,1.2391453662057117
72,-1.4490021853991548,-1.7914393715400707,-3.9556251303107417,-1.7596597172753083,-0.22133761482279224,-1.3416281242120933,-3.1136735250728442,0.7979672970343538,1.0565671048578333,1.6079323674616048,0.05431811500026335,-1.437656495471697,0.22720913460111097,1.9841009805120846
73,-0.882953577638904,-1.352544804320876,-3.482301455086143,-1.4805710813778976,-0.15141440163097913,-1.6213227690600085,-3.7933046768571512,0.2669993967143318,0.365943107843643,1.6200808081464042,0.07837426700998151,-0.6416001265116278,-0.05787125267895471,2.539114112339978
74,-0.3295605047211352,-0.8612860407108829,-2.717649884596614,-1.1600891174438726,-0.11851808495555007,-1.8172569677087826,-4.22848119101288,-0.30989396408148834,-0.5292995778605113,1.3520295157323485,-0.019804229168143308,-0.04619434897808507,-0.4228487639608296,2.8280633709914893
75,0.12480822907150854,-0.3589283242617791,-1.7587187976734946,-0.8120438050942941,-0.10574874709943619,-1.8914248437703096,-4.3290418621346545,-0.8490884728576007,-1.5295416634282448,0.831403706300758,-0.2285442431233413,0.3133458748818374,-0.8676841321560086,2.8095041438594683
76,0.4152306522592347,0.11901209586996729,-0.7171300550276694,-0.4447729255378196,-0.09120545892474556,-1.8140026631625226,-4.035034130846411,-1.2705499469434847,-2.5104943842043577,0.12497376239503118,-0.5130176471751257,0.44486409794083187,-1.3711785129196912,2.480135591440645
77,0.5068969837592976,0.5452617970445133,0.2933394572618209,-0.06307173939441238,-0.053223902700097074,-1.5690156993564217,-3.3292890881320116,-1.5102415092843282,-3.340202988381826,-0.6718889631994217,-0.8215082123137479,0.39356592727282885,-1.8921136171622335,1.8735104642765132
78,0.39960812004333796,0.9019915796488589,1.1693159960511081,0.3291040231374566,0.024611240371103665,-1.158482215555969,-2.244438559774992,-1.5301633909615473,-3.8975258356063143,-1.4495154176492013,-1.0941888660580268,0.23174449975914418,-2.373774777186399,1.0543861512272852
79,0.12739440114145922,1.1807146732027756,1.8290057737637115,0.7258346275500279,0.14958748954877923,-0.6042810020538822,-0.8630432475788135,-1.3245100118610225,-4.089426221635989,-2.099776277475017,-1.272999774751061,0.045543544944744954,-2.751274541067895,0.10961801095653997
80,-0.24682716963178844,1.3810225858196346,2.2205820508551493,1.116955682490572,0.3177899475638249,0.052676288184619904,0.6894594928168474,-0.9210230540440536,-3.8646136031031983,-2.531145983666019,-1.3111259508498352,-0.07940571808336565,-2.9607011229466815,-0.8631272304315052
81,-0.6409551235655513,1.5084293736981338,2.3267014645681923,1.4867858854281395,0.5141569314775389,0.7559751011346415,2.258192884931156,-0.3773464123261734,-3.2216374926606943,-2.6809520162049543,-1.1807058826435661,-0.0716340604763943,-2.9488559653233866,-1.767353389210694
82,-0.9665197489849107,1.5716950642896683,2.164575868506527,1.814139131429814,0.7146066802662248,1.4395178726060254,3.676903474291877,0.22706029040340922,-2.2103677126582015,-2.523305581092257,-0.8777215948816048,0.11488273630416045,-2.682242573101827,-2.518909985612397
83,-1.1428612053363114,1.5800593890635315,1.781641732467696,2.0736625056457405,0.8898204958175814,2.034867688426909,4.788197703991951,0.8022335638654021,-0.9267477758688946,-2.0719059801963104,-0.42346267476874544,0.4931216810340876,-2.1540317926248225,-3.055024206103413
84,-1.1106301760511408,1.54082800122373,1.2474987056858504,2.238324715151359,1.0100034465067527,2.479123909799751,5.4631842900363585,1.2605625254846207,0.4983672746816477,-1.3776443992074283,0.1375512249856366,1.0399590733694755,-1.3879490847752056,-3.340173499532155
85,-0.8425617053424266,1.4577087008087346,0.6433318786773194,2.2827098498920564,1.049811944722419,2.7222779828060055,5.617854592424952,1.529310275205971,1.914714803655867,-0.5215968050365977,0.7428349950766383,1.698023228103154,-0.438383939637166,-3.3682113986520616
86,-0.3497635248463841,1.3301942566748268,0.05039786877936531,2.186664449656792,0.9926510435839686,2.7331064479608993,5.224021769773384,1.5610112964667662,3.170392272826061,0.39548751057566317,1.3196481441245607,2.382278880430091,0.6135271772270179,-3.1606396921072184
87,0.317665638096048,1.1541369248957476,-0.460724580462199,1.9388044790989856,0.8336862201792041,2.502902665496878,4.313425766141781,1.340310057634431,4.129612813062998,1.26576706184602,1.7941433587671762,2.9906509419472753,1.6675921764323332,-2.7613986078904023
88,1.0760755727246631,0.9234709670644017,-0.8385742572545138,1.5394062430544702,0.5811451041961301,2.0466704585188342,2.9745605145788576,0.8863544020110912,4.688280959782277,1.9873919359804337,2.1008160401127998,3.417521826361188,2.6152786121550964,-2.228981197391305
89,1.81923440399347,0.6328353541404961,-1.0558050160528931,1.0022697188712446,0.25575622485868915,1.401738683284664,1.3427419179398483,0.25050670168037165,4.785593919126522,2.4765690457087426,2.191114969112336,3.568542427331634,3.3522637274499347,-1.627031372815587
90,2.4334053493250707,0.28065949901118314,-1.1102073468224005,0.3552426212225229,-0.11155847972505047,0.6240558108647362,-0.41522597559404373,-0.4902127947017899,4.410442447610088,2.6772825328494543,2.040186310887189,3.3749323533525137,3.7913115791738172,-1.0148120931341218
91,2.8143824602530687,-0.12786425261514967,-1.0218934470192942,-0.3607789677042414,-0.4833863817832632,-0.21734330496940277,-2.1198149633878494,-1.2429739083057665,3.6020627275184594,2.5676525957984273,1.650933892644932,2.8053691420250875,3.8738265421890956,-0.4389818079934745
92,2.883920174921516,-0.5785509144436843,-0.8274088429492134,-1.0944067974145497,-0.8203981423405482,-1.0470553256002872,-3.5986639499210717,-1.9109012829573486,2.4450819769762706,2.1623027067053204,1.054868099340513,1.8737250425639003,3.578500483462873,0.07203936713515398
93,2.6029725645418114,-1.0473066668758795,-0.5719954798736298,-1.7877393054357782,-1.0861755229720502,-1.7905013404733434,-4.705262075460619,-2.405195035955172,1.0597188153073223,1.5105307306670317,0.30955832328020794,0.6413182804704513,2.9257559925825345,0.5101959901867069
94,1.9795622966294695,-1.500920688952168,-0.30145294475715206,-2.3814577686980276,-1.25166808221852,-2.380895717656367,-5.334332357237662,-2.656082600963464,-0.4116194544274791,0.6905101409314635,-0.5071287282193757,-0.7870207712399641,1.977166685937947,0.8860323133479988
95,1.0698773492482276,-1.8996868159404725,-0.05499491630819919,-2.8205775819419725,-1.2987245124190154,-2.765365007981959,-5.432292697806836,-2.6213091037596277,-1.819789738376969,-0.19984508873861376,-1.305458899670605,-2.2729728464543006,0.8296585307761121,1.2232900356769218
96,-0.02777225464409005,-2.2016509225862992,0.1398020717808493,-3.0602682745496206,-1.2222755045929408,-2.909707740937687,-5.00179179721407,-2.2912455505363227,-3.0247281717252026,-1.0543613132606822,-1.9940515683390931,-3.659888757558711,-0.3950080600254899,1.55077287443365
97,-1.1853837968185763,-2.367959023199372,0.26934111127001215,-3.07108306611096,-1.030916871679777,-2.8014265628772317,-4.100011713652683,-1.6901379544623203,-3.909967100268893,-1.7711641407667742,-2.4907494437064397,-4.791334869964921,-1.564298110452031,1.8929318994163373
98,-2.262305682360096,-2.3685296167786176,0.3335774006143231,-2.842938607034964,-0.745837255555259,-2.4508136296751477,-2.831120240061802,-0.873474489018857,-4.394366879426951,-2.2648838065945585,-2.732836185803579,-5.530676742896007,-2.550771605400504,2.2609595323977887
99,-3.1243861592684987,-2.1871488066221425,0.34327208460544845,-2.3872752975898104,-0.39823700051219824,-1.890020565957173,-1.3338770898133008,0.07813437860414064,-4.439877365474086,-2.477056450998255,-2.685290478267963,-5.779065393685982,-3.247696824038735,2.646208423632676
100,-3.662383941116934,-1.8251209587775512,0.3157510740065078,-1.7370098944491559,-0.02557191185995119,-1.1701932489270435,0.23410879473466928,1.0678180409644156,-4.054558157663561,-2.3834190143487697,-2.3459306305055287,-5.489285183400164,-3.582299062202144,3.0174385259985157
101,-3.8069212161743065,-1.3027996546192901,0.27016721244770775,-0.9441461053932585,0.3328972869798603,-0.3568975392607977,1.713652732019208,1.9930460826581804,-3.2905875004267515,-1.9971138793948557,-1.7466441653378477,-4.673406476951001,-3.52480592971189,3.3227744578945924
102,-3.5378136846902906,-0.6586394520548333,0.22323048707004747,-0.07520044499052685,0.6406835964041512,0.4758009173291009,2.9608631920321815,2.756808245679607,-2.237535871407009,-1.3672870083021962,-0.9503787173178468,-3.4030034377110145,-3.0920011839378296,3.4964240394589927
103,-2.886497595283748,0.05420862084263244,0.186159003172457,0.795113484808332,0.8682037834280791,1.252121320555118,3.8617682616865077,3.278172930436109,-1.0117128985038577,-0.5731332629254332,-0.04413214953734122,-1.8017330993602687,-2.3447536276682244,3.469313820008514
104,-1.9313358687840034,0.7733539646986628,0.16327317863080676,1.5912622115767057,0.9959499337331121,1.9016441140833387,4.343161586351926,3.501092895306193,0.2571527657735818,0.28595626193410345,0.8712598322105357,-0.031168010856267615,-1.3798341962005403,3.1820044564603456
105,-0.7866451426793529,1.4339585737783924,0.1522832672226764,2.2444991833685277,1.0163280132102954,2.3660483049686856,4.37859592242809,3.4005044185762014,1.4403346181353867,1.1029440816649478,1.6932688361911348,1.7282467050973789,-0.3171438033817132,2.5977126992984387
106,0.41282679634440017,1.9759537922561057,0.14598359925630502,2.6998256752719993,0.9339743555323741,2.604861474215192,3.9890318008914165,2.985042149819603,2.423947812358093,1.7767876699303686,2.3301788846048113,3.298544839415193,0.7158788284796518,1.713100766514954
107,1.529657909180079,2.350724673175524,0.13482918549445264,2.9215014981619345,0.7645701635674238,2.5996102323024246,3.2382737302284106,2.2960484289028518,3.1206167242451697,2.225371817944039,2.712298573454574,4.525033676959361,1.6005159368393913,0.5647433557168845
108,2.44121383212057,2.5264043299181975,0.10976635807019168,2.896475330314732,0.5323759125193531,2.3558612025057424,2.223920214325055,1.4029630588485345,3.4776726778678766,2.395986281621611,2.8003875991919336,5.293805199907239,2.241476587978192,-0.7701873448153624
109,3.05444956208407,2.491139088325426,0.06471984103254692,2.635355349249472,0.2668709011185109,1.9028181352797089,1.0650434295220848,0.3955955543607005,3.481039663734776,2.2719109012654206,2.5901822313889067,5.543772989937886,2.5780864151031953,-2.179572950932185
110,3.316177590463683,2.253980254649415,-0.0017230002773498195,2.1708339321593484,-0.0010166621465093394,1.290384920700547,-0.11185627337020049,-0.6258424639392279,3.154525288297765,1.8741954520017146,2.1124408894251565,5.271871179258041,2.590532058280682,-3.52786472257241
111,3.2176547318744113,1.8433802714464236,-0.08568786253520434,1.5537782777881146,-0.2425805366945634,0.5838970748394892,-1.1869399680944857,-1.5617828104561517,2.5548200729594996,1.2583888860368335,1.4285444581343283,4.531027784426926,2.300457953861902,-4.672024214951978
112,2.7931781568738265,1.303570854779677,-0.17848905743322416,0.8474659164130933,-0.43445375117589624,-0.1429702582009369,-2.059550805162593,-2.3241150887722877,1.7630363610592388,0.5066808063407428,0.6222844378816497,3.4214965084732105,1.766021440397199,-5.4797077142812896
113,2.11320826335984,0.6893393008848404,-0.26805311317762054,0.1206495794863964,-0.5608335290985811,-0.8163387174414372,-2.6578118889786233,-2.8454808148953052,0.8740136450649066,-0.2834387710210381,-0.21102734757548847,2.0769634876390373,1.0722842939760744,-5.8471166853355605
114,1.273244686968049,0.059874758467614204,-0.34099610913636,-0.5597419352101648,-0.6146250204850416,-1.3703418349049248,-2.9443618575802786,-3.0859515836567155,-0.015172061309914841,-1.012408404870209,-0.9766530875776696,0.6474397274893057,0.3184477217136984,-5.713930973110002
115,0.38018853289751636,-0.5275762951886401,-0.3849750404102016,-1.1354327644426763,-0.5974693171079417,-1.7543935787532015,-2.9178020498461015,-3.036340495368668,-0.816054099928655,-1.5918580331746397,-1.5921128140270955,-0.7187522556139596,-0.3961625742478313,-5.073112248202565
116,-0.46182875119517935,-1.0235222102703192,-0.3909060535697385,-1.5623933257433207,-0.5187573627852985,-1.9385758647099183,-2.6099719518633555,-2.717844797196254,-1.4577289132494107,-1.9560527210442034,-1.996921790248813,-1.891607751546886,-0.9853396765815399,-3.9740521605513233
117,-1.1642071794532312,-1.3908738973974744,-0.35467243763305817,-1.8145902010864394,-0.39383683125925345,-1.9164454677721288,-2.079667362576977,-2.1782016421547374,-1.8930133994315803,-2.0699326471307167,-2.1591330722650506,-2.7727113026539882,-1.3866288631619776,-2.518446332121961
118,-1.6635977301480829,-1.6079526137407023,-0.27803074121857774,-1.8855169884938514,-0.2416888706037491,-1.7049042739405136,-1.40380250089959,-1.4849814691096557,-2.101326084864021,-1.932663598302317,-2.077894372842751,-3.3037328067638834,-1.5679636109551138,-0.8492779869015645
119,-1.9274762873208398,-1.6695923371469559,-0.1685570329177017,-1.787413955572532,-0.08238595093480236,-1.3411756310729392,-0.6672495238879734,-0.7169787710049135,-2.088250639682452,-1.576275522836249,-1.7817953214080862,-3.4694414103345035,-1.5295647350722108,0.8657410366804879
120,-1.9551334242879626,-1.5863149654926039,-0.03863991284401263,-1.5483837014007606,0.0653567458443897,-0.8773255162378716,0.04734849287309858,0.04515330843209892,-1.8821397468807781,-1.0597014821140454,-1.3233815561203124,-3.2952923577924564,-1.3011079448549998,2.4541295006394312
121,-1.7743334600219205,-1.381801678079742,0.09630672451930554,-1.2078796454795169,0.18625424605830593,-0.37310475245608565,0.6685927526312093,0.7278536519569274,-1.5284393866676922,-0.45922330436736386,-0.770757067742941,-2.840348349068631,-0.9348857936628837,3.759342552597848
122,-1.4345045881738907,-1.0890913062579097,0.2201043800672294,-0.8112386845960662,0.2699269666639939,0.11188115516544006,1.1432057846231332,1.2721461401066225,-1.0826295868859686,0.14313167605661584,-0.19759627357169846,-2.186850843422987,-0.4962665559686573,4.659425472457126
123,-0.9977549986901293,-0.746073461162198,0.3181631609256626,-0.40401834028686645,0.3116408834692086,0.5255821268550337,1.4401344740494189,1.638884056965563,-0.6027692080455728,0.6714110804377051,0.326925840834362,-1.4280871488127913,-0.05309141137288183,5.081074447217981
124,-0.5292114365009969,-0.39089209749054127,0.37954365980010435,-0.026873353857067333,0.3122750660554177,0.8294794731222891,1.5516299321730973,1.8112901407432354,-0.1425938588981899,1.0659614462884353,0.7468326728250518,-0.6562729634462561,0.33429536082971284,5.007202002836869
125,-0.08813176749386736,-0.05783228506021315,0.3984074373028674,0.2884224212387755,0.2775806467278276,1.0023504130344296,1.4914503759262037,1.7947055484097505,0.25404208118925226,1.2905644085154102,1.0255039114834363,0.048002621514463516,0.620914508873592,4.477039112089634
126,0.279021458558484,0.22585701625987384,0.3746496864422512,0.5214101784848971,0.21688502108817762,1.04140238036877,1.2906850898914863,1.6138128199189408,0.556838496107305,1.3355591396733082,1.1485773558530832,0.6235926906132465,0.7818982012024267,3.5788946012222946
127,0.5427828266043273,0.44192265942800374,0.3136485303003719,0.6636865039044672,0.14146018408606212,0.9607762191216617,0.9919577180901819,1.3078864535490864,0.7505979769901551,1.216725573795933,1.1234247471951158,1.0331855618573658,0.8136748935799984,2.4367622508378455
