,AF3,F7,F3,FC5,T7,P7,O1,O2,P8,T8,FC6,F4,F8,AF4
0,-0.1800201794170562,-0.5711257920395431,-0.45820398438571874,0.30485467372844877,-1.3291048405426726,-0.05485065551983508,-0.21122044488339395,-0.11860481797303717,-0.6195922156287442,-0.7093067072917478,-0.6993291149459463,0.005656978501507574,-0.09688774033513047,-0.19239848457028533
1,1.3912557148642768,1.338021811203853,-0.7360924179202273,1.2123890486454967,-1.6086756418762025,-1.936005793697544,-0.15465916632738935,-0.17260402126788088,0.4547379041469626,1.1606856756764887,1.7266922327492393,0.40247777345300817,3.6273287921471566,1.6888027603051585
2,2.77577932729787,3.0223831895910642,-1.0640223852549704,2.009901748332804,-1.8680608685026627,-3.6822440703637347,-0.14190206264987934,-0.2824266938131303,1.3937656000191372,2.8410005348232663,3.904340218364839,0.7149798431838686,6.991605919115605,3.378996897901546
3,3.798330518371109,4.26002514599697,-1.491413705624457,2.596479755175219,-2.1390904107306494,-5.151906985371271,-0.19686800205274188,-0.4929087909208671,2.0622316165066876,4.1167176782145205,5.5835169148204615,0.8799280263862926,9.650898988705455,4.7034250678964264
4,4.3289683618250265,4.8885841024565355,-2.0425027058976317,2.8981182770016827,-2.445097547638489,-6.23050855658988,-0.33203866415233574,-0.830324953882472,2.3646119369910528,4.8258879236068815,6.575284552172142,0.8519549364261042,11.33452788301629,5.523922377756995
5,4.299189440453244,4.826330179421651,-2.70756918861515,2.87757819103123,-2.7946358930919555,-6.839848137676408,-0.5441353206581357,-1.2953330978985933,2.258546022405427,4.8800213059919315,6.7746580004813195,0.6105483607936618,11.875499688462188,5.753728819282108
6,3.7105308908757557,4.082711684565454,-3.439669487456289,2.5392441441502003,-3.1773233635687945,-6.943090611944389,-0.8121494115513581,-1.8595090719423435,1.7610425606171614,4.2751754440958685,6.17313879406815,0.16457678962250052,11.228359086828346,5.367381356739824
7,2.6345310316524793,2.7570301092066223,-4.157664441704515,1.9283160575475262,-3.5625028151086346,-6.545603090582576,-1.098265860043262,-2.466232472858035,0.9465276666277899,3.0922311304346652,4.859380418421942,-0.4464224008512428,9.473553047315482,4.40449631483092
8,1.2039982917301826,1.025446232266177,-4.755415962381962,1.1244500459674307,-3.9010400300577297,-5.691836485258844,-1.3517871034195093,-3.036136757381253,-0.06312380949107514,1.4863172617600544,3.0078246361155783,-1.1547178964568818,6.807818592978215,2.966778027878058
9,-0.4033937307320123,-0.8819639218336592,-5.116097664434171,0.23073259014797937,-4.130167529740531,-4.45895589775184,-1.5156948242522015,-3.4767030860930928,-1.1153310975274109,-0.3332529329999289,0.8566563509664546,-1.8707631227865589,3.521701846294967,1.2082495455330158
10,-1.9871927761508794,-2.711093392993417,-5.129747421536258,-0.6404798591133998,-4.180879547386561,-2.948207511724466,-1.5350445833077742,-3.6949347230511527,-2.0481020967418497,-2.1299290294689825,-1.3221951775860812,-2.493118341837037,-0.03318660754378229,-0.6805491209479921
11,-3.349186263236769,-4.2167209117954005,-4.711601133549274,-1.3828843983028647,-3.98703965010959,-1.2751369379917716,-1.3660437055413714,-3.6114931637945964,-2.7129503746102652,-3.670232380899239,-3.2572151821581956,-2.920997216318692,-3.4833622455347624,-2.492887781261309
12,-4.318174228288099,-5.194166444259206,-3.818486638824339,-1.9105806496210513,-3.4951203409275675,0.4402558552817327,-0.9844717560848367,-3.1743093284938166,-2.9961961259171095,-4.753453279215976,-4.711239354590317,-3.0679977530863214,-6.474519296707024,-4.028528573401245
13,-4.771301570051172,-5.505574639255347,-2.4606843827121816,-2.1694419207997098,-2.6733831205527623,2.082505604817504,-0.392103070899798,-2.369587972710158,-2.8355748020567364,-5.236852619752279,-5.510775790773124,-2.8752058269236196,-8.709658465030337,-5.116157899467818
14,-4.649172540766608,-5.097446263350533,-0.707183127170847,-2.1439257697232317,-1.519341855451167,3.5481567315567832,0.3800061146770117,-1.2283485528166858,-2.2297118729239953,-5.053116725617219,-5.566918387776564,-2.3217354359151643,-9.979904751991917,-5.632853283941566
15,-3.9627886701812756,-4.0072241169542036,1.3168779204380097,-1.8583925651204432,-0.06452763658363353,4.751369329959499,1.2721142159909853,0.17281367878720846,-1.239051339543242,-4.217905383740917,-4.885191353523711,-1.4309533205266434,-10.184594993231233,-5.518145956169896
16,-2.7914661639281637,-2.3582202068852207,3.4406952076450703,-1.3727912234421653,1.6241354905034502,5.627589924308887,2.200494513914282,1.7172707240916167,0.021903546327420812,-2.826723764555672,-3.5631810900525065,-0.2711317854564144,-9.33861156907716,-4.780885797372436
17,-1.2721364004416926,-0.3437322961626269,5.465165774821822,-0.7733822034192451,3.4466715701873203,6.135448945948628,3.0658660580446346,3.259808480338433,1.3998730241435065,-1.041823827019789,-1.776486376388637,1.0499757313796443,-7.566566941348687,-3.4980445432165057
18,0.4183838959650392,1.7973896587562295,7.185034882117967,-0.1598727139785848,5.276055230548133,6.257186765201533,3.764616181583674,4.642670321008447,2.723323921360936,0.9288315808042373,0.24490512809239978,2.396252157918379,-5.085066076294594,-1.8056577235653313
19,2.0856360619240544,3.8104056028648445,8.412976007113446,0.36916939317980974,6.967461546240245,5.997953561691818,4.201428136951056,5.714158578575325,3.825208650129809,2.857529659446759,2.24646506991753,3.6187639482374117,-2.175661919805226,0.11686916687259327
20,3.541222895586627,5.455682479322055,9.002416619673507,0.730546617186704,8.370043076710152,5.384286247391604,4.301672637536407,6.347322140318951,4.564650355880635,4.5241831384512965,3.981121917145647,4.573757840734694,0.8479075299514328,2.067039615814543
21,4.624845739842058,6.537106093494315,8.866056988815792,0.86832352400664,9.34027460981315,4.461965454710569,4.021901643208548,6.456196721095473,4.8445797269420146,5.741635727515879,5.239209951014649,5.140699161301596,3.6741599563334595,3.8415693734597105
22,5.2219330029326665,6.924480804498558,7.987607232584024,0.7617632525458569,9.755739357435345,3.2933344660285253,3.356998197599825,6.0073786169276655,4.62305306748055,6.375916187684744,5.872641186594176,5.2378807014033795,6.026037411682578,5.258015507278052
23,5.274876594527971,6.567407521494398,6.425194520200319,0.42827222833051903,9.528139023927386,1.9540579254118695,2.3429515796457605,5.025345866029633,3.9170063986991193,6.359320679320554,5.810527857837564,4.833445283987299,7.687426580896937,6.173265259497239
24,4.786886009569113,5.499323208836287,4.306021320185051,-0.07898255915446606,8.614299189645473,0.5292429322306417,1.0547800293770742,3.5907907456690573,2.7983407112965395,5.695261790618542,5.064754913877724,3.9503022776561427,8.521586499954616,6.496963320923507
25,3.818527040665141,3.8316752186580314,1.8130143236804304,-0.6783965664391628,7.02401879521606,-0.8911415815477503,-0.4002619060693591,1.8321668381410334,1.3833054267815412,4.454912030984987,3.725385682691328,2.664271455680476,8.480169396353492,6.198707831412855
26,2.477964709032473,1.7394124503276756,-0.8347763902800729,-1.2711557903249375,4.823786654682118,-2.217526625417342,-1.8934568029240606,-0.08845197013879365,-0.18300178125095712,2.7666413851867824,1.94707739783343,1.095720399267924,7.602679495795269,5.308675039725267
27,0.9066425227237989,-0.5600499831225796,-3.405523127302563,-1.7548422394251177,2.1356638719766865,-3.3665238684331227,-3.2881378204295153,-1.9933767092684176,-1.7446747987208358,0.7999925386762673,-0.07128185936165633,-0.6041640200284303,6.007256571905756,3.912116365987053
28,-0.7374773570058267,-2.8316025591986422,-5.67882124311902,-2.03760776076723,-0.86899412369575,-4.26689037162054,-4.45434773568676,-3.7088833630215405,-3.1530809088198546,-1.253609034433558,-2.110839272646879,-2.270633236216541,3.874488438796942,2.1388133757547747
29,-2.2969338574691434,-4.847920795782946,-7.467859493961675,-2.0510634663715326,-3.980844359894572,-4.865172053214123,-5.282889733408136,-5.083926657473648,-4.282693961348526,-3.2010673640394574,-3.9578261850570753,-3.7438991088255382,1.426486677364296,0.14901403747394182
30,-3.630113766672911,-6.412775854158307,-8.63704786422992,-1.7602226647296444,-6.968252133972716,-5.130394403849927,-5.697072713918717,-6.005718071415247,-5.042893028464617,-4.866549480864889,-5.426432948726824,-4.886551147478023,-1.0963167650190213,-1.8824210294908126
31,-4.623462397559374,-7.379786553424799,-9.113265475961274,-1.1692292588495024,-9.59622650131035,-5.0571320753110784,-5.660726910759496,-6.410361249616825,-5.3846438804099455,-6.107313193708173,-6.377063917519354,-5.597727226886087,-3.458257560360308,-3.78195768889
32,-5.1996870660273835,-7.664946553341694,-8.889766622323288,-0.32214667266208746,-11.64699541445413,-4.666373423299375,-5.18152923526921,-6.2874237140352935,-5.30176222018999,-6.825130809045608,-6.728287551144094,-5.822417424794149,-5.449315007144429,-5.391928794724797
33,-5.321690451486739,-7.252102028323247,-8.022734601270612,0.7012955564959933,-12.94029214320848,-4.0038059595590685,-4.309275913048154,-5.678136293927434,-4.827197346229806,-6.972607935517626,-6.4616867178245245,-5.555010394035635,-6.902141148829013,-6.582551896193569
34,-4.992501986539798,-6.191395284100048,-6.621369749062503,1.7944758901145756,-13.351277091708317,-3.1354602283321267,-3.1293928121544763,-4.667739848206898,-4.025372227432029,-6.554285076645183,-5.6197075131076435,-4.837011910106965,-7.704153923192946,-7.260727727931208
35,-4.251863485415322,-4.59142409527203,-4.833123113580104,2.8361018083659886,-12.824097917859262,-2.141019988979065,-1.7525915532464345,-3.373231979667504,-2.9820040365114733,-5.622926951321704,-4.297387622779194,-3.749645374493851,-7.80415878770169,-7.3753467219898425
36,-3.1703386271858247,-2.6064186520659214,-2.8261553533088306,3.7043896948200334,-11.379417643074149,-1.1054786981871794,-0.30207393787166853,-1.9283073600936742,-1.7929794277698432,-4.271807174620825,-2.6294321366704683,-2.402665718431791,-7.213463168106112,-6.919188089158752
37,-1.8418572378908877,-0.4200694872771065,-0.7712666300936339,4.291487663678905,-9.114801967572477,-0.11012953096403258,1.1000174172037602,-0.4675618390860284,-0.5537787341189552,-2.6240621906553585,-0.7744483911780217,-0.9210970932918597,-6.001858487980246,-5.927743508253831
38,-0.37550683874446456,1.7722466955132148,1.1745934094344002,4.516407929140843,-6.197601426862472,0.7759446722578507,2.3451565923596083,0.88799070583715,0.6493285440367269,-0.8203183353367463,1.1017542197720462,0.5682952852255049,-4.289158343788261,-4.475420778700167
39,1.112799381860016,3.781165125710776,2.8815220487385353,4.334925630515856,-2.8508071087836298,1.502707777060553,3.3484608385137364,2.0423438172167483,1.745495397167279,0.9941914372646663,2.842018499997324,1.9491539752984826,-2.233212058845483,-2.669601145331501
40,2.508351483520333,5.439476047696203,4.255427420291887,3.745272993007921,0.6668058457101785,2.0433392069256384,4.055070137071944,2.9316494108073217,2.6825508762046484,2.681882517003922,4.3113600504426115,3.125030223417183,-0.015477524813922318,-0.6429808206887382
41,3.705105782437124,6.61551199826208,5.241878161047906,2.7889659383593144,4.084220803343166,2.3950950292667015,4.442334105347347,3.526544492121947,3.427375139244349,4.123454213969336,5.407072000861948,4.025478062708553,2.1746570269091654,1.4554267157847278
42,4.612411722155778,7.222895008640976,5.825202980113548,1.5466838771469709,7.142901812618516,2.5767057878857993,4.517888940837375,3.829813958797723,3.9638584320639425,5.226121685128528,6.064795848599683,4.608537282017444,4.155570432801765,3.470272711322692
43,5.160849726365653,7.226088458905718,6.023559758790634,0.1297116593260187,9.620019172123346,2.6227010452224095,4.314297563112059,3.870204947196139,4.289191560598411,5.928918354974208,6.260412925200877,4.8599140620486585,5.767923605994214,5.250450251519989
44,5.306986322654012,6.641526162716025,5.881099237297266,-1.332026374410403,11.347676233065274,2.575565769802045,3.8813864055477563,3.693715274588855,4.409396357689959,6.204839111083659,6.008047015981398,4.789567410357282,6.88690043475919,6.659789459582317
45,5.03678316903852,5.534409959148205,5.458568250185843,-2.703919966480165,12.22613406407081,2.4770234803297,3.2776701025472805,3.35396171883357,4.335025520436071,6.059905653376811,5.35483170100366,4.426647473264017,7.431273469102677,7.587276575712541
46,4.367335002035266,4.011569525400347,4.823723251817128,-3.860980600627574,12.229784531641057,2.3599263046734094,2.5622724450069208,2.903250057505986,4.077840809191525,5.529531207984936,4.373357945858987,3.813791222638403,7.368657133869763,7.95609064087625
47,3.34659684273004,2.211056731333718,4.042774526824638,-4.700856870758628,11.405522001278506,2.242167066522569,1.7885321218338566,2.3857187479927386,3.6490341185766444,4.672808018670255,3.15285772498412,3.001675288861348,6.71663082982694,7.730679543124391
48,2.05082515445063,0.28939097920645246,3.17379547688756,-5.154096145322284,9.864079144432814,2.1237119463921963,1.0000710751880406,1.8334595947116048,3.059225129749157,3.565505659160434,1.7901884095986738,2.0444938467487295,5.539764157026861,6.921098633155185
49,0.5796162726761458,-1.5924358340683031,2.262664229449251,-5.1905462419995265,7.765695054343734,1.987330327915869,0.22958283565894808,1.2659198133162932,2.320107187878938,2.292629590857555,0.38156670091738193,0.9967270091066235,3.9429251835551344,5.583939544335268
50,-0.9513310158348106,-3.282968730610454,1.3417135420216946,-4.82126800785113,5.302067902647155,1.8029580334284727,-0.49993214358988064,0.6922716732362366,1.447280086853921,0.9413407303132187,-0.9842176459478857,-0.08874731951903439,2.061564005523582,3.8194007605717855
51,-2.4193080191194842,-4.653067010514985,0.43089902947383235,-4.095867476091779,2.676840927498112,1.534983388026624,-1.1721986887410007,0.11590878152296649,0.46355682886192867,-0.40511267662361067,-2.2306656895046104,-1.161413353382463,0.04990142975530698,1.7643872482927137
52,-3.704830501830381,-5.606295329827258,-0.45900758180891726,-3.0956889357484227,0.08685706195330764,1.151207800945618,-1.7739546949079654,-0.46011871098092383,-0.5981000578593816,-1.6720241917306657,-3.2963838215378694,-2.173148489897368,-1.9319101541523955,-0.41805910301185356
53,-4.702065953965776,-6.085984289747351,-1.3219093039474066,-1.9237765439722947,-2.293881863764838,0.6318998744444784,-2.2915425610094338,-1.028028905099756,-1.6928421825241646,-2.7962517659261916,-4.136018990870863,-3.078005389570263,-3.730558420660037,-2.5522538944165563
54,-5.32837621883722,-6.078335015801197,-2.151383830788217,-0.6928615309108199,-4.326137275334372,-0.022705631155296144,-2.708697040780266,-1.5717550331453476,-2.7640575827949294,-3.7277125602097003,-4.719716790857862,-3.8322039037426925,-5.211252686744037,-4.465134380351754
55,-5.531913107034722,-5.611344338409999,-2.9360337049863565,0.4871711042395564,-5.912477397215377,-0.7879010232198306,-3.0060955945492216,-2.065726935208192,-3.7457026868660983,-4.429622944528398,-5.031638649098745,-4.3946899633503405,-6.2674491789782145,-6.001825163312719
56,-5.2963775567099525,-4.749772270121027,-3.655955043898521,1.5208572134804783,-6.99936589194855,-1.6139709103093764,-3.1628175698337535,-2.4763138043463697,-4.566805941912575,-4.877876541793237,-5.068100224665237,-4.728466702798267,-6.827972019166575,-7.03988543135053
57,-4.642366619616361,-3.586808699369558,-4.280947253717795,2.336438513223983,-7.574832962372038,-2.429981625263982,-3.159436180436889,-2.765729789846992,-5.1577133220212605,-5.059993170912853,-4.835822312610521,-4.802731629422014,-6.861136976436868,-7.500672347514894
58,-3.625142180808782,-2.2334634315075186,-4.770882953869278,2.8918331823860663,-7.662729408533159,-3.1515512004272166,-2.982123038492572,-2.8977341632530322,-5.457328024385423,-4.974037052178286,-4.35064228679725,-4.59568770530542,-6.3757506772404735,-7.3565271625007975
59,-2.329099207506916,-0.8069494007853534,-5.078410137482498,3.1766968370119715,-7.314827285379862,-3.6916034685668344,-2.6269356701314113,-2.844119630159008,-5.420406354412059,-4.627806937799301,-3.636847048340895,-4.097753965106996,-5.419109945776628,-6.632952049869941
60,-0.8596202059935957,0.5805873965250946,-5.153877839140196,3.210481185935059,-6.602079201235922,-3.972601574956586,-2.1034085823859576,-2.5908256482469136,-5.023931424512571,-4.0384605790164345,-2.727086279884127,-3.3147923735564784,-4.0723406436653296,-5.405533064619458
61,0.6666921144405384,1.8317363638545312,-4.952073359024586,3.036912017972529,-5.606199536967693,-3.938468366970784,-1.4366702493737569,-2.142555246476165,-4.271688690533505,-3.232568023222217,-1.6626347306035774,-2.270893726434005,-2.4435708729467,-3.7919873266065967
62,2.132263389240422,2.870906910447854,-4.440054194910944,2.715768088966695,-4.412431863135805,-3.564376748185374,-0.667532433732449,-1.5249987262674858,-3.196385562501263,-2.2464140409641624,-0.49362168459726347,-1.010227412720982,-0.6595189653867954,-1.9402712641717
63,3.428166265014188,3.6482505611135885,-3.605089191905527,2.3131825377250315,-3.103987278065193,-2.862840729830789,0.1496937194907475,-0.7841353487232202,-1.8589554415320677,-1.1262212198320267,0.7212355275945007,0.4025338571861994,1.1438989363845153,-0.014100977909592116
64,4.46218958347967,4.140306610079805,-2.4615417026860418,1.8918554305502535,-1.7582562347257136,-1.8850289343137212,0.9515515454472911,0.0174640372286977,-0.34502312824281506,0.0721211742018345,1.9158423334867412,1.8836386846574835,2.831350599595202,1.8225378209113288
65,5.164746315742006,4.347705965956292,-1.0554819051104765,1.5025331809383944,-0.4445797420468012,-0.7168884887517305,1.6715184754291468,0.8069451010791494,1.2411640617603925,1.284234218254021,3.0192097079388014,3.33382347125463,4.27769596366059,3.4202830794944954
66,5.492369201393524,4.290633600453638,0.5340588523852849,1.1778850629507747,0.7768398363234782,0.5295909167193548,2.247083864955357,1.5092937608060613,2.7847633489587755,2.4396433759527465,3.9593264739696643,4.6441156749502825,5.376887486122706,4.65723886753565
67,5.428885901733283,4.002984188956386,2.1979669608249806,0.9295259740236637,1.8553835997130197,1.7289369549579603,2.6269133553210504,2.0561926904967933,4.169559527627673,3.4655139754634767,4.668275577001104,5.703713880387401,6.049650633524124,5.44861726583424
68,4.984625766226746,3.5262208058596967,3.804348831165329,0.7484563516505454,2.750262773523251,2.7569762480765516,2.7771302705262118,2.394399321019914,5.287529925606329,4.291604975577145,5.088176423468968,6.409487413340313,6.249450943696771,5.7524344095528255
69,4.1941465279645405,2.903861735027221,5.209936145389775,0.608686746888257,3.4308685911177976,3.5058915603349416,2.6858237165723886,2.4924822881391484,6.047895565408475,4.85605014636385,5.177299050772357,6.676327602342682,5.9662792861567455,5.57095883154903
70,3.1129747091331255,2.1773021679827367,6.274620965262007,0.4733632152034916,3.8773326669236083,3.897540017322393,2.365102808094425,2.3449711016059114,6.384883102021366,5.111343227233032,4.91554257651676,6.447307932139741,5.227841344274718,4.948037859655943
71,1.813754293847446,1.383372969833811,6.877558462871082,0.3023792528084581,4.081215116393054,3.8932373582574145,1.8503325767435557,1.9733287603784737,6.263568923051739,5.029762980732108,4.308441707116654,5.702432886383103,4.097849862553526,3.9628036896395424
72,0.38204075837444346,0.5537023460237943,6.932856644359081,0.06029559364189741,4.046096536341849,3.498689826103842,1.1965673962140844,1.4235951622161056,5.683364459416779,4.607462621854907,3.3889824532062316,4.464730933143302,2.6713112451655543,2.7205647253869203
73,-1.088184655949261,-0.2843705545042859,6.402710980025784,-0.27659657934675363,3.7877842191742577,2.763417009243093,0.47258487016678485,0.7610036603693455,4.678900194315954,3.8665710190361646,2.2167601859862973,2.8026066046777354,1.0669722972208595,1.3419031986537422
74,-2.4993223745961464,-1.1058339327889601,5.305985779152518,-0.7150575774173481,3.333860165817173,1.7747554164098054,-0.24674505686994477,0.06227579086454922,3.3182509590274245,2.8548854720197196,0.8743556409946326,0.8277063939069401,-0.5825805644322306,-0.048890845462908276
75,-3.7553599229705648,-1.8856503437381529,3.7206953004703314,-1.24221416431547,2.722389618985805,0.6472544522333582,-0.8887952434313422,-0.5934069665624904,1.6986066694891893,1.6430339231604716,-0.5388252464417488,-1.3119624881238834,-2.142351711809404,-1.3349262089105098
76,-4.76748881203226,-2.5967008459318612,1.77954961794654,-1.8257188814971959,1.999749940895426,-0.49112600877968227,-1.3911697572661752,-1.1336068396521268,-0.06036513580603394,0.31929763989693294,-1.9146663081922282,-3.443352729150315,-3.4868176970792275,-2.416351935093282
77,-5.459999946810062,-3.2086263669308153,-0.3413865770695545,-2.416670752847398,1.2176950443647487,-1.5142132624303222,-1.7083494248573865,-1.5008710089245454,-1.8250858484057724,-1.0174335582133567,-3.145579922035387,-5.383251952331339,-4.511044475112448,-3.2177377572218355
78,-5.776134924584793,-3.6879829402532036,-2.439941567515175,-2.9548623788495703,0.42990186653338974,-2.312272699390881,-1.816193125951637,-1.6590323036016874,-3.458053078219078,-2.2658896682706877,-4.133909798520272,-6.955323414611769,-5.139853311466216,-3.6926812827932536
79,-5.6833925678932555,-3.999886980111592,-4.30916381979926,-3.3756569637450955,-0.31167672260896906,-2.804301883832171,-1.713802127965676,-1.5968711839381344,-4.828614478068474,-3.3310282361516634,-4.800543208578707,-8.007569179473524,-5.334050122626242,-3.8254575602988803
80,-5.177675332879911,-4.111066945775021,-5.760268618883313,-3.617651326814723,-0.9603150269382826,-2.9465312529332155,-1.422627356714557,-1.328793920064597,-5.82377592612353,-4.13219334919133,-5.091903613005005,-8.428324419965987,-5.0930808294983665,-3.629853899885313
81,-4.2856422445993685,-3.99399026158318,-6.644418425734173,-3.6302451779599303,-1.4775794822921835,-2.736241383535682,-0.9830714147179324,-0.8925538525889611,-6.358194152690559,-4.610060885637795,-4.984704313011048,-8.158974900217272,-4.4539087680677465,-3.145606035968623
82,-3.0647248443378476,-3.6315265945737356,-6.870585646524902,-3.380294554154839,-1.8357394559250964,-2.2106352914002927,-0.4491477280062269,-0.34438492529629167,-6.382450326450486,-4.731737199279862,-4.488093208775188,-7.20189210695868,-3.486353478377964,-2.4330326008068597
83,-1.6004531519753968,-3.02146601800441,-6.417146520754026,-2.8571545447682203,-2.019395403618189,-1.4411240684114879,0.11803426075171394,0.24780700024765837,-5.888722682328573,-4.493559046435744,-3.643068293303671,-5.622557608886086,-2.2855137661360376,-1.5665429658066516
84,-0.0010092557562616977,-2.1801549105273503,-5.335579303597803,-2.075590108648239,-2.026271785000069,-0.5239183972056526,0.6571064429522873,0.8123630309249897,-4.913100443430213,-3.921351218774246,-2.5192646518905164,-3.545439826986577,-0.9621739868858196,-0.6276801355965342
85,1.6107541010800452,-1.1445575033637343,-3.7456023343581624,-1.0762342096277229,-1.867173704303689,0.43179107660042104,1.1127904516422724,1.2819838971810447,-3.534022797163963,-3.0681174671578018,-1.2093943101909768,-1.1438311372246777,0.36776099515911304,0.30172111554540176
86,3.107262437758766,0.0278006887114002,-1.8221649213779696,0.07651452250605337,-1.565131390319011,1.3165714686139525,1.441087908290184,1.6011382642733598,-1.8666805145997587,-2.0093572276655123,0.17823441149862884,1.375507964289133,1.593739071357673,1.145798826465805
87,4.367272223367943,1.2613116051976494,0.2242470998326777,1.2990455948266209,-1.1537643917084635,2.032893045839765,1.6128544729356449,1.7319797605142373,-0.053652487307535676,-0.8364055418914658,1.5285681103842623,3.7914783395852547,2.6199726396418868,1.8400108836505988
88,5.286947431521442,2.4671869462811267,2.1716527032404263,2.495219260768575,-0.6749039900888397,2.5053349433674232,1.6155406495602904,1.6581731579491297,1.7474940048957812,0.3516259568442428,2.7293726115580195,5.889680101338967,3.3729959285619304,2.335327565157763
89,5.789785220519583,3.5504622577198868,3.812044981482157,3.5646547975631577,-0.17553391717496625,2.687813879367291,1.4531171441171937,1.3862739336218899,3.3785071029121903,1.4565903463535466,3.680767985254356,7.483227650750392,3.806805644438606,2.601113306583378
90,5.834269704363104,4.418484209542205,4.9751689620775785,4.4119281783815945,0.29584403875126236,2.567206883519429,1.1444044060259588,0.9445822497530846,4.695245816180908,2.3899337086612342,4.303945007283648,8.431164425486504,3.9052802303976675,2.626607414737643
91,5.418339599739098,4.990032393102681,5.547697391574715,4.955852794369546,0.6932405524840766,2.1631901289950077,0.7201772064890668,0.3796719573891513,5.581443326028392,3.080409477997236,4.548281894841946,8.65249452588286,3.6818339984089343,2.420974455724469
92,4.580092383896849,5.2040914196231105,5.485482154293736,5.137945503108094,0.9773370662220816,1.5245542015537696,0.21950399293171216,-0.24895776481277612,5.95998577827428,3.480149132703169,4.396157522574764,8.134276688804787,3.176506174485072,2.011955973386986
93,3.3945662621076864,5.027263249397268,4.817442419782413,4.929183914697122,1.1194148473270005,0.7226314228310444,-0.31419978095679924,-0.8754761951315525,5.800495422750513,3.5685034402514613,3.8649130382657213,6.932847354211376,2.4508937278625376,1.443216750514838
94,1.9668801941283518,4.458897087667816,3.640707408862955,4.334254776868734,1.1046322530093635,-0.1572562035375524,-0.8369737377509766,-1.4348218608805423,5.122388117884826,3.35327542534538,3.0056478213938487,5.1679841157628355,1.5814969678466577,0.7705416557990821
95,0.42241248200540504,3.533208272818992,2.107722772972379,3.392685604470378,0.9342082617189592,-1.0252727347776813,-1.307641949403297,-1.8695445318569117,3.993054418202887,2.86922178874845,1.8988339274565305,3.0106011261311663,0.6521493802106769,0.05710638188990237
96,-1.104985959348795,2.3179434879969785,0.40701668782526995,2.176536696658601,0.626116117825204,-1.7963960025238992,-1.6904728600710908,-2.13567014671803,2.521336243325166,2.1739817749703336,0.6470643638743812,0.6652894417920677,-0.25375641310615343,-0.6318805939972821
97,-2.4855475359940855,0.9095043453899523,-1.2599186215531255,0.7846860069343372,0.2140117592124042,-2.3986295433616305,-1.957105097700438,-2.206988257093791,0.8469727363037718,1.3418685483998563,-0.634429989131023,-1.6504128131435798,-1.0605573298453759,-1.234791605738833
98,-3.605649522898586,-0.5751675059937517,-2.702736294335439,-0.6658738562603697,-0.25568691753159356,-2.7793320167801694,-2.0877832068399873,-2.077342073236722,-0.8728953399823717,0.45618735189463816,-1.828599503379637,-3.727785501776551,-1.706516328124378,-1.6990111516314736
99,-4.378183885777584,-2.009253718678919,-3.764375559678874,-2.0509385342105437,-0.728412577431711,-2.9091647039591564,-2.072016098221683,-1.7607287389196908,-2.47879266082986,-0.3991073321062503,-2.8276705757676255,-5.387402941904069,-2.1484515200886243,-1.9857094175520962
100,-4.750222770437291,-3.2682426861778993,-4.33857880234751,-3.251106126009083,-1.1473385900491613,-2.7834554050717535,-1.9087918969707398,-1.289266800301737,-3.8240540321605723,-1.1475512563435912,-3.5434045801666674,-6.496170835193658,-2.364484298799001,-2.073484109972488
101,-4.707243715442378,-4.2423588910492915,-4.380756887544134,-4.163623750162295,-1.4599036783200574,-2.42106785220276,-1.6064576329117146,-0.7093272145422349,-4.788580634949182,-1.7272814170752981,-3.915475352920561,-6.9791754627605584,-2.354762364144379,-1.9604480339606125
102,-4.273518449315753,-4.847850781297584,-3.911039587098075,-4.712740448307542,-1.6241718160471472,-1.8611167162978715,-1.182313623043656,-0.07632222349241952,-5.28990153954162,-2.096413563910302,-3.9170950701160248,-6.825179192631472,-2.1401754120099854,-1.6644484232457764
103,-3.508646142715449,-5.035800358359445,-3.0093421073206996,-4.857357916391452,-1.6141821787186235,-1.1580557531235856,-0.6619032131398139,0.5512214401833712,-5.290505445602697,-2.2361726101615846,-3.557288766300566,-6.085297914372841,-1.7592314214225777,-1.2212717298320028
104,-2.5005998911503906,-4.79734543837183,-1.8032789644349332,-4.595052772673681,-1.4235282467250139,-0.3757771474335444,-0.07792544412097759,1.1176262121526488,-4.800770212178629,-2.151511312266109,-2.8795595028209804,-4.865146899279707,-1.26340219540678,-0.6809050565167684
105,-1.3560215275194234,-4.164598011637171,-0.45063821843477436,-3.961961680072003,-1.066615662644035,0.41861065991354734,0.5313179278169936,1.575415824237814,-3.8772450418103457,-1.8692339141721914,-1.9570662305997373,-3.311461845822463,-0.7113774422583231,-0.1021691864957475
106,-0.18880605559934333,-3.207057183474597,0.8812180785113334,-3.0285180186925693,-0.5773563661172778,1.1607068851475542,1.1240010833637173,1.8895132146194609,-2.616493541430394,-1.4339207850608429,-0.8848141708878102,-1.5948104400487724,-0.16277894121966952,0.4537276715422235
107,0.8917761974191573,-2.023884677567193,2.0363204480387656,-1.891536517959777,-0.00541339248755411,1.7939354629957152,1.6573715256711403,2.03990604298053,-1.1451376544496648,-0.9021910201482399,0.23031079931723566,0.10956334529709659,0.3280349189434605,0.929984225248169
108,1.792099170046363,-0.7329503077128643,2.888735913472057,-0.6635890514100481,0.5895427591370886,2.2735020143343156,2.0907697804123155,2.0226013737750432,0.3928939167144369,-0.33600995514710297,1.280588974240571,1.6405278330524098,0.7174187669918645,1.2805270218524352
109,2.4431080675263845,0.5420218421859996,3.356574941459621,0.5390624966793129,1.1448272303414446,2.5690125409691387,2.388882169846617,1.8488985315146533,1.8506480415510957,0.20417419445749777,2.1683986200047514,2.8673265694218797,0.976537404742644,1.4750624261187149
110,2.806166350229877,1.6846371534978544,3.4097280392951963,1.6085554792692565,1.6020782986276736,2.6657411962402278,2.524957359927099,1.5431966707458966,3.092554147165553,0.6656996135347104,2.815852858769814,3.7015045856365383,1.0936369750542645,1.5022059409758153
111,2.8752148730660188,2.5977555925010187,3.0705855025143656,2.4561458235510836,1.9139998765118673,2.564660826802255,2.483660609645965,1.1396974975874414,4.00753333024895,1.0087045881146262,3.172111523120289,4.103268446184791,1.0742254040075867,1.3702696781788655
112,2.6750968144550322,3.2127670199673157,2.4079591102524596,3.0203679889639004,2.049664479709192,2.2814190322627,2.2632149008089892,0.6784482605259778,4.519498002322351,1.2093945410852607,3.217603325451578,4.081788378343948,0.9391567482692483,1.1055840726362172
113,2.256386704832584,3.495206240404348,1.5253350748179741,3.271793729353764,1.9977377834608818,1.8444574948818462,1.8764963331242286,0.20119188088613116,4.594171214905932,1.2612927101396332,2.9647501380343866,3.6897433102472044,0.7208908617117185,0.7485550684146052
114,1.6875090144751677,3.4462053143232163,0.5453183274970514,3.213994874291636,1.7672723955138223,1.292453800471444,1.350821709315612,-0.2525426009505184,4.241518105285092,1.1744562048046938,2.4551973182727456,3.0131466971396805,0.4584557070530206,0.34797804550451794
115,1.0452773235145394,3.0998396424607026,-0.4074243286980425,2.8807994947898385,1.3860452607453224,0.6712374645269165,0.7262887492949196,-0.648751728584567,3.513539575608768,0.9728882505392074,1.7539710313257217,2.15806620671828,0.19183155651822192,-0.04560291088085034
116,0.40516901972713215,2.5169478950633044,-1.2223139061360189,2.330382947382278,0.8967332454039575,0.03031595721561696,0.05269149775531253,-0.9614167934135325,2.4976820732886877,0.6905862203490045,0.9413458430275977,1.2361781351616907,-0.04343623969405851,-0.3865415945909139
117,-0.16736512410408155,1.776416690755841,-1.8159465280691838,1.637094389375784,0.35149016781376846,-0.5808429445383932,-0.6147845169585241,-1.1739717191614145,1.3066088399617841,0.36680282879215526,0.10346002194435992,0.3511317892868456,-0.22063050235507867,-0.6397813880405905
118,-0.6234729204039517,0.9651671795913968,-2.1405197638563807,0.8821418528418168,-0.19432949068177918,-1.1165844977992236,-1.2207044781590575,-1.2797570074472873,0.06549705757947226,0.041148350556742555,-0.6771732777251216,-0.4125580148931201,-0.32466474985318466,-0.784778806879087
119,-0.9346477200183042,0.16814119285793652,-2.186764082785857,0.14432183726702377,-0.6884817333496862,-1.538647187310946,-1.71483320486951,-1.281541225097028,-1.101684154044433,-0.2508759130730127,-1.3301546474470234,-0.996871809907175,-0.3529671833853277,-0.8171315139728048
120,-1.0934117873410814,-0.5405322303135213,-1.9813933662250256,-0.5081173658298225,-1.0874018091300683,-1.8192471470989944,-2.05727050683362,-1.190272218264701,-2.0853404920782084,-0.4814340501666396,-1.803766888859178,-1.3733320043142168,-0.31443878092065203,-0.7477614749793431
121,-1.1111701358634558,-1.1042686871982357,-1.5798841362169322,-1.023621687623864,-1.3603968995798907,-1.9433456199888601,-2.2226418463475923,-1.023268911441017,-2.801360752230668,-0.632681050569086,-2.068992690874717,-1.5418490496568678,-0.2267884079027909,-0.5999076318126032
122,-1.0138632283163334,-1.4880867589046582,-1.0560139781228264,-1.3709540894799812,-1.4920477834240549,-1.9098126056442069,-2.202790147289185,-0.8020803168123434,-3.198920127961082,-0.697711051714032,-2.1206981000192124,-1.526073044391298,-0.11278905658936556,-0.4045343928396657
123,-0.8363029800424703,-1.6798023328399758,-0.4899485614390406,-1.5401251866730215,-1.4826626219956427,-1.7312907698861633,-2.0075764640700657,-0.5502295113817374,-3.264147837825732,-0.680149888184057,-1.9760553451265241,-1.366370203151482,0.0038670683280523596,-0.19499357708713974
124,-0.6161670874596764,-1.6885303350131107,0.04327388691281904,-1.5408128655852145,-1.3468852563320968,-1.4327029025586682,-1.6636291629910767,-0.29103834300974096,-3.0193551149702778,-0.5925624430618615,-1.6706026071244702,-1.1117379830105745,0.10242339637376521,-0.0018488670808710869
125,-0.38855642755409064,-1.540967461088452,0.48323860307096206,-1.3987431964710038,-1.1107849779100196,-1.0485140491091727,-1.2111535106222135,-0.04570024700841506,-2.5180868776217205,-0.4539667165251056,-1.2525929061302774,-0.8119476965547884,0.16803176380448098,0.1513194287150141
126,-0.18181880003659245,-1.2761428905697816,0.7904642085511082,-1.150703694321883,-0.8079158815956203,-0.6190260579898823,-0.6991828751777983,0.1682659142580748,-1.8367857190654522,-0.28683051303914997,-0.7764408136798394,-0.5109890228238806,0.1934412693099146,0.25053819300542196
127,-0.015057284639780547,-0.9394328824667235,0.9489538826210746,-0.8389498185156926,-0.474914938616132,-0.18611582251026296,-0.1798731234636614,0.3380896575406261,-1.0642642913380957,-0.11396355309763266,-0.2961190612693636,-0.24254161517522646,0.17924699756760937,0.29221724329690657
