,AF3,F7,F3,FC5,T7,P7,O1,O2,P8,T8,FC6,F4,F8,AF4
0,-0.9306695087069347,-0.38818657531697504,-0.596350877223186,-0.2647546836808108,0.057455381138064615,-0.22569046958632868,-0.19246231832528124,0.23546312263757585,0.8758680542888646,0.1892853073376844,-0.0036141783716555466,-0.626565484470054,-0.24091674001285407,-0.8481865102042511
1,3.5154316187571015,1.1817713249687007,3.6334030532578985,1.794259067522412,1.8250316151485246,0.0337382536159627,0.9942207960258787,0.27244415657617715,1.2057330218521438,0.8965656487821715,1.8895172389275599,2.7950630680217374,1.9109817455792006,1.9177692995874656
2,7.586037185712449,2.582603984454864,7.474751099139602,3.622654238464719,3.3591536146781356,0.1832642792277227,2.027929649601253,0.2801536699987506,1.4575424914718234,1.5171790337182687,3.6080855039959943,5.936712260794447,3.839919509292627,4.436662059096921
3,10.870246087387358,3.628506597459866,10.515154693312482,5.009174438596106,4.478038958769239,0.17208096120044897,2.7859462279516003,0.2465311887953837,1.5945943955891804,1.9796167094209485,4.9871140319990435,8.458958138203256,5.3426851347673825,6.42768090144843
4,13.051390676848735,4.1817105539037485,12.439723724665956,5.797662453203572,5.051773555262676,-0.02333235269876782,3.1852730350568743,0.16587288414647566,1.5920044456663598,2.229341761556785,5.898140683071962,10.098445148889882,6.269891946009745,7.680244030859942
5,13.941253354807523,4.170212605758417,13.066051808741975,5.905988608514721,5.018186706157498,-0.3945451794909395,3.1922376307319036,0.04045546555736805,1.4409817224999368,2.2350864705759577,6.262684036718523,10.696775895919071,6.543004555841012,8.077994336436117
6,13.497728900835716,3.5965185324127686,12.361822908453187,5.335510976217736,4.390053429517964,-0.9010460792868051,2.825030593732687,-0.11912425151831053,1.150789775086458,1.9925840910285713,6.05991434173692,10.215566121640826,6.162023088910578,7.609856330161377
7,11.824208680162645,2.536377658398836,10.44350783592447,4.169916114222861,3.252738975008609,-1.4747891520571499,2.149017387145151,-0.2950046323298775,0.7480757202974557,1.5252887179994727,5.327697666880583,8.736300000359165,5.202973319425675,6.367102861486297
8,9.151449191174356,1.1278885464645096,7.557043886466937,2.5636857832894977,1.7526572991134162,-2.0289246498586304,1.2657158875692225,-0.464395508779724,0.2736786706637988,0.8819801184299803,4.156993813697128,6.445717066377774,3.8057447435637464,4.527372921146786
9,5.804972917151291,-0.4473387769958689,4.043740243875648,0.7217819179957512,0.07811301315512947,-2.4696314645465476,0.29723850683643593,-0.6028653857088431,-0.22257509463409733,0.13150514327302223,2.680395288620629,3.6093588689297267,2.1541161294771336,2.32837016142326
10,2.1628125029125025,-1.9882593504144952,0.29644504972506486,-1.1267396718253104,-1.564923455711339,-2.7095039164712795,-0.6313807948978449,-0.6880792913429342,-0.6882844325864982,-0.644773072233141,1.056286727985342,0.5373272400031301,0.4508232621274101,0.035288270720609
11,-1.3905781158568682,-3.300399651949585,-3.2879840009746633,-2.7577300893464254,-2.9789221208630035,-2.6806743660715364,-1.409316608033185,-0.7033948741564191,-1.0751320128228634,-1.361997744495762,-0.5494067391287356,-2.4529287730176077,-1.1088826729300125,-2.0933292139023285
12,-4.508261634724822,-4.220354078002891,-6.353744143017843,-3.979820697797593,-3.999383598446899,-2.3458227202374866,-1.9540596652409072,-0.6407290418738874,-1.344833042325123,-1.941331714868708,-1.9816809742930062,-5.071944765614426,-2.361633875194985,-3.836649488157583
13,-6.917281397474373,-4.635664735218022,-8.623254657568499,-4.65763053580399,-4.514750650249265,-1.7054494232482622,-2.220579127789172,-0.502211489658698,-1.473570678270167,-2.31891448027544,-3.112963503759476,-7.087487921613851,-3.195130166736015,-5.035619943672679
14,-8.443664132768012,-4.497706411268483,-9.922414041668532,-4.727427019044017,-4.479128562124612,-0.8002513492188773,-2.204455345995086,-0.30033088217835,-1.4543809065565658,-2.45325051315915,-3.855811445732927,-8.34470214945386,-3.5597324402026698,-5.6073835565509995
15,-9.023750894610593,-3.8262049658667214,-10.191798197703177,-4.203379350019569,-3.9162808712832935,0.2919136858412968,-1.9388812019477715,-0.05652424393926122,-1.297278946519332,-2.3301557200424585,-4.170448082364363,-8.775637976822837,-3.4711810580124576,-5.5489150611509075
16,-8.701582302792662,-2.7051487715451046,-9.483658721007203,-3.1737880626015085,-2.914543326319919,1.4642431621947043,-1.4863958807093853,0.20158271619394455,-1.0272548808061137,-1.9646311447096818,-4.06644962062087,-8.398215852254246,-3.004390197990045,-4.93032620676487
17,-7.613875296073279,-1.2709483062727698,-7.9464294194816505,-1.7879754462129103,-1.6135125731670177,2.593417758402124,-0.9270039021453733,0.4438554202783953,-0.680553385231408,-1.3993620712442436,-3.5986165808134483,-7.306045140025458,-2.2794782810067855,-3.879658136063822
18,-5.965569244691715,0.3053820670551324,-5.7998826888159405,-0.23571014221111125,-0.18445145797342521,3.5546489429021184,-0.3448134921252199,0.6416782955574308,-0.29984823710718117,-0.6999243935529272,-2.8577602107716973,-5.6515138628323065,-1.4422145672069808,-2.561957575581621
19,-3.9998201608447377,1.8396053722195629,-3.304926199869216,1.278036171175282,1.1928384398754401,4.237343011775333,0.18457172967598004,0.7717183473679337,0.0709956100388192,0.05282550087722093,-1.9577189048726718,-3.6250656948730158,-0.641757587784613,-1.155911686442795
20,-1.9666115809956222,3.1564845876759935,-0.7322326411363679,2.559655825815339,2.353505057306438,4.559247190471249,0.6039566412798512,0.8188773028059665,0.3919095376108053,0.7723438001013673,-1.0203240432581393,-1.4335731963660137,-0.008843739511669965,0.16872514244175033
21,-0.09386031896271693,4.110160950009963,1.6665027115330406,3.4513478586165123,3.168343860365324,4.477120756571599,0.8804002716004853,0.7780378364095143,0.6308142028569793,1.3768645951667335,-0.16021529244042756,0.719726885109683,0.3625730732311269,1.270171827175148
22,1.4358598686614221,4.600350719854859,3.6817431406634666,3.8503325680858507,3.5590081502191615,3.992438835425342,1.0064389489739147,0.6544157684100386,0.7666429676721883,1.7994649992574725,0.5286508310657649,2.6520023498572787,0.42778962324122294,2.048195398931004
23,2.500907657461566,4.582622078416,5.1619290802938,3.7204758710779258,3.5058493886989694,3.1513204196998608,0.9969554712805315,0.4625494682672117,0.7909992724378241,1.9964406897216318,0.9832315639086224,4.213400187094953,0.1963597887613174,2.4512441212334077
24,3.0475798913755354,4.071782763460918,6.021328691388491,3.095000961434539,3.0475630566776992,2.038676896515387,0.8826947212247361,0.22415259719033526,0.7084088924258022,1.9528519069722845,1.1772552434297743,5.295290720831241,-0.2708708777415712,2.4771107735147346
25,3.0887595783683905,3.1382558617154372,6.240386255091966,2.0701632946225494,2.272965902229197,0.7673928595927272,0.7019424581627208,-0.034799784665427096,0.535254044744487,1.6844189164912757,1.1221691887247003,5.834600212278748,-0.8721066644741919,2.167907481023195
26,2.6953668927175136,1.8981469378983487,5.859837704660925,0.7909586017777621,1.3063115749559897,-0.5359355608154013,0.49211050097943027,-0.28730321100047945,0.2975762074955824,1.2354088331753812,0.8632699246359486,5.814932994331234,-1.480718037151807,1.6007149614348346
27,1.9824268606439088,0.49841226981114894,4.970318387903832,-0.5690431050326407,0.2884117220081441,-1.7466770940798664,0.2828776851620891,-0.5084167102391716,0.028016658604598555,0.6727040319049022,0.4717092861576314,5.265192535893661,-1.9647631560408783,0.8755758761964862
28,1.091896888760774,-0.9009576330021543,3.6992876307351645,-1.8309316088310152,-0.6436507639420077,-2.757025440231507,0.09213912268218133,-0.6778171131093478,-0.23777198200141433,0.07679130286325918,0.03356458865675717,4.256202246182608,-2.207120505311161,0.10253077808559888
29,0.17441587619774182,-2.14557486528879,2.196895682359263,-2.8336403727003066,-1.3753185815988345,-3.487952951217618,-0.07461389827835549,-0.7815278885699575,-0.4648730209269452,-0.4691325598856078,-0.36251907322068183,2.8955048719736944,-2.1234142916693055,-0.6108155694198035
30,-0.6280960873655612,-3.1039637264982542,0.6220297420784733,-3.454077411181492,-1.8292733513790533,-3.896639388482068,-0.22160664807279323,-0.8126840786070805,-0.6226428573633903,-0.8904565409106151,-0.637498054674667,1.320216567511755,-1.6752824559246906,-1.1700835315364424
31,-1.19745146099001,-3.681654620669308,-0.8706690881666707,-3.621708443463185,-1.9741373934087778,-3.978487938182813,-0.3576243137072573,-0.7713549421726144,-0.6877138627152872,-1.1312992019341725,-0.7323978976747063,-0.3123416826368835,-0.8772292497008114,-1.5025851236333
32,-1.4507404631640195,-3.830622868367921,-2.1424010258180592,-3.325912754913586,-1.8261582202925486,-3.763710886548579,-0.4897631044020473,-0.6635915882213734,-0.6462236579755358,-1.162099646886688,-0.6158513815079802,-1.8364267097504414,0.20379180707646669,-1.5631846921014554
33,-1.3477578805770098,-3.5532050513328506,-3.080217134867285,-2.6154324275366085,-1.4439096782206557,-3.3093293138697204,-0.6177167081006008,-0.499973338185899,-0.4951411937639232,-0.9836052813242036,-0.2878948780836554,-3.091914311717729,1.4559374844603317,-1.3375514240216704
34,-0.8940228640766387,-2.9002509854678364,-3.6052808699754135,-1.5902789737339507,-0.917046918551229,-2.6881361482096935,-0.7301310052368543,-0.2939748577291526,-0.24266835993201188,-0.6267015441814735,0.2203020857194701,-3.939890345881192,2.736125941734932,-0.8429381769424381
35,-0.1393852796411638,-1.9638845378822167,-3.6791043119096436,-0.3874080938401179,-0.350974623488644,-1.9765993922467067,-0.8041347241438066,-0.060459584276884,0.09222307642985503,-0.1480996868486571,0.8506025247036021,-4.278447168315756,3.8879753410471474,-0.1266356412605527
36,0.8275577191251785,-0.8657976842061605,-3.3072974539319424,0.8377918782317918,0.15018399954852363,-1.2437616424041478,-0.8084803289817514,0.1854685824966335,0.4810179945250847,0.37753116049010615,1.5253387147343347,-4.056788042896463,4.761720279815188,0.7377950376654954
37,1.8887899339843206,0.2575522363802569,-2.5402217669384353,1.9317073949913304,0.49976222555875877,-0.5429139322063729,-0.7099380309015838,0.42913612265613477,0.887541441104769,0.8679078091406801,2.1570317206428014,-3.2854428635770505,5.233577183355183,1.6564369920920878
38,2.909259190588524,1.2711642996562726,-1.4699294815417858,2.7617968400614177,0.6415185632828223,0.09275891101453759,-0.4818289645586204,0.6565038188874079,1.2704104588616838,1.2445256110984741,2.6591675529443752,-2.0404811742303486,5.222108918717869,2.5229547167702426
39,3.751354564971252,2.0573136365314837,-0.22296125955126295,3.232585784278864,0.5575853346186717,0.6501379214935462,-0.11301098190437878,0.8540375160856111,1.5859892946241592,1.4435257986699028,2.9567188811644947,-0.4601237512457849,4.699507745805767,3.228271280735188
40,4.2902505537032445,2.529189102069395,1.0510229031775677,3.2964755588228534,0.27036348132477306,1.1321339310797245,0.3846368489259328,1.0084726873964052,1.79179410496144,1.4245442440537646,2.995179109078531,1.266938498332408,3.6963414642395227,3.671454980763728
41,4.428676032264921,2.640801135771129,2.194235568332376,2.958203997263908,-0.16176475726103698,1.550777961633743,0.9720789773088577,1.1067420367466674,1.8502734605127895,1.176348464167477,2.7471029899336235,2.9210321748448433,2.29912429166537,3.770992869533267
42,4.1095521141491,2.3920177097305433,3.0581841530243197,2.2726341830546204,-0.6541358774279428,1.9190571779336625,1.5837063378495886,1.136312906928469,1.732827589989816,0.7185418710821992,2.2154884487137183,4.27704259717069,0.6409819245894786,3.4753580668579525
43,3.32497378458387,1.8281249356380787,3.521721909060165,1.3363835913792235,-1.1093853631289328,2.243303782953176,2.1332254081250657,1.086092848923126,1.4238215521670279,0.09917860839817252,1.4337340951353217,5.1331087167792075,-1.1134410740389196,2.7715970961729464
44,2.120219233695134,1.0339226610738201,3.5074875483016625,0.2745374976567095,-1.4328521704423185,2.517796777351797,2.5244869826713505,0.9479210101878636,0.9242114187752938,-0.6113044885051103,0.4623063736160191,5.338752413236684,-2.786954139802973,1.6906353580263493
45,0.5918782501536645,0.12298999312913637,2.994348034255982,-0.7757638620365989,-1.5475349802857699,2.722784460200629,2.665926641295481,0.7184963598458524,0.2542720096117907,-1.3289544238713298,-0.617401444452955,4.818405355131846,-4.210314813624527,0.30817053604863465
46,-1.1202070915504883,-0.776670903019204,2.0236910708575024,-1.682764969505868,-1.4064383045299895,2.826460980910695,2.4864938670326358,0.4014348769760893,-0.5451642541783933,-1.966750765710007,-1.711271031647923,3.5865903054819817,-5.2417105877997825,-1.2595838015706164
47,-2.846743161946608,-1.5389407763828638,0.6980454373966893,-2.3364074344443773,-1.000556197827965,2.7906512149071343,1.9504693959123782,0.009031809630611292,-1.4135290837351127,-2.4452667578436795,-2.721805457651272,1.7519329592068615,-5.7828413965285295,-2.8654459298326893
48,-4.4072674329868144,-2.055870750875263,-0.8285178763613672,-2.661555299310689,-0.3613829473768706,2.579210491210781,1.0685114281021773,-0.4367369044030097,-2.273822938741198,-2.7022029325707146,-3.557634622235428,-0.49137207589332077,-5.7896557024424204,-4.345511481928927
49,-5.630908997681392,-2.2519058181312603,-2.367566269098624,-2.62658753056817,0.4423805717968317,2.167562869313854,-0.0973349482745327,-0.9043876800484638,-3.038537594181214,-2.6996484335325217,-4.142221165012525,-2.8842434439400475,-5.276468507378116,-5.536741825936816
50,-6.377087892544127,-2.0941744717154958,-3.719225654144976,-2.246396498337198,1.313448128535994,1.5514938918926886,-1.4361228123864225,-1.3545428299716085,-3.6179368026281002,-2.4282525469532237,-4.420927219534119,-5.1333200706204964,-4.313020508086859,-6.295894587576814
51,-6.553411370300443,-1.5974057251133191,-4.697983809808138,-1.5795212838135142,2.138693343683654,0.753347596786698,-2.798327425155541,-1.7430298390869114,-3.930000442020282,-1.9079075032969748,-4.36580361860563,-6.947692774145078,-3.0149288763011204,-6.517402437242163
52,-6.128228801679065,-0.8226860466767354,-5.157887783836598,-0.7198642743442137,2.8042661266863007,-0.17583882977291082,-4.013101582444581,-2.0252565420105624,-3.9109493499493873,-1.1850025300981022,-3.977727603725968,-8.07689912343249,-1.52882383287044,-6.147760490516611
53,-5.135918351620958,0.12993516965929763,-5.013524936402542,0.21589540561203813,3.2110267937353165,-1.159053757405044,-4.910363731700568,-2.161407711025535,-3.525004562636949,-0.3267439469499437,-3.285808019984271,-8.344957086239173,-0.014146327006434539,-5.1943126501507795
54,-3.673922198427576,1.1341492181680433,-4.253613262425342,1.1035512563799457,3.2882267709413973,-2.1008257177989154,-5.3446943510748195,-2.121816223493608,-2.7719511620103465,0.586621113150148,-2.3442543831712377,-7.675615333441362,1.3760029309403434,-3.72699343975354
55,-1.8916876070637547,2.053807010056051,-2.944976665016506,1.8273211716879285,3.0036241446568632,-2.8986136321764575,-5.217528753033702,-1.8917566994934858,-1.6912034414498818,1.4706386411652868,-1.22713246225382,-6.1051182554587635,2.5124894566938623,-1.8724924889516095
56,0.027160103474777954,2.7609032062338312,-1.2260186372874722,2.2944699127256167,2.3687135119877714,-3.456436797934368,-4.494193730780065,-1.4749144815922295,-0.3614070953734697,2.24545791193452,-0.021588028714870155,-3.7804717275387048,3.3040297459580814,0.19866296046055335
57,1.8870704809717898,3.152704718145311,0.7096644617307553,2.4467588653535506,1.438399369615498,-3.698670500940346,-3.212957776535041,-0.894904985153918,1.1048639708634775,2.8436379026717944,1.1797885855463663,-0.9432138470002387,3.705671638817322,2.290614544070146
58,3.504210709263424,3.1656724611908857,2.6374148579388756,2.2673052205414566,0.3051621164140587,-3.581847621092887,-1.4843675284569577,-0.19444602812125508,2.571115435773078,3.2161808955151123,2.286755824010465,2.0992562795222076,3.7209714698440894,4.203960908130088
59,4.728218595819344,2.7842390996240094,4.330095993385749,1.7820399168614476,-0.9115369117936587,-3.1025827536292043,0.519442263577015,0.5679102096784332,3.890766232738145,3.3362989528667155,3.2186969239024776,5.0109754000866245,3.397836285306474,5.758021823619737
60,5.459049462043637,2.043208952475689,5.5871470834752275,1.0556608724120822,-2.0792756869303393,-2.300315224556005,2.5842783088095227,1.3232407639376251,4.923316300037855,3.200710836314599,3.9107774047094694,7.468320906190749,2.8188502710948207,6.810678938353933
61,5.6566415386141,1.023436393273593,6.260050619539444,0.18269134948444712,-3.068368239143735,-1.2543415021999054,4.4797301407583765,1.99934395422034,5.550907470334377,2.828538754250202,4.3185005988791545,9.199050798196655,2.0876246374084837,7.273231542230035
62,5.342229179584284,-0.15861554071764863,6.270694268701756,-0.7251203382266534,-3.767296719912544,-0.0754425069043891,5.987829625406895,2.5286364074469914,5.693134699787386,2.2581047770624423,4.420335811085779,10.01435758876911,1.3132055395892341,7.118430562689629
63,4.591419896592091,-1.3659752581443252,5.620180111407068,-1.5533664541191214,-4.095985571351105,1.106822271026749,6.9305938940890535,2.855881248153326,5.318062562154952,1.54210702033468,4.218284038016883,9.829900408410314,0.594782872564888,6.380853212659386
64,3.520402782187512,-2.4588175865996096,4.387059820664933,-2.199590183145887,-4.015307030117684,2.159490631569582,7.192662463233348,2.9447551065256468,4.44780839023581,0.7417811229299399,3.7364536000604622,8.673411138391247,0.008838045641484733,5.149891572478326
65,2.26766322216263,-3.31223887152627,2.7155237859943187,-2.586049860874582,-3.531689173146673,2.9622372517251234,6.735940321351839,2.782382305148686,3.1577285947338205,-0.07928180664054912,3.017919652248813,6.6783820158686025,-0.39953577554990055,3.556669001193116
66,0.974180076820527,-3.8317404761430196,0.7955025648369527,-2.669022592770335,-2.696315239710098,3.422010097123014,5.604301493681326,2.381212357177346,1.5690997557753557,-0.8609887007663396,2.1203087663502043,4.0652378671819545,-0.6200574415537968,1.757001071928873
67,-0.23481355503272008,-3.9643730907947314,-1.162267442727304,-2.4435133628684933,-1.5990721270403252,3.4844123971926417,3.9178159730317796,1.7779592289508162,-0.16390748728552196,-1.5516651717445396,1.11065352738931,1.1129983738833342,-0.6751444393088504,-0.08704148088339225
68,-1.2638257256380505,-3.704141570417669,-2.952567164249653,-1.9428565587912527,-0.3580391812112207,3.1404288498222965,1.857425622100201,1.0297077877327165,-1.8713539953522538,-2.1115765815344725,0.060080857973008404,-1.8744745324374608,-0.612817487044463,-1.824392020503582
69,-2.0550110917178475,-3.0911057339218693,-4.399742280115826,-1.2333786390509185,0.8941711292862351,2.4277091298102027,-0.357704917713703,0.20766533594962877,-3.3865739271290214,-2.514783568360039,-0.9611735157370189,-4.603103315861201,-0.49592339801809515,-3.3288851220194666
70,-2.5892593255622463,-2.2045121298668438,-5.376350315737985,-0.40494352027099506,2.0255600430718337,1.4263136217845218,-2.496987784461324,-0.6106616660804902,-4.564703174174789,-2.7493068759364485,-1.888075216773179,-6.819777753895507,-0.3895166496087125,-4.508323395419986
71,-2.8809393609549976,-1.1511172682997837,-5.814266595453328,0.4412645532995573,2.9195755117781057,0.2495042604092957,-4.345721954401807,-1.3498952356505178,-5.298377547062278,-2.8158160341169203,-2.664252015460676,-8.336583616693757,-0.3484888794631122,-5.308143363693336
72,-2.967834960616118,-0.05049034239847901,-5.707353659516361,1.2060275405436396,3.487908722421759,-0.9692549681991799,-5.729342281616591,-1.9447917199722666,-5.528719632164921,-2.7252474750265843,-3.2445917613545983,-9.04578503424096,-0.4074514645741575,-5.710015962651011
73,-2.8985478640610745,0.9805719728585898,-5.106092451512046,1.8046574467679677,3.6798128954449436,-2.091501514693142,-6.531604304719158,-2.346881511810735,-5.250407194143177,-2.495865385587398,-3.5970737988099684,-8.92467751936331,-0.5744751202265871,-5.726470671225951
74,-2.7199485331828717,1.842359948743754,-4.105708959559461,2.177193349766321,3.486946528018941,-2.9893740631780497,-6.7046630174996515,-2.5290002127569857,-4.510417492794679,-2.1502920353539126,-3.703973421025013,-8.030804606248585,-0.8296426195110892,-5.393117108891541
75,-2.4670889748195606,2.463415625738492,-2.830140120386855,2.2949545851127686,2.9432904113059593,-3.559799033439029,-6.270202152693712,-2.487257668988962,-3.400855495276413,-1.7129625493712126,-3.5625576597943196,-6.489182324726639,-1.1285848408271104,-4.760199307152096
76,-2.157405027839995,2.807201126662499,-1.4145639025347203,2.1627022589182343,2.120270166588773,-3.735670141975006,-5.312026576830064,-2.240325299515514,-2.0469951837355365,-1.208322084885903,-3.185321140505873,-4.473965316784537,-1.4103714034059922,-3.885059181217749
77,-1.7901414227391617,2.873621750717846,0.010859548932201016,1.8162757023904086,1.1177640583594612,-3.4928339492202167,-3.9616642361018233,-1.826256145072197,-0.5922065956912043,-0.6599065543422596,-2.599717979132037,-2.1873458315292598,-1.6084369032823702,-2.8266593991197646
78,-1.3508927385330693,2.695514503366759,1.333882941829729,1.3161857804593802,0.05212820096272258,-2.8522329281856393,-2.379375399023548,-1.2973412784761125,0.818256598597576,-0.09025998970177819,-1.8472581540939703,0.16159915070614117,-1.6627441931588998,-1.6427143406033669
79,-0.8201493750289066,2.330922945053066,2.468351762623995,0.7381821720660893,-0.9573190343091009,-1.877145918725778,-0.7334191864770159,-0.7137128113595275,2.0526091549587795,0.47852903805047536,-0.9817821589401664,2.3758419475728365,-1.5311869927698991,-0.3893210600100799
80,-0.1839455918601341,1.8525395618899987,3.357268737813817,0.16219720147128583,-1.801774447995846,-0.6660183215965471,0.8195682382908968,-0.1365043624230881,3.0052756914961765,1.0240178324166136,-0.06672983166381784,4.285541192337913,-1.1983443843756472,0.8776041624804942
81,0.5557337741673621,1.3360306323104798,3.9712648391665617,-0.33874636776336303,-2.3948554097166603,0.6581785146722521,2.1506442755236352,0.3786307382642756,3.6057478761285475,1.5227387751918602,0.8287076800647241,5.758591916549367,-0.6801030053486765,2.1001870598433263
82,1.373140949038187,0.8490242657022925,4.30373021022837,-0.7081161395188532,-2.681615873646287,1.9608203018217556,3.169377092885122,0.7869529197301313,3.8229001657073787,1.950067790224722,1.6345201098837798,6.706532956378293,-0.023299319967587866,3.217016635394869
83,2.215472162484673,0.4423377265696845,4.364280404688517,-0.9126502641483216,-2.6437163667115238,3.109357970442796,3.82862351186218,1.0585138959678224,3.664752435095493,2.2809340645804683,2.285662354053373,7.0863193667606685,0.6996883189747614,4.1632647746558735
84,3.0052187881110046,0.14458183169679104,4.172288734526646,-0.9454881915859521,-2.300256150656632,3.9865308119013974,4.123413989560528,1.1801935192731914,3.174233667762982,2.491491884377655,2.728232507808415,6.898793854242035,1.4006630674032514,4.873250682940208
85,3.6482485690017716,-0.03931843257863473,3.751917678532353,-0.8253630400243598,-1.7042924108685793,4.501820383421431,4.084889619314436,1.1558401787417278,2.421907831670072,2.5616397191660316,2.9253751445837786,6.184771104929465,1.9882041759889564,5.2856066764462275
86,4.046609403065666,-0.12580220596606986,3.1295153874671993,-0.5921600844909847,-0.9355779150602681,4.600118584497643,3.7707927287173915,1.0046654755851703,1.4968372444940652,2.478033360716069,2.862102036656062,5.0195276670328175,2.381194161961598,5.3505331877850955
87,4.11410365678774,-0.14725682412587984,2.3335449978790126,-0.29967578571684167,-0.09048191378362323,4.266868288412218,3.2542754612732803,0.7582079529910463,0.4967862274049406,2.237059712985723,2.548208738538334,3.5062529704486787,2.521154527683844,5.038028174593162
88,3.792063151954559,-0.14464121953059372,1.3965407492097923,-0.006790882044541981,0.7296350279705879,3.5292627337780145,2.612761677685659,0.4562901842899466,-0.48116211524209773,1.847163266484783,2.0186116428250815,1.7687618609054823,2.381432056772701,4.345575188349146
89,3.0625779539440985,-0.1594829035630293,0.3580722509829422,0.231556934670912,1.4301793833328411,2.4534362692693104,1.9183219979078838,0.14244308547057355,-1.3487493965269592,1.3299675651855591,1.3307323323620985,-0.056423159344365405,1.971771616655315,3.303668071442376
90,1.9567280129611946,-0.22654614326061487,-0.7325605678067503,0.3722664513092368,1.933838187304539,1.137924678509499,1.2305768692752581,-0.14073656416140615,-2.0329290571363354,0.7197986021219962,0.558968333137234,-1.8285927456451265,1.337546730552727,1.977766725509522
91,0.556086909640979,-0.3682259669089653,-1.8151441440604648,0.38975147158052825,2.188671483472173,-0.2959956660085793,0.5926237424323688,-0.3558823662452565,-2.480291849696734,0.0614641713892422,-0.21326164675092282,-3.4119018774516516,0.5537672143900011,0.46577915678099585
92,-1.0132059996232916,-0.5913352598077981,-2.819808132877543,0.2787276807984139,2.1729451356120175,-1.7161808517146315,0.02998689713902483,-0.474474307561917,-2.6595800517328545,-0.5935719192037856,-0.9030038121163976,-4.684720115141499,-0.2852004033334554,-1.1091405731258743
93,-2.5933428316192213,-0.8865019978239235,-3.6711274977570065,0.053912631678441326,1.8962917418143634,-2.992555560788623,-0.44781517707926044,-0.4795277794075914,-2.5625064428383064,-1.1922103280294474,-1.4376002894243256,-5.5488191227431525,-1.0786139066653506,-2.6099227749109426
94,-4.013138384995758,-1.2299665954236254,-4.294850451203533,-0.253081747063704,1.3972450523819844,-4.00981964165431,-0.8437623604597283,-0.3671934062805082,-2.203163915320957,-1.6853110178373811,-1.763553746803201,-5.937697014542372,-1.7330705388914849,-3.8997783994599917
95,-5.109259650843037,-1.587236743072992,-4.6264305957228,-0.5989944416232069,0.7376234088010287,-4.678617402044507,-1.1686981925089355,-0.14718284364627254,-1.6162978304372178,-2.033127125659135,-1.8531842443148712,-5.823163128083423,-2.1749262543988346,-4.857468686911448
96,-5.747428067496711,-1.9178608729205169,-4.620075299740942,-0.9353764785433097,-0.005412346773234466,-4.94399001618649,-1.4363919946920298,0.15799514021203026,-0.8546379087075908,-2.2098348069115388,-1.7080967932128173,-5.219253240241381,-2.359637712804982,-5.391589641413816
97,-5.840565817396756,-2.1805320019711605,-4.256780746079435,-1.215256008548045,-0.7485718654456194,-4.7901991560920765,-1.6590345496111563,0.5149416133176734,0.014617173190912013,-2.2065129166650013,-1.3588925005291943,-4.182653295648402,-2.2767514401075064,-5.451857433677346
98,-5.361251187212794,-2.3378182521094795,-3.549858623407988,-1.3990673182116626,-1.411780921772332,-4.2413987600350636,-1.8437505881696172,0.8823106428808656,0.9141559680565369,-2.03211844885752,-0.8610675151830801,-2.8090929674091534,-1.9499444785740412,-5.035738663703297
99,-4.3466409532328605,-2.360004371552627,-2.5467719055269917,-1.459114035771783,-1.9265884717136217,-3.358106067454071,-1.9905235927259026,1.2146178094166005,1.7617688847691502,-1.71227260781926,-0.2875808932590241,-1.2256094164281197,-1.4322741853272671,-4.189393441714716
100,-2.895087930976725,-2.2277720568775745,-1.3266352117577624,-1.3821383575528388,-2.2427629335721693,-2.2299250067704786,-2.0917279883719604,1.4666712917678808,2.4763734842402108,-1.2859831158159423,0.28094311418021417,0.4208802401669981,-0.797508425699506,-3.002692678160573
101,-1.15486140964281,-1.9336863560914812,0.006596863775879507,-1.1698974342610577,-2.3324951443034454,-0.9654298022868787,-2.1332622903532044,1.598304011603176,2.9846503012837333,-0.8007302401390602,0.7670553407084612,1.9777081964029184,-0.12896807509470623,-1.5989039540902081
102,0.6935126821153408,-1.4826387012802424,1.3345476026888763,-0.8379445293237632,-2.1919543475731,0.3195494383256208,-2.097084690774029,1.579006968967572,3.2278811140321224,-0.30658670709014474,1.1068671827039016,3.3018289599918837,0.492365981970592,-0.12038270640914221
103,2.458895597219081,-0.8914955778650863,2.53714994334304,-0.4130341990727728,-1.8402652787068694,1.513835888724902,-1.96478420014692,1.392000252411613,3.168370450894569,0.14981065035034427,1.258520612950427,4.274676305673044,0.998689058799838,1.287846786712104
104,3.9622385634672455,-0.18821013867829162,3.506002803156809,0.07030505301794741,-1.3162521762023995,2.521636764709434,-1.7216894397152198,1.0372504095381079,2.7946795513066216,0.530589164499984,1.2075295855420058,4.814671594236584,1.3435925360767569,2.4944557557489566
105,5.057316125742117,0.5894182666304933,4.15652476167335,0.5734693693266114,-0.6735001184683195,3.2709328381266,-1.3609317464836281,0.532973628518819,2.1248674785125257,0.8105204061000147,0.96821346639338,4.885742877244251,1.5065727160047953,3.3959863402607033
106,5.646800228924837,1.3952808651372814,4.437233676601865,1.0572708716089618,0.025603073707191316,3.7187174864905086,-0.8868463766972217,-0.08473148180897414,1.207048650718152,0.978931740931442,0.5810113942235091,4.500669390268565,1.4933605539715513,3.92704947805849
107,5.691712499502175,2.1768809573618184,4.334910204629933,1.4849002663680952,0.7161616198543913,3.8527162054689503,-0.3171279230819509,-0.7642997837707988,0.11683183904377334,1.039450828052408,0.10608616795616382,3.718732194514252,1.3322903997563926,4.065367548186695
108,5.213287218751924,2.8778337389721402,3.875028286526371,1.8242259534256324,1.3367806414768564,3.6896770943683457,0.3167308459043867,-1.4431069790297906,-1.048440495967342,1.007738404546654,-0.3858061349097593,2.6379277155326863,1.067552448854934,3.8312580294833714
109,4.287374590068332,3.441154771938802,3.117539675827939,2.0494621912962936,1.834784481624445,3.2707380821400815,0.9709881480521081,-2.053547017204466,-2.1783374693056547,0.9076816638019288,-0.8237872022154037,1.3827581946960306,0.7506335593353392,3.2819603988599173
110,3.0325357534311,3.813448332586042,2.1487569867293224,2.1423482502791376,2.1702896745711886,2.654697692063095,1.5931922268760401,-2.5302019693738,-3.160162929525327,0.7667467274408809,-1.1470772089430237,0.08922489551511101,0.4314732654175616,2.5019143856075328
111,1.5937719463473146,3.949897584026342,1.0705826666706844,2.0930110884569446,2.3189315944208806,1.9102093267186504,2.1274107209519957,-2.8173191864128757,-3.8908997821109605,0.6112940165172616,-1.3134286037999607,-1.1109839743461436,0.15081862273338195,1.5905944186126681
112,0.12428386828597038,3.819680017548918,-0.01139077760699017,1.900634949475347,2.2731779909631125,1.1079648266799544,2.520567703394521,-2.8756899632218182,-4.288952113317003,0.462633514802892,-1.3045345651872036,-2.1050553663212073,-0.06503165255051291,0.6497237086893997
113,-1.2322678054060892,3.4111531156938697,-0.9993528404416832,1.57395306194793,2.0422639318312004,0.3138265403688131,2.7290896899352837,-2.6880200175398508,-4.3042316467777955,0.3344402371546444,-1.1276692877546717,-2.8105520675237026,-0.20639051795247837,-0.22838596004898346
114,-2.3568100272153543,2.7359581790935428,-1.812952951467523,1.1314495875893729,1.6508505688823405,-0.4163757789504347,2.7249516259018,-2.2620087435588974,-3.925191565642085,0.23188415762899933,-0.8134291726069555,-3.182541303569447,-0.27914019928378303,-0.9699592091025804
115,-3.1655813523380956,1.8311455326340473,-2.3961711285073597,0.6010617950319542,1.136554652784166,-1.0400043489039785,2.500233140043008,-1.6306043736005849,-3.1816781163803403,0.1524993420776632,-0.4100680291011306,-3.2157050980475166,-0.30095147623168134,-1.5254507274675952
116,-3.6156293627525624,0.7585686318849667,-2.7208150832090854,0.019139820992891337,0.5465316623744484,-1.5287185415424986,2.0694479424822694,-0.8492471873171195,-2.1429369207860485,0.08848807608742858,0.024551674134986903,-2.941502170044015,-0.29569646062939475,-1.8714987306536477
117,-3.704957479607239,-0.39888153127448406,-2.7865521600225684,-0.5715313755998912,-0.06666500984725944,-1.8678444226644826,1.4691764362006334,0.009692954832855524,-0.9107310175228538,0.029890040924291747,0.43202297889108254,-2.4211127229108795,-0.2872582776415008,-2.009393917608756
118,-3.467913144481361,-1.5441766596967403,-2.617829286889866,-1.1247226244737147,-0.6496781685091284,-2.0545555076101794,0.7548779848518906,0.8646902912503823,0.3917772360696489,-0.03210717166507476,0.7619936470252623,-1.7354177484847706,-0.2939834141042324,-1.9607843700414163
119,-2.966969128785958,-2.575651210013568,-2.2583975306396633,-1.594663971696852,-1.1530690559574452,-2.095499237874624,-0.004857882137389028,1.6341285476650553,1.6340692062017066,-0.1024495337374327,0.9789550334492427,-0.9735784384878149,-0.32483695155857856,-1.7616431118880505
120,-2.282387945526037,-3.398084626941595,-1.7643943132843343,-1.9405600717132931,-1.5357901807991456,-2.004441435058733,-0.7359884942709647,2.245529090578931,2.693431048408404,-0.18067914715946884,1.0662306995421311,-0.2218506930603911,-0.377943703919237,-1.4556358324172671
121,-1.5013448204683377,-3.933974633467417,-1.1970136980498227,-2.1312228301028244,-1.7689948572723733,-1.8003157867561264,-1.367675987459038,2.643757925569619,3.4692024079114394,-0.2608911509663044,1.0266904042989873,0.4459091641305606,-0.4416971127603592,-1.0879357352860526
122,-0.7079251824920826,-4.13341973905828,-0.6157070406208955,-2.149180417156818,-1.8387669921899914,-1.5058157596393822,-1.8407759375253847,2.797142485231305,3.8941859819366758,-0.33314652828438523,0.8803031612388043,0.9749828016449642,-0.4980842895850263,-0.7002708932940717
123,0.024941693920769656,-3.981075835563418,-0.07263089613764144,-1.9935672148420165,-1.74740385468078,-1.1464259029489765,-2.114961624069765,2.7007005095246304,3.9417045351943845,-0.38595526435180777,0.6591972379437189,1.3332373074400288,-0.5274142376774671,-0.3276197023896183
124,0.6410124863583073,-3.4989605787081763,0.3912440641597791,-1.6811736682689544,-1.5129990442436378,-0.749625006094867,-2.1734296625679868,2.376071799575948,3.6274330548507034,-0.4091899332861145,0.4013051015156662,1.5113096893699698,-0.5133473546786715,0.003421033438312847
125,1.103585020187276,-2.7444317414244592,0.7482558235632054,-1.2452535991222051,-1.167255477419127,-0.3439457006189958,-2.024456177328132,1.8681917793851612,3.005884167327295,-0.3966987409073198,0.1438493569785092,1.5200404680471262,-0.4470799402810692,0.27488910032851027
126,1.395911869692509,-1.8033903955628843,0.9845426265060571,-0.7320289021685424,-0.7516939811016659,0.04235089158371191,-1.6995399492103298,1.2391880001484787,2.162163543115801,-0.3479850921295021,-0.08216334651311898,1.3859838277934609,-0.3297560213273804,0.47679820849526416
127,1.519633468702176,-0.7795358496116576,1.099188150601777,-0.19523882227072184,-0.3126747562467145,0.38306002190366634,-1.248407031465539,0.5603537339703443,1.2002373818069634,-0.2685760314866818,-0.25559484557189815,1.1459311641110135,-0.17261061485957627,0.6060425986680591
