,AF3,F7,F3,FC5,T7,P7,O1,O2,P8,T8,FC6,F4,F8,AF4
0,0.5669181566891666,0.18872718399569574,0.6167244019567536,0.1469692533774045,0.6433205363770377,0.5064361189778545,0.7650738387683041,0.4462775865521092,0.16473215999531984,0.4282878020287998,0.5521498897972958,1.0101309025390943,0.42307415698708867,0.584017130542091
1,1.0703791128288345,0.7155639948764855,-0.05159604649969555,0.6368259616038203,0.726649923771198,1.9898997169637476,-1.1596838073456486,-1.2031496653175917,0.5274295495528483,3.16054342836817,1.028239668131005,1.4109517599933266,1.6285277887714653,0.3046067717791461
2,1.5538967482040618,1.232688238560803,-0.6296294042094275,1.1276031968216025,0.8060137191322378,3.3123218686045344,-2.8895748148589524,-2.7213719096645916,0.8238041493801296,5.60417598033499,1.4155596243427502,1.7868937740050956,2.6860430980737813,0.06213011931690897
3,2.0486577699777806,1.7536625961859718,-1.0038356301035716,1.6417992658766687,0.9078845118129146,4.356266652087802,-4.237966360890635,-3.9775434519684856,1.0071393590057494,7.537349885325464,1.6904648344020707,2.1875279029947836,3.5353364848896027,-0.023910879362052315
4,2.5717333314104245,2.2792936370298307,-1.0951092848478041,2.1872550963551163,1.0483968942736996,5.032480038571224,-5.067013452534468,-4.865344755182972,1.0499093996986928,8.794952510981895,1.8418101610073805,2.6444714857234928,4.138301461053175,0.1365169079200795
5,3.1190058098293476,2.7934965377769614,-0.871548800325148,2.752011015369843,1.2291929853080608,5.288832916703322,-5.303216074555938,-5.31355530163469,0.9481688182370904,9.284880447283395,1.870115410998624,3.1612287995470227,4.479797624350296,0.5875182268442868
6,3.662131082871616,3.2627593034300504,-0.3541215088215313,3.3029497556109124,1.4356729221939537,5.114510570090629,-4.945055696258009,-5.2933920923484905,0.7217790541749873,8.994914513809189,1.7850654853587167,3.708028658492566,4.565336194045391,1.3177731365563394
7,4.150130517347104,3.639411562347049,0.3856314820772067,3.788541513768938,1.6380083174714402,4.53912288815965,-4.061825027939177,-4.821738289559727,0.41041696839238356,7.989668002594086,1.601907058935315,4.222706428068183,4.416274424213949,2.2594651684726625
8,4.515468310871217,3.868252010033007,1.2355311454470976,4.145351364652098,1.7948887491629135,3.6271785784338526,-2.783840518325226,-3.959771953856843,0.06604000609790606,6.398515394376584,1.33752350265314,4.617765273607982,4.0635652023085,3.2958845790585154
9,4.683752061309094,3.895503153211524,2.058890694310698,4.307363325377179,1.8595674300530227,2.469016012755208,-1.2852871725446344,-2.8069630739313265,-0.2568663406739521,4.396646789372717,1.0070455441355886,4.792788335797366,3.5413492222576695,4.276702131569047
10,4.5856070107961475,3.678635470251429,2.714484290187545,4.2167108884767615,1.7874097852078128,1.1697103160671227,0.23814335245314053,-1.4908927564977774,-0.5114801008035935,2.1822541980066505,0.6217563558933995,4.650502716030822,2.881670913604502,5.038792752285672
11,4.168909852585396,3.195408529809221,3.0774466602236883,3.8341525960170815,1.543885838927919,-0.16237405195919485,1.5940157403834159,-0.15381329112160633,-0.6673414970057344,-0.04678419845242856,0.18878477237935504,4.114156700649239,2.111341768965399,5.429681964298944
12,3.4094848967929874,2.450553644461495,3.0580852114418935,3.1476335610859616,1.1118295963557658,-1.425847396428988,2.6172158332595914,1.0627354188576836,-0.7158286526400557,-2.113531214187029,-0.28730223077731243,3.143572625845368,1.2515131285065018,5.330316297977961
13,2.3185765360767885,1.478866883588363,2.615926331926808,2.177531985019022,0.4968387492184005,-2.5342080273760152,3.1903133868026874,2.0336525045054534,-0.67122521537404,-3.8773948069763207,-0.801318759005035,1.7473356388806778,0.31994262728628,4.673974585508103
14,0.9458804174223617,0.34403933338077564,1.7670425499628613,0.9776652772164202,-0.2700986374318457,-3.42076720280899,3.2576903006736764,2.664608685671422,-0.567003292882085,-5.242784878355603,-1.343378692168027,-0.010937557728108793,-0.6646468234034667,3.4587078099544915
15,-0.6224391313152771,-0.866773257818343,0.5836910556658218,-0.36825131964039715,-1.1333174025587553,-4.0405336406425585,2.8316893475952893,2.903286250364239,-0.4478833626188706,-6.160687154615349,-1.8948625518327231,-2.0135137892814954,-1.6772021934302617,1.751613286580554
16,-2.270603373663283,-2.0519661719306557,-0.8136210577865457,-1.7543370101132656,-2.016663481746203,-4.369532107899292,1.9900446199235293,2.7460571672654295,-0.3591288690062808,-6.623984853580563,-2.4254774707380595,-4.096929738599852,-2.6813538700506303,-0.31563879135659256
17,-3.8641302916162066,-3.106854662837218,-2.270503229340805,-3.0635045462135806,-2.830829929505482,-4.402398353503952,0.8649570150937904,2.2390500537623046,-0.3352014974166402,-6.658303168714641,-2.8923615095488904,-6.067117561726767,-3.6262418591672874,-2.559467006028964
18,-5.263452640161573,-3.9358115533378895,-3.617509072561191,-4.180221128310164,-3.4830791640301717,-4.1492382188369605,-0.3747595854982283,1.4731471687539845,-0.3901834964456517,-6.310713191432293,-3.241903921850557,-7.719613623932627,-4.4463671087392225,-4.763651897561442
19,-6.338565010319238,-4.463490712183054,-4.690926078260479,-5.00339906723898,-3.8882378783314726,-3.632650098269739,-1.5461476056586299,0.5731671949419824,-0.5121728960762021,-5.63872502756959,-3.4145223120228962,-8.862488041305035,-5.065204636091117,-6.702874830612112
20,-6.982935590425077,-4.643615152866265,-5.352855098785316,-5.457743974905448,-3.9796285453261837,-2.88552734030176,-2.4762793266683816,-0.3177450359222271,-0.6631785323418184,-4.701631502404077,-3.352115038327716,-9.339237294909392,-5.402649761107338,-8.167732369524268
21,-7.125068500349348,-4.464190842881962,-5.508091077935564,-5.502126242756367,-3.7185413212538276,-1.9498614688607259,-3.024999603447562,-1.0567819060772847,-0.7849916816723678,-3.555527350779897,-3.007368908754326,-9.048843060743469,-5.3856196884080205,-8.988339698258994
22,-6.736447698172781,-3.9485381835985884,-5.115807552536775,-5.133971153199745,-3.100967110585472,-0.8763580201131175,-3.103288209674137,-1.5208901870860458,-0.8102884971825833,-2.252382166680416,-2.3536370211917275,-7.960509274508392,-4.960430718382817,-9.053868899862442
23,-5.835067085549166,-3.1521236281339884,-4.194759348399572,-4.389212131928032,-2.160599672538471,0.2756505511585778,-2.6848699101325026,-1.6243546146322927,-0.677073821265967,-0.8425807271788537,-1.3938004066407026,-6.121193003309939,-4.1050477817088,-8.325880476487953
24,-4.484279499056124,-2.1557347538673652,-2.821546217685434,-3.337937166830969,-0.967542179491851,1.4386844777630576,-1.8095993637380394,-1.3320288246978382,-0.3437605431949458,0.6204481211135527,-0.16646462378789875,-3.6548613699259533,-2.8390656907849103,-6.844028615903378
25,-2.7872121944646935,-1.0559960476824068,-1.1223183134966237,-2.0763980693977775,0.37732865076556626,2.538664125937802,-0.5782507308782162,-0.6661519390185342,0.1981234882075933,2.0753598343662794,1.2519427028673291,-0.7533405023970953,-1.2293943539457877,-4.723565072506902
26,-0.8774421363696373,0.045487057425363575,0.7409466522443302,-0.7164751839813717,1.7518451448317955,3.498006003905474,0.8605036749532224,0.2945024244269838,0.9163167849142051,3.449680175196359,2.750127430869039,2.340430227418355,0.609913125779465,-2.1449391904562463
27,1.0930425344640293,1.0529725225861943,2.5878881139644214,0.6260548146940695,3.0248873057259713,4.240420465898387,2.329101957332335,1.4233462935197556,1.7371714934052878,4.659788680949023,4.190210946342174,5.355069915001786,2.5244899066962976,0.6633984188510104
28,2.967373532073413,1.8861309608602355,4.238876262107205,1.8430389945647787,4.070208526127593,4.697176861057819,3.643494946669069,2.5616338724632417,2.552625765102841,5.614946077542446,5.4208313594642545,8.017018151833955,4.332996968898172,3.4472123915980473
29,4.597549200777763,2.487282822770761,5.533650694459391,2.8439756442087267,4.780171363741583,4.8142346724187055,4.635962123365895,3.539087287632057,3.23410014411473,6.2253318206818475,6.293789379650332,10.077646815700383,5.84583494045395,5.951470834116381
30,5.8571838508943,2.825683794057739,6.347497093090569,3.5635529642189487,5.077805823335663,4.559360851310608,5.175406925109667,4.196759182600512,3.6513690426251957,6.41316394241674,6.682322642608589,11.338376033383412,6.887179645489867,7.945605852414792
31,6.652196880810417,2.8986356631807784,6.603341244231141,3.9660836735405436,4.925785780780793,3.9282101796572473,5.182651255261818,4.409027760033671,3.6935395391401933,6.125229792055143,6.498675797872441,11.671144585013737,7.317616490266195,9.246519840739028
32,6.9285843785348815,2.7295873566752595,6.278653985436141,4.046628879330376,4.3312651523498324,2.94835789071341,4.639020414626425,4.101698761445922,3.2888246633459715,5.344692429455398,5.7085186051655805,11.032053326350319,7.054308558498534,9.73700172978517
33,6.676654920355456,2.3636982148095407,5.406652135488676,3.828981231342493,3.345976802270665,1.6804396811447868,3.5874640430030804,3.2637038709891084,2.419884918961187,4.099934095763279,4.339990096815665,9.466692532444384,6.085706959072902,9.377620335988448
34,5.931376752196115,1.8615397491189636,4.071884442367858,3.360984031401286,2.061520572880533,0.2158513107275737,2.126446812642877,1.9507551693757441,1.1321023387786249,2.4684801696149266,2.4857085354784254,7.106517498428965,4.478329218781173,8.210766994692307
35,4.768776552303697,1.2917143679949679,2.4008536879022855,2.707882794077074,0.600297188853668,-1.3291499572643115,0.39772568316086415,0.2804088324463769,-0.4668535286100039,0.5746802395830539,0.2969317740125678,4.156573600675641,2.3740619705769115,6.356297875794615
36,3.298647517766472,0.7231844073747833,0.5487967887463437,1.944534066225315,-0.8969733306436557,-2.8226634153285732,-1.4302014994946919,-1.5808529324009262,-2.2165574690859953,-1.41928168776384,-2.0299198495691546,0.8757979181193785,-0.022316092894474466,3.99911546248295
37,1.6541519032630123,0.21805001445744335,-1.3159208748381654,1.1473335995384168,-2.2858289393591527,-4.128968967711828,-3.180806429159944,-3.436859569994733,-3.9215169064778306,-3.3284511913242367,-4.273097325570119,-2.4480667505160696,-2.4643200137422165,1.3699304920707374
38,-0.020785314452532806,-0.17459127852483533,-3.028172419484136,0.3866781551208967,-3.433180246078053,-5.12185709307407,-4.6881487896876255,-5.084838985119354,-5.374848365167049,-4.964651109664687,-6.209486263084533,-5.526319812608895,-4.6912866410551946,-1.278758239306046
39,-1.585132575520388,-0.42320681678002825,-4.4415766055303125,-0.27934388167912233,-4.231333516425854,-5.698072129119656,-5.813350123568064,-6.339418980659904,-6.384829038183769,-6.158123013651356,-7.639803260002256,-8.096992383613959,-6.4588739906228785,-3.698850748954752
40,-2.9141233786804843,-0.5164664903336096,-5.4416826492997465,-0.8095081795607223,-4.609394065434354,-5.789321765595571,-6.457291438264623,-7.054537319253784,-6.800696857267686,-6.778406907258531,-8.411852265629404,-9.949494079958416,-7.568613958430324,-5.672106532829734
41,-3.9109584944429647,-0.4637656363163148,-5.955655135622129,-1.1819318259959326,-4.540782045207944,-5.3713275654144885,-6.5684691557139745,-7.140571827601005,-6.5340826837096,-6.751559076911429,-8.438834709776135,-10.943691225919043,-7.892605364490777,-7.032050221025334
42,-4.515555240093862,-0.2936050934266729,-5.957658242196517,-1.3943594589111377,-4.045987307137251,-4.468615246610674,-6.145571949111923,-6.574656492473344,-5.573004812319287,-6.071202932277334,-7.710296448571906,-11.021523970701775,-7.390000070239989,-7.679896691011825
43,-4.709322055190775,-0.04996638089818676,-5.469569099659896,-1.4623520356198714,-3.190186920327161,-3.1541683681519497,-5.234950535910155,-5.403047106547803,-3.986362276518197,-4.801686291378784,-6.294221982922624,-10.210101052676807,-6.112985098811949,-7.592768569677302
44,-4.515343958913644,0.21301674147922703,-4.5570956435811985,-1.4156593198799485,-2.0759031692577423,-1.5436561963810411,-3.923674439935492,-3.7354163842336456,-1.9181745770478362,-3.0726618493575417,-4.3299225640049315,-8.61614403974335,-4.20134960397081,-6.823388391378955
45,-3.993880617559591,0.4376364485679586,-3.3217988472665634,-1.293213659422947,-0.8314343075851953,0.21537796452049732,-2.329253828196319,-1.7319572360395246,0.4277722454136035,-1.0655575799627555,-2.012553730043617,-6.41258454926605,-1.8662496953597103,-5.491432243223839
46,-3.233647393671206,0.5698487842280955,-1.889892245211486,-1.137302802528892,0.4037152209077381,1.9583116017677578,-0.5873270757062913,0.41497390075594676,2.810913360146782,1.0065060218494435,0.4288243031709564,-3.8189481598676194,0.634772174650671,-3.7677059571349703
47,-2.339899359596961,0.566468709570874,-0.3989871028824801,-0.9875607036534563,1.4947987320088312,3.5205978810622245,1.1613212956928667,2.5023364325852677,4.981565722931323,2.922914083088331,2.7569125683571163,-1.077798621546944,3.0283017764316127,-1.8531340391384434
48,-1.4207900986699227,0.401544911394292,1.0158548120241757,-0.8754513400252999,2.3273618042879702,4.755283771892723,2.783121896882015,4.338378285368654,6.709730929225853,4.480879070597495,4.752389248923776,1.5701046555605864,5.057187677494142,0.044860945014628194
49,-0.5737574598785415,0.07112413014198278,2.235329731332507,-0.8198993800936104,2.8205067634681456,5.548780654636677,4.162356275893302,5.762516613294203,7.8114370553656105,5.518743125187219,6.237480603875744,3.9092068609782564,6.510223324096928,1.7357389170917497
50,0.1262571187795432,-0.4043111146335608,3.167001811305766,-0.8246314575091838,2.9362492921071057,5.832950568479635,5.209232462807512,6.660902340435885,8.169430901475668,5.934390592616164,7.094091787535771,5.768622604654049,7.245699679623334,3.066214954841953
51,0.6351444055427381,-0.9802709086482183,3.7531693853305073,-0.8776299468836286,2.6837442867842443,5.592014950463129,5.864893103873479,6.976065186035911,7.745851164111434,5.696551020627461,7.274455313002474,7.035692385592339,7.206032816916249,3.9352813468729866
52,0.9433408218385448,-1.5918130526498668,3.9746876609746526,-0.9528748623571063,2.117748602526091,4.863446509300076,6.103206336020793,6.709829378404324,6.585596590079144,4.847697624910382,6.803252279145228,7.662403076182969,6.4219007342089025,4.302248261497134
53,1.0743681235111953,-2.1601225727298226,3.850394799445202,-1.01427470982967,1.3313895423937103,3.7327775897795132,5.9295420381375274,5.91954867317335,4.810285020468264,3.4983067707108972,5.771264426076271,7.664327387428291,5.005716280233302,4.187080148025109
54,1.0783872655928006,-2.601603197407648,3.4322934500016844,-1.0213900127985085,0.4440331613744357,2.323039733557948,5.37704253669336,4.708516400174091,2.603818589276125,1.813293947429621,4.321670466835222,7.112648113182344,3.135617821355941,3.66329403674162
55,1.021703662950989,-2.8385630902060766,2.7971478638870506,-0.9362711217046974,-0.4142996154264849,0.7802269916134772,4.501118256345184,3.2120562857479107,0.19149394237516554,-0.007650638279082731,2.6309670517570694,6.1206561805472175,1.0322973041711074,2.8446303847666035
56,0.9738064384853907,-2.8102380266517377,2.035603903042466,-0.7305084921494673,-1.120028385969212,-0.7433452466737327,3.3730092958883033,1.5812161142188295,-2.1847686286547745,-1.7534362040031446,0.8870698030969713,4.826741953734445,-1.0682260290970618,1.8674859281600704
57,0.993958631723689,-2.482687909372102,1.240260102477221,-0.39147211534063137,-1.5724234077928068,-2.105698386004836,2.0732439971877312,-0.03386896485914819,-4.292204987821244,-3.225894705274926,-0.732623244678677,3.376254172223541,-2.942416703950527,0.8716071157784555
58,1.1194964075821114,-1.8560864813740425,0.4942570792789069,0.07326748016408978,-1.707164480733501,-3.189852180473928,0.6857007682287474,-1.4990021613946374,-5.931167483677636,-4.262243633543482,-2.0805545265819734,1.9046298825225596,-4.404236212512559,-0.01829282709136551
59,1.3578028334618395,-0.9681337392410719,-0.13812134812919594,0.6341742508170104,-1.5052113231962612,-3.9148214892549307,-0.707239018917309,-2.707757492839537,-6.954788949872132,-4.753144734608584,-3.053518054396865,0.523895790857819,-5.324474666981645,-0.7075399558969889
60,1.6834079939425726,0.10725027327276948,-0.6176277120681793,1.241160866453805,-0.9957382404570749,-4.241834378171548,-2.02823387528704,-3.589064577036372,-7.282466025181623,-4.654361591072164,-3.6008620404340834,-0.6859479835348745,-5.64234304881677,-1.1412323806600284
61,2.04089642218168,1.266191109979364,-0.9322669172084703,1.8282825069609026,-0.2526577787369777,-4.175328196811179,-3.2072901614030216,-4.110106534682455,-6.906023404603145,-3.9907809934922103,-3.7257396955212805,-1.679937068617965,-5.368304355410949,-1.307625745834062
62,2.3533837411213048,2.3856355193064904,-1.0953837123816688,2.321333994912773,0.6148951256562402,-3.758963919365882,-4.183144416270623,-4.274707399154795,-5.888226241873478,-2.852450200588832,-3.479663426904612,-2.4456853729755146,-4.578237766619745,-1.235062008129442
63,2.535397175819994,3.337509290924482,-1.140069498510172,2.647509307355867,1.476941191558667,-3.0675018503764266,-4.904181529518441,-4.117921796733446,-4.354087031618688,-1.3831911779749482,-2.951449936254682,-2.996416266742242,-3.4000923176818887,-0.9832908720481209
64,2.508210594813121,4.004568969197164,-1.1108910361838462,2.7458994841418236,2.200062549602447,-2.195831317414576,-5.32938424709101,-3.697934387068247,-2.4760996777996236,0.23681558774577416,-2.2523054199645474,-3.361080262463778,-1.9950706885475562,-0.6308371526666411
65,2.21518040219221,4.295906557125961,-1.054351755061241,2.5773687986963223,2.665578706025942,-1.2466982185584228,-5.42971734374829,-3.08659128431024,-0.45508480276380775,1.8124141956627384,-1.4992129294627825,-3.5735322099623756,-0.5359854754817344,-0.26059380185331454
66,1.6345010722569884,4.1599842581236075,-1.009688056263742,2.1323099265594436,2.7861009457304613,-0.3187111975549686,-5.190148479079936,-2.3599083760782866,1.5012808257443044,3.1563156320483277,-0.7989063389469865,-3.662794213335131,0.8143220962151683,0.05400609093728436
67,0.7870892636097685,3.5932912863862825,-1.0015394263016675,1.4349620090318274,2.5182473090497046,0.5039577192060491,-4.612234685229865,-1.5897449097156733,3.199978143536788,4.110725633966654,-0.2345392501491251,-3.646153080139209,1.9217472174343004,0.2600840733339712
68,-0.26201202131769524,2.6432135312735827,-1.0357138891684028,0.5433734549256668,1.8697655788254728,1.1590915831289965,-3.716909775147663,-0.8375282683047608,4.4819491452011535,4.565228587793283,0.14329547084142094,-3.526272517262617,2.6946158892238836,0.3320586768122528
69,-1.4093363194623367,1.40443380417605,-1.0987452246371918,-0.4553395188669327,0.9000165535668123,1.6105199420983327,-2.5468519951533266,-0.15051684688251077,5.237194434579909,4.468850352165459,0.32021186602030377,-3.2927290346746947,3.0908437304332006,0.2731974446560269
70,-2.5253010115163868,0.00904151632454336,-1.1612905104267464,-1.4541226827201628,-0.286369739524273,1.848628012946889,-1.1676501639188477,0.43934651167690164,5.414161794069405,3.8349381887454097,0.3161555851779133,-2.927536201924288,3.118056719987262,0.1120366872367576
71,-3.47152084847828,-1.3885935633994946,-1.1847541997465247,-2.3385214335550457,-1.5519455837535985,1.8876077151143855,0.3330332829572443,0.9143416046509178,5.0226017858082015,2.73838675930109,0.17862109504400706,-2.4134519984011216,2.8271656442075948,-0.10541360919037743
72,-4.120649554075301,-2.630364538224778,-1.1299586101977148,-3.0010833316569783,-2.743454818222921,1.760180137735524,1.8489554662866132,1.2683004550731496,4.12984517275983,1.3056890854035004,-0.027739017388012523,-1.7433040576946548,2.3007691404841815,-0.32608239183148885
73,-4.375756809133232,-3.5740299647357294,-0.9663047303040025,-3.3557139021928095,-3.7112133779247327,1.5107945815687407,3.261777496862596,1.503192649919554,2.8512219128794674,-0.3008259139178071,-0.23334210042645823,-0.92831766403877,1.638406987711633,-0.5008801225352166
74,-4.186192728138669,-4.111290744617548,-0.6797471701668707,-3.349966666827617,-4.32832820970361,1.1884173684960955,4.450417140111897,1.625807163849443,1.3359783545592185,-1.9025087089772001,-0.375778155199866,-0.0035415634331735744,0.9410071778816703,-0.5943431186156438
75,-3.557319814363473,-4.181884524098203,-0.2780700826231583,-2.973434660926479,-4.507219219232112,0.839955926249903,5.302611662389412,1.6452186142246499,-0.24953045594668163,-3.3251721992063055,-0.409932382144729,0.9710709780772735,0.2968318859732465,-0.5911607621475327
76,-2.5523529913157876,-3.781719885763864,0.20762098885616925,-2.260880619457068,-4.211253409140194,0.5051428107737723,5.727511301804521,1.571445893021511,-1.7394354413230717,-4.418563240052904,-0.314656607184284,1.914621441392139,-0.22914892528975633,-0.49846905397462865
77,-1.2857213012737716,-2.9638471451435033,0.7256471891798342,-1.2894410113700874,-3.4599448769633523,0.21337674846759785,5.667717973276981,1.4153640550469897,-2.9848847844692794,-5.072193386462002,-0.09511410828694063,2.734049024772395,-0.6011702171159158,-0.34358586399096075
78,0.09132874029932672,-1.8320294174821021,1.2104732452696148,-0.17006731740360698,-2.3270305696367446,-0.017355191196006137,5.108987733743568,1.1895935705782785,-3.867942030985583,-5.22575790594265,0.2193665173629391,3.3365989156695903,-0.8133867341578414,-0.16770748111800585
79,1.41094105571286,-0.527695799377685,1.5924238154060275,0.9658005173536107,-0.9316812319833794,-0.1797023553698753,4.085896057396231,0.9098402407683623,-4.311678608026317,-4.873151977778665,0.5813808684974985,3.644074298057615,-0.8857394578648834,-0.016829138774628348
80,2.5117800215505492,0.7880270528439886,1.8088847139208466,1.9826301141378462,0.5759827155615752,-0.274823462170331,2.6821445415867213,0.5960467169764395,-4.285736273280409,-4.059973145863626,0.9343344160343776,3.6065138458630437,-0.8560592978131488,0.06834590156768383
81,3.2616917283023468,1.9548336477212955,1.8151769793935735,2.758096868318116,2.033156210943121,-0.3095645400925379,1.024834062104582,0.272759095635857,-3.8070941729010386,-2.8752522069341184,1.2225770846437791,3.21287918884819,-0.7700234313979472,0.06157356007915623
82,3.576522615315551,2.833593271329196,1.5932903647086845,3.1989598084700153,3.284004727785653,-0.2936215475880536,-0.7271407800177839,-0.03170892236915995,-2.936227470264049,-1.4388681339251692,1.4010883451792835,2.4966972343169846,-0.6708321163512713,-0.04244133546108072
83,3.432252744933695,3.323850062736335,1.15695585109549,3.2533464032847976,4.198172301252531,-0.23726474201645997,-2.3995283798686167,-0.28745857935887303,-1.769272627178824,0.11341477273712228,1.443126024051856,1.5353255271371005,-0.5904234437855971,-0.22549756050943365
84,2.8685644404734973,3.3761695906081335,0.5520758420159887,2.9177426594289955,4.685800878264986,-0.15000022941504304,-3.822126981459539,-0.4663663499917235,-0.4271867359472879,1.645160762644504,1.344607313515584,0.4424813791840289,-0.5437084075270019,-0.44785449642037695
85,1.9832169349361157,2.9977258706499113,-0.14777099457030457,2.2376844855750484,4.7072193225062104,-0.04028612830702156,-4.848711770675909,-0.5461578318384005,0.9568411856661383,3.032729884029851,1.1245343893599669,-0.645256590120258,-0.5267449041834231,-0.654466155485263
86,0.9179480185960317,2.2504289203579027,-0.8502842278564938,1.3019880089563924,4.276188115001807,0.08384190982687006,-5.374789905796994,-0.5145092765434043,2.250347952734011,4.1754250250623945,0.8214232706862492,-1.58627276834885,-0.5190647468710219,-0.7845209214668725
87,-0.16212188719020662,1.241894396700767,-1.4567001841524427,0.23123037526344883,3.456443574712156,0.2135977637057469,-5.350663101917307,-0.3723865651863625,3.3336030385692053,5.001397727952553,0.48634387052738776,-2.2536034265112845,-0.48963227956203387,-0.7827323628064867
88,-1.0926299803969108,0.11052335042867122,-1.8756677223174165,-0.8380156248078273,2.3521645956716237,0.3382163287046917,-4.787857700033694,-0.13586953361818052,4.109580054292708,5.469167264373319,0.17373792515057085,-2.553625102016862,-0.4052626454190658,-0.6104880254501169
89,-1.7341456396660044,-0.9932411566845806,-2.0367579376394116,-1.7710886445249723,1.0937727783392917,0.44418052109394485,-3.757888459771844,0.16410928082253134,4.511175537345055,5.565370121543688,-0.06843127331347756,-2.4408979566186506,-0.23986673816480117,-0.2549212667207589
90,-1.9928225370406714,-1.9269002589582875,-1.9016103415002212,-2.4528626008483063,-0.17893291936618544,0.5153212772137363,-2.3834107613626623,0.4843805123151291,4.505376242461429,5.299960698949313,-0.2074932120758511,-1.9267716265729262,0.017301637635067226,0.26576046967131933
91,-1.8344526373327834,-2.5743997840927637,-1.4709971884767474,-2.8026784451129507,-1.3339983961983686,0.5340204670852615,-0.8229109266999428,0.7743960445396867,4.094451394179857,4.700403145086263,-0.2322722724472422,-1.0801920423020133,0.35609735240809154,0.9018097794546756
92,-1.2897944722782368,-2.8606595412230154,-0.7866295186133696,-2.7845378933355893,-2.262607722546574,0.48349968389483333,0.7489870352901041,0.9828122985352895,3.3144995094835417,3.806359221663363,-0.15550820655692996,-0.020249836832591482,0.7438980999092019,1.5767020437298556
93,-0.4503269016877799,-2.760243890106922,0.07273892846048916,-2.4111780629560577,-2.8905116788175005,0.35091581824622897,2.1629011418535,1.064923207731728,2.2317781332996787,2.666000320805497,-0.011959229008426754,1.0987718540149622,1.1285535966331295,2.196647630490179
94,0.545004374339337,-2.2991451338419147,1.0005364312363425,-1.7415159923564858,-3.184274820714144,0.13075627397732245,3.2748467479330277,0.9898288869664258,0.9372161824419274,1.334448998198668,0.1475934740993825,2.107947518400619,1.4456119533343441,2.663574343766973
95,1.530145668191569,-1.5496373671004973,1.8757739143944583,-0.8718932780386319,-3.151811053643588,-0.17212101865580068,3.982480914404026,0.7461687467985574,-0.46057530884170667,-0.12586050601846327,0.26548600007018175,2.8470678710046755,1.6287472525389872,2.8896880552653936
96,2.336449613327932,-0.6191217446782382,2.5788463333704383,0.07758125434647875,-2.837506483668203,-0.5404910409120974,4.235373637799483,0.34539949136079506,-1.8435327358091036,-1.6437510330020633,0.2879276302076625,3.187534902100507,1.621664351774507,2.8114069045827312
97,2.8177894829559933,0.3653157174227871,3.00758839833112,0.9796273381922429,-2.312973167241872,-0.9444016218064959,4.038162204053252,-0.1780578531013016,-3.0933118620484317,-3.1380574142797832,0.175533234786508,3.0515210844263327,1.3894091803684234,2.4005072457266174
98,2.872636661957003,1.2743847197068747,3.091372642387374,1.71699144328202,-1.6650315523690946,-1.3428270580710147,3.446502200653901,-0.7700004973156338,-4.100963307176664,-4.517906684460863,-0.08820003351539712,2.424601608970154,0.9270358142749835,1.67070477305891
99,2.4599076107245197,1.9936682399803194,2.8012860324189615,2.1978752845008342,-0.9828096973518792,-1.6874047419811056,2.5567513371635253,-1.3626301847650983,-4.776466833163873,-5.685597340112395,-0.49198438888598145,1.359956675773913,0.2639706765230621,0.6785533474416376
100,1.6062830480665844,2.438012584786979,2.154947614518757,2.3675198148817342,-0.34584281509132403,-1.9279689813643976,1.4911534312699626,-1.882940208244892,-5.057282343641561,-6.542595339991116,-0.9963363511372214,-0.026595098645732503,-0.536902322941274,-0.4816276605847421
101,0.40392171241099306,2.5614151191551335,1.2152604544868477,2.214452736869268,0.18522735035829857,-2.019249089497366,0.380815890570927,-2.262152303846228,-4.9149659864942485,-6.998438744905316,-1.5378729135365923,-1.5701988520114794,-1.3855539731071407,-1.6882150188438498
102,-1.001141316802378,2.361294515522058,0.08322184881555732,1.7706878355454443,0.5742579481737755,-1.9278202513815257,-0.6510643585931016,-2.4448874513272267,-4.358938550215646,-6.981604337650779,-2.0377404226597213,-3.077470506621067,-2.175755368276337,-2.806768488265298
103,-2.428304690964267,1.8768431149900504,-1.1142747409551745,1.1060242213907114,0.8110519722359409,-1.6382428220496037,-1.503476377165526,-2.3967897905251694,-3.436705408581491,-6.450793919434971,-2.412943959774165,-4.351226467969987,-2.799140065994257,-3.706608624068043
104,-3.6867348956371346,1.1819681726708777,-2.2400405269815122,0.31740550366143394,0.9088373743363046,-1.1573396379356167,-2.107641040331536,-2.1095426245918865,-2.2301943899120027,-5.404763999675641,-2.588886740264028,-5.216177367639749,-3.1603624811859237,-4.2772726284650595
105,-4.601351658589132,0.37401953292605045,-3.1635466904456324,-0.4850522925518203,0.8985440106746965,-0.5157551378790936,-2.4318324241395226,-1.6025797731913503,-0.8483457338369967,-3.8888149075227787,-2.511235622087288,-5.542194446478324,-3.191143637933949,-4.442674966602054
106,-5.0368819139337235,-0.44000698311619674,-3.7770277351465715,-1.1933544906928029,0.8210599532486836,0.23370371185790526,-2.480809639647211,-0.9212503351816268,0.5834158892855508,-1.9963839721566077,-2.155319222298208,-5.262074293558685,-2.861135315706472,-4.171132809314349
107,-4.916686760390126,-1.1578575333766266,-4.008665672179635,-1.7161227344078307,0.7188552519903506,1.0209745855509333,-2.290485387430079,-0.1316787099325711,1.9357490145766838,0.1351913739562076,-1.5316198552094502,-4.3814442439978,-2.183972780010385,-3.479981523739294
108,-4.233798150592598,-1.6950830446780512,-3.831194220622145,-1.9903470497710474,0.6283433253392238,1.7664130312385875,-1.9190909659290902,0.6869914064101542,3.0885945526819687,2.334855739470099,-0.6864810352456289,-2.9794680341048014,-1.21755529583326,-2.434215393602325
109,-3.052670255815865,-1.9951169538833884,-3.2648736129602067,-1.9888777295661593,0.574126438807041,2.3902818378463753,-1.4364845923774547,1.4519345239725023,3.9434466507191086,4.413191683260515,0.3021694487939581,-1.2001963747738253,-0.058390843396884586,-1.1393440998482844
110,-1.501410177961999,-2.0351639467075593,-2.3745223209322663,-1.7227579980742909,0.5658884955180037,2.82276672752114,-0.913349601761356,2.0863328836134576,4.433199644988241,6.181362947600968,1.3335824839299595,0.7643884947397431,1.169346697991015,0.2706384379816691
111,0.24445790198019726,-1.8272950401674866,-1.2610615006420456,-1.238230643258257,0.5982217065765301,3.0130823850147594,-0.41185313079675034,2.5281685644028964,4.528361567007095,7.471440819392372,2.2963102490585623,2.6975092135445,2.3286783752429616,1.6486948108394928
112,1.9844897933802823,-1.4148134640657377,-0.04873460871085938,-0.6090016114260844,0.6531813913020829,2.9363157712742733,0.021060297947477102,2.737021156729097,4.23890094183848,8.155585084407349,3.0820843183254136,4.383973725478114,3.286687723137245,2.851714941080863
113,3.51902049003423,-0.8646038372258481,1.1302865002311977,0.0749981429550616,0.7049339445714348,2.596963351401834,0.3571009120222718,2.6980740994606123,3.611590873203987,8.161575612099906,3.5995853285736583,5.636425757721036,3.93119199034604,3.756958829331445
114,4.674576721929885,-0.256709389897107,2.1518842664176883,0.7206462136203049,0.7255630847689258,2.0286106027308652,0.586733883952705,2.4229348598999216,2.723332707811908,7.4825689414350025,3.7862428766682643,6.318095908139337,4.1850151825420765,4.275984307440888
115,5.325575152654662,0.3272795122794422,2.9145073960822945,1.244549437804262,0.6909703697289202,1.2897925032981996,0.7164252243052797,1.9473135964469082,1.6714695566793274,6.179637271397313,3.6164716931419103,6.359135555310384,4.015958959279042,4.3643897646510625
116,5.409421337020591,0.8153428080177735,3.3503962720257987,1.5840279041267467,0.5858577540382114,0.4566566746690701,0.7639160855456398,1.3260109454057825,0.5624448179765162,4.3765410610618485,3.1052371041208575,5.764455841995436,3.441122585604709,4.026221977332513
117,4.933067147168497,1.154116467172378,3.4321864921473844,1.7046849528994386,0.4069907913613621,-0.3864782262548081,0.7526220000128082,0.6259784211743509,-0.49972582476649313,2.2471688574073516,2.3064703379941722,4.612109918745969,2.524960144537859,3.3125530957928913
118,3.970288415001568,1.3147671384630952,3.1742000630698266,1.6036318149755535,0.16426419256339353,-1.1572978686885949,0.7062513647312612,-0.08160226646133745,-1.4238143983898537,-0.0029835353666189898,1.3065330359362919,3.042499818674812,1.3712844401647384,2.314439427801201
119,2.6502389837386207,1.2949909652533438,2.628453995895728,1.308095319929497,-0.12053103535927923,-1.784983599450149,0.644538828676537,-0.7292314783240215,-2.139509800005413,-2.1591505499372166,0.21357804596188654,1.2398964183126495,0.11022942548449433,1.151161028619904
120,1.1390423191426386,1.1170696653067906,1.8761176935543737,0.8698163545744229,-0.41696499087160993,-2.217778674442468,0.5806542319027443,-1.2600872601017077,-2.6026444502077446,-4.0207960035356525,-0.8558022095908373,-0.591225010194252,-1.11813060027601,-0.044766214729770264
121,-0.38287139671480197,0.8225119082345592,1.0157408608557015,0.3562505904536432,-0.690658693423839,-2.427740846206379,0.5204589688669641,-1.633372274196721,-2.797254610236635,-5.423428654941827,-1.7908745859358413,-2.251845751617899,-2.181325652776956,-1.1438844252823293
122,-1.7444246171261286,0.4643072092714283,0.14996999578036438,-0.15997669148883842,-0.9086005286072304,-2.4122505066088804,0.4634201597247652,-1.827519127701304,-2.7345735940675837,-6.256049292313998,-2.5001007604920944,-3.5726180754235997,-2.970821540067422,-2.0352721499958095
123,-2.805222125619457,0.09814071708870534,-0.6273840784018665,-0.6117009039005916,-1.0442080066595383,-2.192327003234371,0.40472073747193255,-1.841033775210187,-2.449347113065158,-6.472053966884723,-2.9217185812810227,-4.43341514441311,-3.414898854673032,-2.6391693134304375
124,-3.4716513987896556,-0.22599184085079554,-1.2421929226957167,-0.9463276009293475,-1.0813238195855177,-1.8082386086532027,0.33795548454237834,-1.6910351265289636,-1.9940739954647886,-6.092233831626719,-3.0301620064309676,-4.775685238773701,-3.486317532876906,-2.915092526824457
125,-3.705708651243432,-0.4704810932055714,-1.6474151014070495,-1.1321233372100483,-1.0165326584285905,-1.3132128298466468,0.2577853082107885,-1.4098066326797214,-1.4319200707442747,-5.199543214361936,-2.837513749735804,-4.6061375694183235,-3.2037656793577836,-2.864426888903432
126,-3.5256547947499475,-0.6141885004965901,-1.8262711488140355,-1.1609003500791257,-0.8594741912148028,-0.7662275167641612,0.16201540205249337,-1.0398882874052597,-0.8291327387306536,-3.926419226634214,-2.389915520842653,-3.991564946541905,-2.6270229412978563,-2.5272942866250485
127,-2.998867022425234,-0.6535010530234596,-1.791068466610496,-1.0469319189099924,-0.6311624139910238,-0.22488203460011064,0.05273336579988623,-0.6283847576084416,-0.2477960701223201,-2.4364654700332258,-1.759606105047176,-3.045911016738725,-1.8467213074358935,-1.9743579859944107
