,AF3,F7,F3,FC5,T7,P7,O1,O2,P8,T8,FC6,F4,F8,AF4
0,0.39634048528129867,0.2430183054666028,0.5101683438140917,0.5277722210870102,0.11386767826141976,0.2677400329505383,0.29221996205685385,0.1287739434190993,0.11981049260689948,0.015700700524573265,0.14909050653425412,0.20292106831813028,-0.3824141582163009,0.2446252355745256
1,0.28980970069433987,-0.24305912790855655,-0.23546470448818768,0.94889303957856,-0.27790184358427544,-0.2352452642358216,0.6514157581498535,-0.11005138875813045,0.5126243246185803,-0.7401871885324199,-0.879465161829248,0.6114819760935892,-0.4480148679099811,0.05856350679878947
2,0.16422354192035293,-0.716284073653525,-0.9314563819961413,1.2980774507144113,-0.64404307233569,-0.7114482743413478,0.9281164694697116,-0.34131633971743414,0.8165185302333343,-1.4878535437900093,-1.8613045995598,0.9326845972198885,-0.553880954767012,-0.1457329739976725
3,0.025615695459338773,-1.1576730858493613,-1.5286594052780196,1.5248682804851441,-0.947339808602854,-1.1170290761730681,1.0860747842513008,-0.5579091568636935,0.971816506994141,-2.211797213820714,-2.755482791925057,1.0873544167772051,-0.7289129682403446,-0.3788074683722991
4,-0.11813059703832644,-1.5471981555152536,-1.9900997688530933,1.5929321812789927,-1.1557636974063346,-1.4141944754615277,1.1067891278569506,-0.7520665430911274,0.9420491569443477,-2.888320889000028,-3.5231288052328282,1.0207594196715586,-0.9852963103526545,-0.6433299519743348
5,-0.257108803836788,-1.863530394169384,-2.293357286633498,1.4857384374243465,-1.2455807910581176,-1.5740524200377006,0.9927452057332962,-0.9151901947842598,0.7198766683543525,-3.4840414283350234,-4.127669191773601,0.7125534786146244,-1.313741610934182,-0.9305937459921009
6,-0.3798072596102894,-2.0848079866553006,-2.431299040573571,1.2093345782749882,-1.203881671303982,-1.5790524890211115,0.7672519333923014,-1.0381952265652545,0.32844662252151824,-3.957038024133137,-4.535871905691917,0.18139228010959982,-1.6825906411003224,-1.2195491646973582
7,-0.4741761368674711,-2.19048027852739,-2.4112193543263563,0.791794586180927,-1.0302747613469767,-1.4248475380001475,0.47081756934406027,-1.112371216064748,-0.181966626873087,-4.260681988062614,-4.719812706217679,-0.516517193936468,-2.0410710443003954,-1.4786798933993508
8,-0.5292319958850875,-2.164012694795372,-2.2526028026288745,0.27945458420371483,-0.7375185355023928,-1.1213527731705202,0.15460511300654403,-1.1305958850154796,-0.7414227135698922,-4.349653078962728,-4.659595202943727,-1.2946905854710653,-2.326260220205168,-1.670441944116688
9,-0.536939765589428,-1.9960062065115745,-1.9838577956085446,-0.2694415946005944,-0.3509360557720031,-0.6927506004980074,-0.12798627845134677,-1.088646873214785,-1.2706219945145647,-4.187197575227497,-4.346414759553808,-2.048308129830323,-2.47268899535024,-1.7574686547303071
10,-0.4940176188285552,-1.6871362027313797,-1.6384572633832117,-0.792675745955157,0.09344407044375852,-0.17621890280652452,-0.33023752696040304,-0.9863290467273353,-1.6924131245289964,-3.7524092312851334,-3.7854034515255326,-2.6689762505529466,-2.4230810890066357,-1.7093986264312289
11,-0.40329268001473784,-1.2502808908857994,-1.2509638031626795,-1.2323485123637312,0.5519494414347788,0.3807373924228168,-0.4200540648992651,-0.8281734340457015,-1.9427603419461899,-3.046265788773519,-2.997661605788629,-3.060091341272916,-2.1385453511509778,-1.509067761992995
12,-0.274294369608997,-0.7112977425354369,-0.8534046397430279,-1.54231050057661,0.9773184577447546,0.9243001471162683,-0.3856236790667016,-0.6235529378304216,-1.9796161833433676,-2.0953292206960494,-2.0209691411417103,-3.1505827039655596,-1.6066263663026965,-1.1569324841261568
13,-0.1228878825401059,-0.10810221132286357,-0.47239547839672946,-1.6936965690946948,1.3234035202685805,1.3994309604242414,-0.237841787469755,-0.3861739290026962,-1.788552121427214,-0.9523696070064571,-0.9088491729694765,-2.905140870001183,-0.8459457336972713,-0.6729209024401126
14,0.030103075718627807,0.5120288342615775,-0.12729800100397484,-1.6778628612645623,1.550066617789622,1.7555611761400198,-0.009073557865079232,-0.13301391642505744,-1.3845353033419348,0.3063724426087779,0.27211064106500976,-2.329620934905989,0.09332882018318661,-0.09536760200332228
15,0.16118207111077126,1.0967125695110223,0.17045268072543482,-1.506446954529663,1.6277405667576679,1.95222995918082,0.2516031374692782,0.11713968805292686,-0.8098079373611735,1.5870893188568818,1.4465278578209537,-1.4710367361905647,1.1333487538599316,0.5228180381251333
16,0.24713554336442514,1.5937913942057496,0.4168797371175963,-1.2087082114617207,1.5411176414482788,1.96394654287165,0.48598755616097683,0.3453503489727688,-0.1283416500229977,2.7868456977578178,2.5357187484516563,-0.4123087441601783,2.176344424768695,1.120164673206444
17,0.26831935546739266,1.9570664752183589,0.614048544639367,-0.826686359723231,1.2914842384758856,1.783593722910749,0.6360617970793465,0.5341930999907731,0.5822621533434507,3.803592848389403,3.4638955545375523,0.737414596808722,3.1153225504969644,1.633945403128307
18,0.2118827113871105,2.1516791706008647,0.7680348194959167,-0.40898384458121784,0.8973430657119399,1.423845389567667,0.6536340750098589,0.6692520298966734,1.2403094597864142,4.546607702761058,4.164473165895205,1.855554509068972,3.8463769079830645,2.0077589511324967
19,0.07452367891760607,2.158422009206595,0.8866950319207848,-0.0041016121091054765,0.393142047578153,0.9163189601289727,0.5088799283658558,0.7403478955561614,1.7697853977749056,4.946167902443441,4.58588911908235,2.82042810601933,4.281101942894682,2.1984032481839906
20,-0.13560614269895743,1.9764013641440852,0.9776681019990963,0.3457616958115205,-0.17385372324266768,0.30848683721776193,0.19648444654550318,0.742445072312497,2.109213387567106,4.961373055307455,4.696395222144173,3.5254323586672536,4.357603003376899,2.181228027418182
21,-0.3981753104042924,1.6236913282763332,1.0469664500267393,0.6096784128385925,-0.7482752905046317,-0.34131754435716344,-0.26158711508158156,0.6762254819315476,2.2186268643744134,4.585231926219653,4.487372632915075,3.8915092154746063,4.048777524090393,1.9534022912782747
22,-0.681366463584067,1.135876107021305,1.0983715594413546,0.7711856038911298,-1.2724534452463627,-0.970194233940414,-0.8172036115691463,0.5483284301805967,2.0839397316243433,3.846424077153004,3.974840908605994,3.876546303577741,3.366866066590953,1.5348071659005424
23,-0.9441170249472164,0.562636563110045,1.133657776661323,0.8294276644147135,-1.6926439583463744,-1.5174840855293692,-1.4010504544368076,0.37123923528163005,1.7183201463940063,2.8074824647214855,3.1989639234584724,3.4806989554022336,2.3636943071562975,0.9665197068227618
24,-1.1398898972980491,-0.03724101528980585,1.1534637584360474,0.798235913909926,-1.9649175136141683,-1.9312342391176804,-1.930934558848746,0.1627785813537213,1.1605133985148306,1.5595025768146396,2.221494121219501,2.7470221957534777,1.1264970786813304,0.3070620889674604
25,-1.221789596466309,-0.6018946758935733,1.1584585158038307,0.7033627926433857,-2.0599780053486914,-2.1735262309969094,-2.322405440385959,-0.05487864362746604,0.4703895230853709,0.2138369535832786,1.1212426734088823,1.7572547638758877,-0.2303116822761615,-0.3732510892395313
26,-1.1486535837613263,-1.0728251898746066,1.1503537978571405,0.5782660603386605,-1.9663044676141368,-2.224045168563005,-2.5003489732880726,-0.2567193035299414,-0.2777193353431088,-1.1084452981734159,-0.012175201784900702,0.6230817398325436,-1.5766226877226732,-0.9994104168086942
27,-0.8915564772160767,-1.4010884900637597,1.1323300867765569,0.4589632915436685,-1.6912350099027755,-2.0815272401622775,-2.410037470663391,-0.41695830233301046,-1.0031031901913636,-2.288295254759061,-1.0858930492683214,-0.5263097316087394,-2.780202626453537,-1.4996814528660236
28,-0.43998711883258634,-1.5526195018129312,1.108578657906528,0.37855513413247177,-1.2598905149972677,-1.7630224060988218,-2.02613520718266,-0.5115830946676507,-1.627257120389641,-3.2204142338535173,-2.0120432751046704,-1.5591181400999135,-3.7209236903147804,-1.8137534769514494
29,0.19317068758650768,-1.5121455247340274,1.0828947431010374,0.3620509396727809,-0.7121276524558136,-1.3011986783637746,-1.3583660510267326,-0.5211935938383698,-2.082013446161927,-3.8237361538687824,-2.7159644959181213,-2.356640214884314,-4.304091001287083,-1.9002627791042344
30,0.9687598993575771,-1.2852706658183073,1.0565370885885763,0.4221189229377418,-0.09796970410612758,-0.740148573358773,-0.45293088376112733,-0.4338452741133609,-2.3163624823666003,-4.049525869225378,-3.1435508232691025,-2.827986903285466,-4.471336623322555,-1.7428204635984523
31,1.8213856382795144,-0.8984708623506501,1.0258324035354838,0.5563164195412076,0.5278493025117562,-0.13030863825283717,0.6107227936290155,-0.24752177974502398,-2.301294586452003,-3.886198803829503,-3.266935859732402,-2.9219785792716046,-4.207754998685285,-1.3536968099513462
32,2.6629291112908606,-0.39692141226656347,0.9801857670633047,0.7462279809404716,1.1115044453227485,0.47684004523267315,1.7275857974259763,0.028167836749466803,-2.0322658118925556,-3.360319645248792,-3.0878059455332285,-2.634618575522778,-3.544331536711503,-0.7744551215811168
33,3.3897168911913966,0.15972634294196958,0.9012114899441145,0.9587537524750576,1.6051667876799431,1.0336553489833264,2.778438016779227,0.37143895531582855,-1.529193025368916,-2.5336599047036437,-2.6378328910481423,-2.010986047075914,-2.555227697586534,-0.07309679965075327
34,3.8930316499214364,0.7033072241011461,0.7635974793994595,1.14956250599456,1.970992653014326,1.5002778588666523,3.643556458830358,0.7491990993794838,-0.8341734881605396,-1.4966341670036771,-1.9759931749073172,-1.141009083437734,-1.3500736789127346,0.6623407383122845
35,4.072117769281014,1.1643466536455545,0.5380594952529264,1.2684730257396202,2.183661690394541,1.8472819567898333,4.217106409700264,1.1194441678373952,-0.00735261148966324,-0.35883682310038667,-1.1828709254140155,-0.1493101270835951,-0.06201364360634586,1.3333398318094272
36,3.8483351111822612,1.4798496747457244,0.1963566852756415,1.2662756982279688,2.231357207397462,2.0568856109090152,4.420391131813608,1.43509415227573,0.8785016016533668,0.7622863520880682,-0.35238768713261664,0.8199249486109329,1.1672239267902542,1.8427489190420006
37,3.1787265646438287,1.6008965145537277,-0.28211818738710137,1.102276718451847,2.1153191314815936,2.1227786402274584,4.212229595701022,1.6489675414910359,1.744128380643473,1.7534116402476465,0.41827750112930423,1.6214064728358564,2.2035616922740817,2.1076323782473376
38,2.0670658197837466,1.4992062755781068,-0.9031110341682407,0.7516679610323587,1.848285831170934,2.0488125759217604,3.595062335048285,1.719400266640469,2.510076385596482,2.5166941564026706,1.0395541466874347,2.128339370536428,2.9362299844753443,2.0715269826959197
39,0.5705012225855084,1.1718484615628904,-1.6509279165921211,0.21172674564920285,1.452246703213343,1.8469286010489194,2.6159111000698414,1.6158690402209972,3.1027552953227397,2.9793450008002056,1.4399385691363171,2.2506624441634187,3.290955418258154,1.7143772815755969
40,-1.1997590040551058,0.6433928998350067,-2.4839512586661305,-0.4941394399559331,0.9559405145892438,1.5347660971548593,1.361971132079979,1.3239046578779605,3.4599345944824456,3.100483891191862,1.5747975264830871,1.9494175935500662,3.239010645104771,1.0585199090537318
41,-3.08467217110357,-0.03500140496760964,-3.3335994721755853,-1.3153456657599338,0.39246231321300273,1.1333863006888425,-0.04868913612126501,0.8485966353069327,3.535490064878517,2.8746306982888368,1.4323621887356635,1.2450531859097866,2.800885071272047,0.16943769613977602
42,-4.890622728406558,-0.789754823088044,-4.10770314020141,-2.176640094532937,-0.20279056708865434,0.6654678036539172,-1.4802004026499733,0.2161057970459511,3.303266007270653,2.3315654295944688,1.036010793741886,0.2181069073765826,2.0439473332616753,-0.8493999608890016
43,-6.408886525896189,-1.5321154769864698,-4.698647871603361,-2.9843250641902452,-0.7937593488825234,0.15419680274216138,-2.794112337148735,-0.5271897987955513,2.759943972032654,1.5326711131200488,0.4423408485176201,-0.9983689478817689,1.0742011100306703,-1.8675071159613768
44,-7.439495199687211,-2.167903847072906,-4.995847030667342,-3.635847257630736,-1.3450202138992269,-0.37709386302871944,-3.8648507910888594,-1.31801270967277,1.9267839856551534,0.5642313412101062,-0.264963666760833,-2.2341835668565286,0.022998529107539908,-2.7431825824660643
45,-7.816856925899335,-2.6087818586964007,-4.901277571846583,-4.031894544029898,-1.8229020633065791,-0.9046603499881566,-4.593479883054058,-2.0817573339352657,0.850043791631189,-0.47155932001313083,-0.9849247214675639,-3.303600707674477,-0.9697310742960257,-3.3423341052171542
46,-7.433912599831804,-2.7837602897782245,-4.346078643520934,-4.089662590089585,-2.1966233650957916,-1.4037392138406446,-4.918080137987242,-2.739809733645146,-0.40018394221677017,-1.4669258852248288,-1.611669782943685,-4.030560877468831,-1.7736497041669994,-3.5578746481515844
47,-6.261414548294732,-2.6494756414634457,-3.3057172286164485,-3.755606793535211,-2.4396099918024636,-1.8479859769213272,-4.819525084924169,-3.217869796595707,-1.7330050455373534,-2.3191584540172,-2.0479772755680794,-4.274225297986998,-2.2852034398097927,-3.326909382572775
48,-4.359194766495646,-2.1977683885958266,-1.811090192900402,-3.0158517927689235,-2.5310655431600466,-2.2093902211209184,-4.322066074812673,-3.454371739983544,-3.041866463215296,-2.940571029132346,-2.2182613464873135,-3.9512374171618885,-2.4414864517818633,-2.6430031998365546
49,-1.8770659692753973,-1.4593088611562914,0.04676910296589956,-1.902546852372353,-2.4577437349338513,-2.459042563497407,-3.488824900600525,-3.4080426665227694,-4.211887867509013,-3.2668848964280937,-2.079261532862568,-3.051311149624064,-2.228780217455252,-1.5613246094074151
50,0.9557869332293091,-0.5024400342319187,2.1199799997709157,-0.4948453601237293,-2.215746252262599,-2.5689770815059143,-2.4129454596567235,-3.0636879107151316,-5.12918661397154,-3.263322774446136,-1.6269179640905482,-1.6434897317873252,-1.6844437179751428,-0.19536029165524352
51,3.8525562534420903,0.5730037768733816,4.215617849589014,1.0861815410797293,-1.812067007666948,-2.5150805766248334,-1.205680496133749,-2.435439813293885,-5.691634112010607,-2.9279083853499928,-0.898356160454639,0.12839909693952595,-0.8917356284713586,1.2949311549644074
52,6.49972952619593,1.6464597163985528,6.1152684085727245,2.6885872018985957,-1.2655501187181106,-2.2807896851851637,0.016974894338230087,-1.5669416741973827,-5.820089083929736,-2.2916892406668765,0.031475173173660824,2.0610857011814705,0.03184189284618566,2.722378796392241
53,8.593745006372176,2.5908554019123167,7.600286917512865,4.145575987787269,-0.6069409858756158,-1.8610461226936639,1.147376090903974,-0.5282463824640294,-5.468825146009414,-1.415832198605537,1.0582574049960665,3.9164188010534935,0.9511310499426198,3.8969387743787656
54,9.878875918413055,3.288582127598921,8.479643201342766,5.294746137239165,0.12220853723430837,-1.265807424454094,2.097429289965823,0.5904306396603941,-4.633697077753924,-0.3857814045723248,2.060885526338688,5.4521288346975,1.7325368981395772,4.651878888439094
55,10.181334346448082,3.6471476954922553,8.616566435694075,5.998178748522073,0.8718792923382226,-0.5223591084465746,2.8065902405194403,1.687582114291989,-3.3566381002040324,0.6970844834758901,2.9166262348680045,6.454713980299018,2.263145511417669,4.868112529681537
56,9.434780910217436,3.6123390706210188,7.950078009743632,6.160703495624848,1.5870896571053,0.32423533597371484,3.245819467610701,2.6610174806542757,-1.7253799592144101,1.7256095914751857,3.516895683317804,6.7698554241208715,2.466977377282253,4.493059408696416
57,7.693333284323041,3.176941703345402,6.507973880832504,5.7437464323635234,2.2123035781504683,1.212982977791181,3.4172143912996944,3.419029178261873,0.1321729526740563,2.5979107960221186,3.7815593304121435,6.325916889755754,2.3159891638197836,3.5510370170682983
58,5.12969358571178,2.383580993799249,4.408851430840487,4.7726323671149,2.696320081183168,2.071211081378239,3.3496239550392053,3.8907665574126566,2.0587663932305165,3.228209734222771,3.669800485716702,5.1469052137819,1.8341803432375556,2.143301246204533
59,2.017970638054342,1.3210159080932726,1.8522411953765499,3.336029450613032,2.9971170099992395,2.8209342997153573,3.0910874377928454,4.034470868787346,3.8828823202035303,3.5562426399986595,3.186028452731306,3.352670242414602,1.0941663901724037,0.4373084806637647
60,-1.2971137156915888,0.11412382333384403,-0.9024068319896776,1.5772786828355732,3.086091076193157,3.3866886428324485,2.6993605061166566,3.8424270295494627,5.436445093891357,3.5540916494662764,2.3799505113855175,1.1459095518635556,0.20669389644484862,-1.3536506760048288
61,-4.440992135886937,-1.091269029093803,-3.5654790849476767,-0.3215118306416587,2.9511866965975466,3.7039051718018565,2.232042565614619,3.3418771603731203,6.573007858450921,3.229493350366669,1.3407216635556272,-1.2125526204918478,-0.695385776632876,-2.9978438729391685
62,-7.054866580038924,-2.146787045403219,-5.851943250530514,-2.160687704814191,2.5985259766656936,3.72676333424654,1.7378591537922181,2.5916673645184685,7.1840934221935795,2.625046338497851,0.1858943032262148,-3.4370201872719175,-1.4763697409288183,-4.275827364890106
63,-8.840264671134666,-2.9207128698170615,-7.516505058772292,-3.7468841515649802,2.052319354616233,3.4344937792195362,1.2504636843364183,1.674985256627435,7.211529696435378,1.813221486278393,-0.9534025185814731,-5.254249428986043,-2.01743441317209,-5.0102864473610635
64,-9.59667624794165,-3.3154301453199873,-8.384436535557882,-4.91637464678106,1.3530282556167212,2.835280641744919,0.7857173891841631,0.6891013064476452,6.654115437585283,0.8876209249401509,-1.9491163325812828,-6.439747041337535,-2.2340671418764693,-5.090846736295865
65,-9.247262283892601,-3.280735656888752,-8.37385692127924,-5.554860614662043,0.55394703979041,1.9672065830621293,0.3428308312707568,-0.2665360581112331,5.567701326213311,-0.04853570862580121,-2.692574600600802,-6.848042169019278,-2.088776355984619,-4.490404579700784
66,-7.849162606381817,-2.821183481625566,-7.506374893469897,-5.611085879503792,-0.2834504254941257,0.8960389440988586,-0.0909187179551358,-1.1022565545657033,4.058656781215966,-0.8952790854642217,-3.108302367798013,-6.432733739284934,-1.5973250142305147,-3.270691319016469
67,-5.5869307262698555,-1.9963974418199208,-5.904568505903715,-5.102475246319627,-1.0949170845953895,-0.28998188560573984,-0.5328398981785827,-1.748570865266066,2.2715768879228566,-1.5684278448284819,-3.1635464283926216,-5.253502483056455,-0.8276156002802214,-1.5762506762777204
68,-2.749825568290257,-0.914203015892355,-3.7765613841027386,-4.1120590125957674,-1.8190315944904352,-1.4878646109116485,-0.9963286035432256,-2.1636450098501707,0.3728357491910559,-2.0100800010317172,-2.872260454285171,-3.469054426974599,0.10866178461096591,0.3824419140620498
69,0.3042005412836749,0.2826315815867958,-1.3896959644339402,-2.777108160710707,-2.4024202097067726,-2.589350642287003,-1.4829900279039656,-2.3369002019556033,-1.4678896336362786,-2.195563598724287,-2.2930227878320313,-1.316879022781829,1.070550553585461,2.354569669315761
70,3.1932390098049104,1.4344084198960398,0.9632370573089001,-1.2710095921436046,-2.804090951369833,-3.4912289486538324,-1.9771288548192276,-2.2883497945144855,-3.095781855016536,-2.1358063355151273,-1.5211357712464693,0.917507389428248,1.9066414401059442,4.080020786535391
71,5.559169122179368,2.384979609307077,3.0007774401109426,0.2191929520946389,-2.9984882890189337,-4.105463799499491,-2.443991247089645,-2.0638836971908745,-4.386493843469708,-1.8747145146645272,-0.6758985852842796,2.937749856736431,2.475738510506214,5.32197539639875
72,7.112303701625232,3.0020415245198833,4.487780280620161,1.5166015052102813,-2.977039419360469,-4.368129937919233,-2.8324843088613982,-1.7272622431845173,-5.257379271009128,-1.4818713873627758,0.11533175334136947,4.4753459694579645,2.666684275846372,5.896966198204024
73,7.667250992114635,3.194574704303178,5.264094193610075,2.476466385098706,-2.748144554292299,-4.246260339598331,-3.0822527465070166,-1.3500088874882321,-5.6731616067223465,-1.0415622951088293,0.7342530052128385,5.324742991879291,2.414740925971348,5.698707666261314
74,7.1654820670915225,2.925111982043572,5.263320268837899,3.0035305559418672,-2.3357320846330274,-3.7419045252604826,-3.1341073905555197,-1.0006382033499996,-5.645643288983439,-0.6396921334032436,1.0877052141491,5.370271352812705,1.7123533228444476,4.712807127841615
75,5.68186065984986,2.2151997863005826,4.51941784644624,3.062541956909228,-1.7766281836260953,-2.892949495015532,-2.942042780706265,-0.7346960664552983,-5.227856914186335,-0.35048393461572075,1.1206685115570694,4.6014851268385595,0.6128410304562195,3.020631908965995
76,3.4145019535277092,1.1433360140913542,3.1605735501749455,2.6807363779727567,-1.1170665967840108,-1.7705500407826429,-2.48460883656621,-0.5869310677547798,-4.503768914853552,-0.2248839004421967,0.8245167249277552,3.115059217419429,-0.7735138264499207,0.7919480742376936
77,0.6594765723581113,-0.16431759713354135,1.3914248776930642,1.9422069569710483,-0.40869079230004673,-0.4733286160450659,-1.773332153489575,-0.5665976452398649,-3.5751733474627625,-0.2823496729960199,0.2394869658929765,1.103171238668598,-2.290538275154023,-1.7327192323024634
78,-2.2262356673023134,-1.5491978371594382,-0.533814900149133,0.9751542405887781,0.29560990567313944,0.8811893099002283,-0.8562606879201999,-0.6564648705758915,-2.5476969234558613,-0.5072162639741715,-0.5489607538424883,-1.1699887669380977,-3.753072960130076,-4.26790299980551
79,-4.868759568503514,-2.8395763234647267,-2.3437420670074567,-0.06610178357641522,0.9457202964086675,2.1671692740616906,0.18451489278042316,-0.8156261395114408,-1.5178471766697612,-0.8502014580986944,-1.4195136598697273,-3.400520008180594,-4.967722483171138,-6.514251942707448
80,-6.9228125974968995,-3.8713179746264874,-3.78355263073456,-1.0218787285241102,1.4979053129273507,3.2621484078749092,1.2414616069374451,-0.9857284813188059,-0.5627811616025653,-1.2349224608789897,-2.229107251618439,-5.281907016335339,-5.755096724974091,-8.191435910205126
81,-8.113180124041246,-4.5075979435227795,-4.646157807304556,-1.747953879500441,1.9177733783876592,4.058731732996343,2.19529919251585,-1.0998167963351786,0.2660054429591801,-1.5686335957610575,-2.8302702630162497,-6.542473260341353,-5.971119947721416,-9.06943688585261
82,-8.267362894709722,-4.65522784878679,-4.797054173687322,-2.133863479485475,2.1824122509725976,4.475197529369478,2.931773097761816,-1.0926629123357372,0.9444989046426028,-1.7558338658843695,-3.0898854565800358,-6.978865687920232,-5.525175196473659,-8.995037037272054
83,-7.335790023807821,-4.275729808189196,-4.1902603201679565,-2.1165147574518555,2.281565033976902,4.4639702024928525,3.3588296226584125,-0.911256760423098,1.473619056329658,-1.7129924519330022,-2.9073509983149464,-6.481817215744026,-4.393233474620607,-7.910859813398919
84,-5.3975547526751955,-3.3899776108725725,-2.8737543087252058,-1.687601980642319,2.217782562989735,4.017088150868266,3.4213255318255182,-0.5240983371833683,1.8730745579875896,-1.3824432967282334,-2.2301016489853813,-5.051367191161164,-2.6246163582168975,-5.865052295603749
85,-2.6513474944779447,-2.076007943080498,-0.9840694985604818,-0.8941150020137774,2.0055742225428776,3.1680602007470333,3.1107268953405653,0.0719504414006902,2.1729081464207622,-0.743533311973296,-1.0645969805164563,-2.799892143649871,-0.3415973905899063,-3.0105440130970007
86,0.6070661896411678,-0.4604024032841152,1.2691005362819003,0.16792658963601423,1.669671547162494,1.9898430912706715,2.46803197918109,0.8482269987172179,2.4043169604484804,0.18061904908235663,0.5187809727203212,0.057409242188891214,2.2683692464763725,0.40627264488864995
87,4.018021107992892,1.2956311214004355,3.6263894274383546,1.3655802337000718,1.2425972029745982,0.5890421701572335,1.5792444309449196,1.7448284236348153,2.5913725986231917,1.3219030976316675,2.3879529056690725,3.2236370534701426,4.96740284727258,4.066663344592584
88,7.197891135086259,3.0137733451806694,5.807635313497758,2.545328791172627,0.7617783729079993,-0.9032101377063164,0.5639284898233659,2.675294123631967,2.745043987109375,2.5720142274398015,4.358832052513094,6.350789197384845,7.487933389607631,7.608793056127924
89,9.781285575586331,4.5176487871342825,7.542961740479569,3.5516225173420266,0.2664544439347017,-2.3429451919869733,-0.4415063034766287,3.5350493558619274,2.860484613944861,3.792996496341756,6.212021010201669,9.076736676897125,9.557834004725244,10.662597252239543
90,11.46090794139888,5.651280658875315,8.602749711759536,4.245390004684659,-0.2053862768464863,-3.5866385215846948,-1.303293365095821,4.212796155301166,2.917960424141228,4.832506742024579,7.715226557779169,11.064798467239127,10.927841393765085,12.887149922404086
91,12.020896997718,6.294984211954136,8.823407434999888,4.5203985302367915,-0.6198339410634484,-4.504946802918285,-1.9096153404582723,4.603665841754228,2.8871635376592217,5.542128222140191,8.649327061439399,12.041819665173337,11.398759044566878,14.006983961699282
92,11.360302207534202,6.377134046289743,8.126352580469947,4.315693170232025,-0.9494721522109385,-4.99568677695337,-2.186775177989995,4.622690440453941,2.7340842490251607,5.796588950844337,8.835397931900184,11.830718201153001,10.845715489546748,13.843693252031674
93,9.504466472065905,5.8807801491262985,6.528339665058423,3.6228671592820105,-1.1752319967956442,-4.994833751764112,-2.1097409175778634,4.217034200719762,2.4291914179089567,5.511504918559807,8.159610123301094,10.373907843880978,9.236754925627379,12.339346128514306
94,6.60335804596068,4.844684635468231,4.142108608372398,2.4875307963859536,-1.2875630934541653,-4.4843967886077785,-1.705430274417534,3.375465801735466,1.9554599847839116,4.6573099691228235,6.592845201261371,7.744801001704441,6.643316688121796,9.568790892927877
95,2.917180096186968,3.3589271409446453,1.1672258733831227,1.0049731222136478,-1.2868321946069634,-3.496214118554441,-1.0482247036141847,2.1337510871735748,1.3148057624054972,3.2673641001178018,4.202173606133578,4.14569173079057,3.2407419411261755,5.738833208025411
96,-1.209216413322586,1.555721824481223,-2.1281191469865837,-0.6894143285374741,-1.182906608884368,-2.111018876150371,-0.24841478063682676,0.5750005860737464,0.5317315222809544,1.4388341258373312,1.1520365728050581,-0.10835480428082564,-0.7021746245567684,1.1734766171513513
97,-5.380560371905681,-0.4035277694128431,-5.4327544441164,-2.433898836145045,-0.9939420424910083,-0.45254435966116663,0.5646197090165895,-1.1754981631758479,-0.3465799395660864,-0.6742322914903494,-2.3059758225594194,-4.618518844711492,-4.844444489309394,-3.7141345381383886
98,-9.190664229632183,-2.343642432359495,-8.42323765378752,-4.0569264429915135,-0.7444655303376526,1.323062655892668,1.2618843577350383,-2.9608258904328046,-1.2539294010794926,-2.8752491379663194,-5.854533328000145,-8.941588533045836,-8.803542019544015,-8.460871311693879
99,-12.26330424246003,-4.092097744786383,-10.796669651356293,-5.394723221890434,-0.4629138037957771,3.041724672277277,1.7339087444027699,-4.607551288657015,-2.112118115596692,-4.945467460989665,-9.141488139408905,-12.635787321418732,-12.192776939681117,-12.600190536674694
100,-14.29037370850786,-5.494967916585927,-12.302269381403642,-6.308192102307364,-0.17884676279057696,4.528524326161474,1.9066615225050836,-5.943977432684611,-2.840358095445513,-6.668122754187504,-11.817246335547367,-15.308203917565255,-14.661621387175705,-15.711248541005636
101,-15.063386698678334,-6.430940868071545,-12.768326248599474,-6.697376200632025,0.07990270021415778,5.625724671833283,1.7519110257609696,-6.819537931905878,-3.3657034272602298,-7.853472770703779,-13.574415184486309,-16.658498459855235,-15.934525598391396,-17.465024530512938
102,-14.495001537255456,-6.822140871713273,-12.12148956046002,-6.511991383594209,0.2898643468601422,6.209812318325298,1.2906060756098177,-7.123043758747913,-3.632934537943579,-8.361592609166065,-14.184933970995854,-16.513732098776767,-15.843581159072324,-17.66193935791848
103,-12.62821201384589,-6.640785192037469,-10.396089653518818,-5.75692508082676,0.43408662091192196,6.205639850545838,0.588950509437759,-6.797439260478287,-3.6123845243195003,-8.11997079804395,-13.529905342312398,-14.850007382984774,-14.350830169981425,-16.25621502092342
104,-9.632139300165788,-5.911085784733096,-7.73225088361988,-4.492120676070815,0.503591852285212,5.595960311587126,-0.25204394281926834,-5.849001364267502,-3.3044981519564365,-7.1335484919655725,-11.618028169533853,-11.798042253109331,-11.557062413300088,-13.363664033089584
105,-5.7848134179258714,-4.706256854294072,-4.362826921522969,-2.826862392167017,0.49797942164838044,4.425083590056245,-1.111794810139747,-4.349502257057625,-2.7404083756117568,-5.485788124106705,-8.58982871710822,-7.631665106122254,-7.69547747778911,-9.251556455959667
106,-1.444781430571989,-3.140959331381101,-0.5904905690965457,-0.9090718221298599,0.42511434851909424,2.7959968121026697,-1.8678012796327623,-2.4306940618539943,-1.978418357882758,-3.330512370424601,-4.706626652607354,-2.740271482919176,-3.1104143992882856,-4.311421333380071
107,2.9853736870180856,-1.3599495721406099,3.242544017112947,1.0892533385655068,0.299937779400191,0.86101084475979,-2.4130772076090623,-0.27145781269296404,-1.0968883574615458,-0.8754463784053635,-0.32511087991381377,2.4117553495740163,1.7767848094537249,0.9822179954459782
108,7.099642909745122,0.4759465760853237,6.788859160774078,2.988946005730505,0.14253444549855343,-1.1932569989956714,-2.6708675245634743,1.9210497099819166,-0.18454928961691322,1.640547956540884,4.139737869824244,7.334057557315478,6.511070873925087,6.122407242167089
109,10.52896920277057,2.2051715847695563,9.730509321773562,4.621195931443204,-0.024322912017288926,-3.165063931584469,-2.604642548790811,3.9340653664800724,0.670375905766116,3.973777246497195,8.259112129324413,11.562122758623637,10.651245926802876,10.623707582587084
110,12.977139597889558,3.680606814883773,11.810339891481922,5.843928923068884,-0.17787263810964724,-4.858839017343554,-2.222122533239777,5.572937598966453,1.3907088339064264,5.902378745781249,11.636974301015956,14.705961727089623,13.81630948415324,14.07322804149928
111,14.248511339775105,4.783110707704948,12.856690946814615,6.55539724432603,-0.2979999622750067,-6.10622005213245,-1.5729878000594446,6.682912312307805,1.919045972235989,7.250148113118615,13.953208859854564,16.49010394334087,15.725219291582595,16.17286716743653
112,14.264846195915997,5.432105513558808,12.798998496528961,6.70361667263205,-0.36950999978063237,-6.7843970224981485,-0.7408427397629815,7.166209980315164,2.2235051975397373,7.904733826127216,14.998152175756486,16.78044993829805,16.225465502923544,16.76803506760797
113,13.069741237225669,5.592167971070959,11.67281083556529,6.290695575250009,-0.38378006835724393,-6.829572624037222,0.16920361266360218,6.992221808509002,2.299776767149204,7.8281402393200095,14.694388228415544,15.595125124655867,15.307199323164982,15.859832663446225
114,10.820482130170465,5.274968913694295,9.613865714169714,5.371612920835128,-0.3396057091096761,-6.243880875722709,1.0454077362096028,6.199574601973612,2.1693410752058733,7.058471930210916,13.103290089001323,13.098406277098919,13.101404286812896,13.599696378892261
115,7.76846825856802,4.536384974439873,6.842015319358998,4.047574735761596,-0.24314981953222878,-5.094866489314957,1.7845095393883537,4.889916328491111,1.8743055181618489,5.70295926045643,10.415689905221866,9.578796340534321,9.862528783760679,10.267616218197787
116,4.230541544038707,3.469130108786091,3.636839827866773,2.454663524905146,-0.10701065424201288,-3.507525826676975,2.3049589444005996,3.2143912020343577,1.4698228598164536,3.923381852086173,6.928023908228373,5.41416126752155,5.937866612307023,6.236951255791787
117,0.5544834682035112,2.191766896735348,0.3076632481025992,0.749033436297255,0.05147077478716981,-1.6498273814896836,2.556491833920943,1.3547351044936649,1.0153973249184605,1.915911729192167,3.0070708764885112,1.0282967429050671,1.7275411877496034,1.9303735304783003
118,-2.917465126052392,0.8353883798203375,-2.838712270598304,-0.9096749202361544,0.2124525142708259,0.2865552861078469,2.524919288900522,-0.49841634541119134,0.5664992268614003,-0.11198474267905464,-0.9522442550101934,-3.1558073485950726,-2.3599813497351296,-2.2276072984729702
119,-5.883033609138085,-0.4704572885382983,-5.528986986736788,-2.3747938431826463,0.35610466673128505,2.1079604536913306,2.231749936992532,-2.16714852247984,0.16777191903651634,-1.9646908709545212,-4.570749547222988,-6.760497197041125,-5.951494369403051,-5.855857816953592
120,-8.108559937529737,-1.6109482493666663,-7.549650423338105,-3.5270666581620675,0.46508077567019634,3.640256339331956,1.7290291861474771,-3.5051125098382596,-0.15124439860275343,-3.47886085434775,-7.525324781235586,-9.49071881929913,-8.746678524026557,-8.654382205686677
121,-9.44883709486323,-2.496774445520155,-8.765742633943088,-4.285439917728449,0.5266370958189344,4.7475436174490415,1.0904357870356463,-4.411415727227431,-0.37745366475976233,-4.538827415520333,-9.580915879820385,-11.160021830236447,-10.545585422441414,-10.43058049611326
122,-9.856282906754892,-3.0713870684240256,-9.130200007341413,-4.61308461934361,0.5341305669940524,5.345804328933208,0.4001367328601365,-4.838176716529536,-0.5127422408173976,-5.085458532716874,-10.610793373562961,-11.702850098387543,-11.263241639976387,-11.11158199081537
123,-9.378897431138412,-3.314087024292347,-8.68308485455903,-4.518171965048713,0.48770411176337575,5.409937837065844,-0.25888688633731316,-4.7912919864676615,-0.5703361744766412,-5.117845254247803,-10.60320661154532,-11.172465349999426,-10.930371243048425,-10.742110392640527
124,-8.147864408033728,-3.2389060961456657,-7.541266122617803,-4.049622479980487,0.3940741100033686,4.973508089983193,-0.8153822036145139,-4.324881423216454,-0.5699365207205089,-4.688155525819462,-9.654383986667254,-9.725659151759746,-9.68101748651632,-9.469191068480123
125,-6.356885919680286,-2.8897774317165537,-5.88027788304192,-3.288670720246189,0.2654563763393795,4.121487750281258,-1.2178651307098174,-3.5306560454166513,-0.5327189676117206,-3.890836805396922,-7.949551295382487,-7.596979384311302,-7.729428074812832,-7.516578479193752
126,-4.236234007653672,-2.3329128004279935,-3.9109623207359805,-2.337549691610955,0.11778715485379954,2.9771878889575403,-1.4392589860394496,-2.5239894030709444,-0.4771836353328265,-2.847973041047611,-5.735053872745148,-5.066318796539824,-5.339745322919523,-5.152852587427917
127,-2.0249422428958836,-1.647546775105073,-1.8539860585933188,-1.306844242444567,-0.03150289596691898,1.6852844119991854,-1.4777938166204168,-1.4287170056250016,-0.4165414841170101,-1.6929243985169091,-3.2855936964826578,-2.4242499353778557,-2.792673514809811,-2.6575817551886476
