,AF3,F7,F3,FC5,T7,P7,O1,O2,P8,T8,FC6,F4,F8,AF4
0,0.28926033034700593,0.06343122532037201,-0.22899538390429577,0.20829073329516198,0.3663081201799745,0.5809738866491815,1.0135661013891897,0.6653205196764906,-0.4809409727799667,-0.7615629685427154,1.7942095061466,0.40719833106003434,0.024185124753262344,0.7524342074424307
1,-0.8460499543908304,-0.9446069718653579,0.012343965896101705,1.5118471092000056,1.6998532780586115,5.549146457782257,5.725768860386465,5.254541775512631,0.5065761023945456,-2.7690464328368956,1.7134110266047045,1.7948846119894029,-2.91364218116603,-0.15667016562749653
2,-1.934745264830728,-1.9302473554712298,0.22789177610674174,2.6614673623155958,2.9103488535834043,10.178994127099779,9.975698412574097,9.43323343276479,1.378663168910805,-4.68838419173807,1.5813193367307359,3.0329722281783913,-5.645006573756812,-1.0533291769403226
3,-2.9313408352120036,-2.847559476116512,0.3987533448511792,3.5477725304100733,3.9495537696540706,14.142744471392751,13.485255533174149,12.901719451513985,2.05205456870673,-6.418640217138634,1.419906749513783,3.97694642801124,-7.96634652930759,-1.9045597787241442
4,-3.788631964475118,-3.645538850046537,0.5124153973634945,4.090543924799715,4.776315257368644,17.165172388109195,16.039013424346614,15.418947949758332,2.468799967160337,-7.851507210585715,1.251629116851007,4.514452324855987,-9.701744580191217,-2.674022642479848
5,-4.459544364211657,-4.270590215777037,0.5623357054254223,4.246383769595824,5.355772347274475,19.047280597762317,17.496518834829676,16.818990591097144,2.60142232890757,-8.879240577346094,1.0955848174787972,4.57750326407087,-10.717939469833457,-3.323629428660103
6,-4.9004393490770966,-4.670661913473417,0.5473257250360877,4.012480757115023,5.659919022093531,19.683105420408456,17.798402280781662,17.021534317469534,2.454308052174448,-9.405973633643384,0.9635224610070889,4.1496913355233405,-10.936503368221643,-3.816285282302531
7,-5.075494921900078,-4.800648440969137,0.47098901290609413,3.4261343945414446,5.6696552227520955,19.06783770778014,16.966293517529056,16.035837122144034,2.061334576094907,-9.36091042804987,0.8564996094707246,3.2677466169532003,-10.34186459379354,-4.119385221753689
8,-4.961505738799975,-4.628399173573761,0.3413253958694022,2.560102648524226,5.377950001693522,17.296306428025073,15.096961201999278,13.958038661030896,1.4802242385864393,-8.711259165273644,0.7630452967129329,2.017417569961959,-8.984133424942742,-4.208526922062687
9,-4.552297471579304,-4.140495396907371,0.17043670244305972,1.5142359216569992,4.793324697699731,14.551866514812689,12.351466672073032,10.962124584540444,0.7845088631685586,-7.472502729241865,0.6595404386089386,0.5242266387877685,-6.976137928587747,-4.070864653489011
10,-3.8619567501614487,-3.3469120540652906,-0.025872385669458056,0.4042194785859693,3.9426337041105035,11.086761428195237,8.940431783844852,7.285245323406156,0.05424651948306716,-5.713774575349373,0.5132038534698798,-1.0598587936388277,-4.484655423544905,-3.7076058268416676
11,-2.9262245104751177,-2.28376533944831,-0.22886544150980265,-0.6514541492970831,2.872134740007005,7.195980911184845,5.106753602716062,3.208484639875587,-0.6332793870500564,-3.556709753944429,0.28760520094778735,-2.5724365219900145,-1.7164572062226484,-3.135306859666285
12,-1.8016521979112208,-1.0135431590473902,-0.41823741107141965,-1.5449414317566588,1.6461033159409981,3.187393165984114,1.107231387503539,-0.9654603919109499,-1.2117332233193714,-1.1670882284551705,-0.04989776598955256,-3.85773046328424,1.0996217939457027,-2.3858093821377078
13,-0.5624262807186429,0.37751083310456723,-0.5741399907354416,-2.1914726312983865,0.3427075296294369,-0.6485975923736198,-2.8054165768660675,-4.935929360440928,-1.6318640698684745,1.2602679460371722,-0.5198789231212104,-4.782987972390197,3.7329084136130612,-1.504823008713921
14,0.7049273745631534,1.7848767342483456,-0.679720797741888,-2.539290307540261,-0.9525735132803208,-4.066500748914573,-6.398784572109438,-8.427342101539663,-1.8650435809044648,3.52173390244044,-1.1231313411045516,-5.252555307960199,5.971454951833708,-0.5492745316413241
15,1.9084841366154073,3.0938001497762584,-0.7237991707027048,-2.5758030290664,-2.1551526819526954,-6.8872002613320875,-9.474134987301444,-11.20968812307704,-1.9040378091873633,5.427696974489455,-1.8350344109957466,-5.218166393749679,7.640928972968663,0.416397296491641
16,2.958832588471895,4.189290053062824,-0.7031347110005842,-2.3289874155147676,-3.189914590256352,-9.010979098948201,-11.876095147955816,-13.114703638990868,-1.7612321987729385,6.824800721654688,-2.6033482206542238,-4.684310925838365,8.61997572457781,1.3247903662541762
17,3.777158309615368,4.967192034938896,-0.6237021407951601,-1.863581409343464,-3.9987613413455625,-10.420623347008211,-13.498331341592202,-14.046377327731488,-1.4648511024286093,7.614358579470087,-3.3503648394233543,-3.7080121850965466,8.850541964426862,2.1106788987768828
18,4.302649301228747,5.345237758209072,-0.5004990888079789,-1.272263445804315,-4.545839766165977,-11.174303508686455,-14.285288257725556,-13.985005402663075,-1.053929087181568,7.764075033389987,-3.9797264680993125,-2.3929186661799005,8.34213609822675,2.716418077339085
19,4.498401278949476,5.272843885537176,-0.3556726315511852,-0.662728389954423,-4.819568226099836,-11.389203468645155,-14.230508219928444,-12.984705636425819,-0.5728752963627539,7.311081353345373,-4.387485665463092,-0.8782452375546922,7.169586195251467,3.097184677745425
20,4.35511453455601,4.738431908518635,-0.21510535723687865,-0.14224304313275143,-4.83118117327675,-11.218085068816485,-13.372373523678949,-11.164997640122728,-0.06641923600572464,6.355524842753566,-4.476243275388049,0.6762865787828567,5.464497840510791,3.2255233980960925
21,3.8920771975993516,3.7731899006361607,-0.10396945755661131,0.19823100575924688,-4.610181784825548,-10.821976557478566,-11.788280314638522,-8.697652066822409,0.4244459777796969,5.045375402780764,-4.1705734425021666,2.107851669299591,3.401255983156371,3.09461577653156
22,3.1552184197019284,2.4505089698723754,-0.04204221033267128,0.2980350733763811,-4.197689687231863,-10.342799465204314,-9.58821278372384,-5.790409588357653,0.8651620672082592,3.5545185670129706,-3.4315393197166397,3.2682928221429663,1.179001391514946,2.7197314473889316
23,2.212370027301849,0.8807905794391726,-0.039696777555231585,0.13675388530584598,-3.6390560183292564,-9.879878158764907,-6.908442923378611,-2.669315440712926,1.2288750342652826,2.057363509506216,-2.2679941038078555,4.040221296377855,-0.9985182042719628,2.1374889954913407
24,1.1462571061453497,-0.7981047091499338,-0.0953964950069959,-0.26156799072553427,-2.9772024777159443,-9.473848518744532,-3.905682286399254,0.4386968297859001,1.4964781059687793,0.7039014416777023,-0.7425837707622707,4.34961805749305,-2.943031441378377,1.4028404972535904
25,0.046085047051094445,-2.4338878689916443,-0.1952415796744042,-0.8307721228858814,-2.2479073368915894,-9.1005158720961,-0.7515507808611948,3.3216566145278765,1.6558370641378883,-0.4007499689398762,1.029086047447863,4.173564836009484,-4.4995165201388625,0.5840512931385015
26,-1.0011735125301664,-3.8749343021511975,-0.3147116356593168,-1.4713207457202486,-1.477769645107895,-8.675814584265234,2.3731741254543204,5.795953361796704,1.70070660568963,-1.2088588395897102,2.8868264304462143,3.5423587184857097,-5.55964722739007,-0.24371089359292006
27,-1.9186326753096097,-4.985663215225596,-0.42231722974301256,-2.064233250069239,-0.6849532343114665,-8.071382912486616,5.285282531051556,7.716811836749254,1.629821009037983,-1.7324074414571253,4.6414560287250195,2.5359426145154482,-6.069413176612492,-1.00533147424033
28,-2.645486882800083,-5.66032908553192,-0.4845219374649712,-2.488211806725438,0.11780854168427977,-7.138634723253872,7.807532276293054,8.98570030135902,1.4465021258157174,-2.034684024218961,6.096161420783483,1.2752041478328582,-6.030178546609617,-1.6323504510087463
29,-3.1404937477170374,-5.833542408225852,-0.47109501573563556,-2.637449345880191,0.9189422459035057,-5.737844258937286,9.779074854902086,9.554703841365884,1.1589088552991322,-2.212467272595826,7.071154347416203,-0.09082136350050612,-5.493345014573325,-2.068450931658967
30,-3.38276804458032,-5.48629111656722,-0.3600302504785496,-2.437528070506731,1.7037279218222265,-3.767884258756498,11.067662320089504,9.427932709442276,0.7808055244295193,-2.371874017941387,7.428396787686394,-1.400493930320334,-4.5496793635306885,-2.273363437563514
31,-3.3702006732203746,-4.646873288668613,-0.14130071612842687,-1.8571409956765694,2.4511394987548067,-1.1920213704032454,11.58266560647925,8.659977882890608,0.3325053856758668,-2.602217915080492,7.092835317848036,-2.4963565875987057,-3.3151032865113703,-2.2250676622272647
32,-3.1162232003427883,-3.386865210884551,0.18103513368538118,-0.9140343124321267,3.1327032506855064,1.9443708885096496,11.287241862396833,7.351341058807468,-0.15850120777276439,-2.9527876509096114,6.066778514996086,-3.241649661290832,-1.9151956881423247,-1.9204987741718973
33,-2.645875469030807,-1.81291333965358,0.5885643512411952,0.32554727771212,3.71374521354034,5.507230025290239,10.207507573575842,5.640731981187285,-0.6577577960284343,-3.41716260022813,4.434781541216299,-3.5351138230991452,-0.47074502993899914,-1.3751828232307566
34,-1.992151559747919,-0.05564055564707728,1.0499911904471197,1.7536805794452237,4.156827723796012,9.27983911582044,8.436468595779953,3.694215077971303,-1.1253165019846554,-3.9285472176801894,2.3576027904133485,-3.322786751898654,0.9136120437157248,-0.6222826928784533
35,-1.1933943100602806,1.7427854424384333,1.5240331138753531,3.2327600023444267,4.42666565522909,12.981168507163963,6.130831785535402,1.691445902148501,-1.51867687486561,-4.367773611828331,0.055320252928809266,-2.605684208629789,2.156275580769627,0.28858075348535556
36,-0.29212488110624146,3.4408920942936216,1.9632987556244677,4.610944505928474,4.495476498898234,16.29445480324324,3.499684017838236,-0.19033765453504223,-1.7970774673682164,-4.583376027987234,-2.218675183485581,-1.4424897250388244,3.2005805161285976,1.2926241057583696
37,0.6647834394718035,4.908688628118259,2.3186771991510677,5.738995260722156,4.34762516054234,18.902476341945178,0.7852697158442542,-1.7933774275053256,-1.9266885235273619,-4.42085629130194,-4.20960931622656,0.05332141465334567,4.012151311650503,2.311523482216948
38,1.6251391442539123,6.0361789906596375,2.5438179012667668,6.486430508171831,3.982590620670365,20.525009912158893,-1.762475767583585,-2.9958029874242142,-1.8859566256978855,-3.7563430036414722,-5.694890005165847,1.7221073722065323,4.5730042846671815,3.255851701361384
39,2.5305593192770566,6.739288637477131,2.5993760220073825,6.755197479706234,3.415665797939593,20.953603278326103,-3.914640547501796,-3.7253140746855347,-1.6701666531257744,-2.528664665112012,-6.514528656440099,3.372131131322648,4.874271695880967,4.028960400674336
40,3.3166929417218816,6.963355179176714,2.45680109149903,6.48954388484306,2.6763117620247927,20.079101671669854,-5.4913313566485975,-3.9679861017285867,-1.2942663301231347,-0.7636625534493523,-6.593847889977781,4.798212079017935,4.909627000563377,4.532873781958053
41,3.915407573053402,6.684655557883501,2.1015239813083575,5.681360256687881,1.8046014747452908,17.908260759593297,-6.384617866930356,-3.7703474908170147,-0.7931686993901195,1.4145397502704558,-5.95481915522708,5.803501253015863,4.671273136116836,4.676470113636364
42,4.25942755250212,5.910566101361616,1.535425161004798,4.370849323588573,0.8465843888822691,14.5671314560166,-6.572480429474299,-3.2335907340758934,-0.21909709655253087,3.78869784795511,-4.713893745703655,6.222378864952586,4.149744073595,4.385736767958132
43,4.289350893579795,4.678862756796744,0.7784392199674818,2.6428641293075494,-0.15041325241045234,10.290535935553264,-6.120964510006763,-2.499856330071633,0.36398191735534174,6.070783514627722,-3.0661308298014935,5.942057885772576,3.337865167444024,3.6152710611926557
44,3.962331726643263,3.056408076651193,-0.1309182234715316,0.6195862433276806,-1.141608064252008,5.398669012675886,-5.173517289609413,-1.73182745742464,0.8882602448829258,7.939261017377524,-1.2575197384597192,4.920277555461758,2.238185629750095,2.3595831400346907
45,3.2611332781706652,1.137133502895203,-1.1363844309206197,-1.5496136818220332,-2.087052476317478,0.2634548464881231,-3.9285923354159054,-1.0881649568565208,1.2912663803698592,9.086261388544552,0.450688002369114,3.1965648834299962,0.8722465317997833,0.6622892125300478
46,2.2018782454139973,-0.9610688280233283,-2.166443364682925,-3.7002368210729832,-2.9521941560530607,-4.731411658322133,-2.6086753780545724,-0.6983250184161434,1.5249342303425437,9.267509075450663,1.8204150309588971,0.8949884219629624,-0.7106076820811543,-1.3788885654354328
47,0.8387580999299976,-3.1010759430705037,-3.1386963450911325,-5.66574771235788,-3.7069628945105317,-9.231946375876298,-1.4255084604021295,-0.64078737436101,1.5630786825542327,8.346877432772349,2.6721175522530585,-1.7828634509592987,-2.4273666696490377,-3.6131738379796725
48,-0.7357465997685649,-5.133353752567319,-3.9661274726444096,-7.2908219636562634,-4.324028366973967,-12.951758400603612,-0.5471366428105332,-0.9285171379570905,1.4059583781294054,6.3278294366787815,2.91152843117036,-4.574835120980257,-4.160610857943492,-5.845051704395427
49,-2.3959654701684423,-6.905058212052949,-4.564979108451543,-8.443876866326502,-4.777079052148687,-15.701471173112488,-0.07227154768552706,-1.5045532086282987,1.0810178435441316,3.365729642420997,2.54347027870005,-7.183949088030804,-5.764250161421592,-7.850058144543629
50,-3.9934406075008253,-8.27116753216561,-4.86359454615381,-9.027999512200575,-5.0399576326731115,-17.405684065198418,-0.016342313543279065,-2.249071513396557,0.6394979732683463,-0.2421559395485671,1.6703972324416985,-9.310506308997985,-7.075949549356026,-9.39703920953011
51,-5.371691617474211,-9.106882858657642,-4.811250285318886,-8.989392179767327,-5.0872612344273564,-18.104904634953918,-0.31166586223430576,-2.9973624064706357,0.1492848370173452,-4.088675357533649,0.4757298833527152,-10.687002116804488,-7.935145026381447,-10.274656177421374
52,-6.383581990946057,-9.32007309786806,-4.385779457195827,-8.322523993905314,-4.896635442097212,-17.9417593624833,-0.8217579980066332,-3.566233823784756,-0.3149902402278171,-7.706974362214257,-0.8055137863841431,-11.111614415436895,-8.204353623078962,-10.31891681049615
53,-6.908969710699607,-8.862241610872573,-3.5987552442221373,-7.071351421092263,-4.452548310084743,-17.132918281313174,-1.36736309630144,-3.7847739013148503,-0.6830996709732395,-10.631981504777057,-1.924232779768203,-10.475868193371348,-7.790617947496259,-9.437947605362632
54,-6.870144230223379,-7.736437298162579,-2.4971954125966644,-5.3262640883806,-3.75092243187759,-15.930279141840495,-1.7597495133511944,-3.5244919985605834,-0.8998779207983284,-12.46435531690089,-2.657023799670117,-8.782550897757673,-6.663580579711292,-7.630228529285541
55,-6.24278473831213,-6.000751809575889,-1.161156284373066,-3.2168129272899892,-2.8037176184382764,-14.576747928797548,-1.8355695544591113,-2.72379876857301,-0.9337014610186285,-12.927466855581299,-2.8419885087959758,-6.151020915738764,-4.866945616048933,-4.993134471632308
56,-5.060783920307688,-3.7665179900403833,0.30284946032924037,-0.9007420576725581,-1.6424538754905418,-13.26313056640644,-1.487339241860822,-1.4026167385483936,-0.7814387830500917,-11.908891575971781,-2.4049801921266023,-2.8085939506459483,-2.5209316787103124,-1.7198011625212182
57,-3.4141609043990044,-1.1909809909361218,1.7720442528220852,1.449693041667168,-0.3197627958160568,-12.092973788497735,-0.6843885092314209,0.3355059583610736,-0.46907835716451274,-9.480121815376421,-1.3722472240072525,0.9314957968222289,0.18538143549557007,1.9161094065490203
58,-1.4402819600766152,1.535056349812667,3.1200320304425806,3.6627607450165547,1.0916681741901295,-11.061516261044423,0.5191909007844902,2.314359385073188,-0.04792572476629434,-5.891410435818049,0.1324016509891146,4.703241876182068,3.011383071229895,5.586468094621544
59,0.6904512351927008,4.2034302456043875,4.2303115479404205,5.582061965242501,2.502994661342015,-10.053220944820348,1.9908303945049854,4.307553116789674,0.41304797962705997,-1.5422951616100329,1.9053584981217593,8.128245459340484,5.690015356713413,8.942710697441525
60,2.792548139016953,6.606947746550405,5.008873533082025,7.079523208117859,3.81574380957505,-8.859796638954439,3.538835710069449,6.069101286044537,0.8375361155821385,3.068139772705436,3.6930607480705415,10.858401908714606,7.957474602797615,11.65379006585306
61,4.684686910298864,8.55786336769203,5.39418683925419,8.065202575469208,4.930336720655184,-7.21748016353573,4.94151024681249,7.367447404328632,1.1533411162681102,7.404359852462119,5.229279345662296,12.615580224155618,9.583657412615661,13.443355319458492
62,6.2078963266581,9.904507804564188,5.36324427950604,8.492955310093041,5.755644852838329,-4.859081469530092,5.981255331939193,8.017813527024522,1.3032246807010444,10.962144833408916,6.274177229049694,13.223324009519564,10.399322663600447,14.121483737423754
63,7.24056160897255,10.544344552031896,4.932922462038836,8.361557289853822,6.218441071336525,-1.5734177687379527,6.478201674997124,7.908147388042031,1.2535723233486318,13.331836623736073,6.64933341682153,12.626626815671857,10.316376903179567,13.60696141425631
64,7.7087147582673925,10.432214343671301,4.156609974139565,7.711479469459995,6.271592353361636,2.7372021299232405,6.318187696779234,7.01506091543632,0.9996309242661828,14.248701098792727,6.263687643573396,10.897390760765868,9.338637206859541,11.937325419282967
65,7.5907940153680284,9.58314032171612,3.1167527184748094,6.618048064328742,5.899985895396333,8.01142235037187,5.4709752726943695,5.407775007432434,0.5665961820105387,13.623989238124654,5.126854836068773,8.225039833713224,7.561726987582633,9.265459707173852
66,6.916819630832783,8.069708927548247,1.9145352004611074,5.182129753821969,5.1234522123310935,14.004273298716269,3.9962519732519826,3.2399111204972613,0.006430426300073155,11.553050915206107,3.3482187844185245,4.893664085020307,5.162216562983198,5.843249688261339
67,5.762614910267668,6.014616017853742,0.6582647468578333,3.519686089681621,3.9962993866757293,20.29016747130676,2.0368995323977197,0.7306917939093296,-0.6091076686197229,8.300012830397923,1.122313527163863,1.2487526748489945,2.377517023708589,1.9944031111195646
68,4.240204655243691,3.579397816003627,-0.5479064109727418,1.751517554382519,2.6034484138801863,26.296224628959944,-0.1991185233852694,-1.86153269228293,-1.1982222282896746,4.261629298962428,-1.2970846735896897,-2.3421970445624964,-0.520823813825635,-1.9201827761007284
69,2.4857912532582924,0.9506105207952164,-1.6135012956158328,-0.005720512348347645,1.0535141624353457,31.3640593783054,-2.465364447401661,-4.269696465156915,-1.6802597117367695,-0.08445925826711682,-3.630270729339702,-5.530288525952978,-3.257037541057991,-5.540346323269018
70,0.6467389581515471,-1.6752186205525026,-2.4685005324487626,-1.6465412211611425,-0.530523468498646,34.83338216782954,-4.508141992389736,-6.248410353613235,-1.9867626492608823,-4.239987019409492,-5.607612468955062,-8.022199121262215,-5.580617484439903,-8.543500710470461
71,-1.1311658434301433,-4.106636580132592,-3.0669675921935196,-3.0814564714544903,-2.022189502638036,36.13659414158433,-6.0980457348593005,-7.600698767826197,-2.0708836490079325,-7.746916670729596,-7.003384873975203,-9.60934316045503,-7.291937871827517,-10.676342815243578
72,-2.7151932010988804,-6.1712599782250335,-3.3876591674369396,-4.239802590315432,-3.302920426980547,34.890716324722824,-7.057779635848344,-8.198195232395047,-1.9138816199311999,-10.241163357877006,-7.663101404647546,-10.186229973734546,-8.261213882412687,-11.778185327925167
73,-3.995224603972962,-7.727899623471793,-3.432217202096899,-5.071050290712264,-4.272958073302961,30.97204993703283,-7.2828953119720445,-7.992930279519685,-1.5278304795176185,-11.492665016593135,-7.521071861037995,-9.75651173824822,-8.438952898105677,-11.79379363520015
74,-4.891016963378542,-8.676211156276189,-3.221809293102084,-5.545216906337746,-4.860721856584859,24.5602356956337,-6.753176589936983,-7.019970483412968,-0.9541966746272716,-11.427286795894354,-6.606351867574073,-8.42679767502947,-7.85716933972823,-10.774904224916519
75,-5.357030260605184,-8.963450762823019,-2.7931355408461864,-5.652942302034074,-5.029765506286103,16.141868635311393,-5.533666545770029,-5.391246594744046,-0.2585128742832224,-10.128579038858433,-5.0368439992912375,-6.389765997550053,-6.621777796162981,-8.870894088554317
76,-5.384803224532609,-8.58805010229178,-2.194563056805042,-5.405572848411845,-4.782604898543001,6.46918816560561,-3.7656276777567435,-3.281820497497213,0.4780899244049082,-7.820100536255633,-3.0028405716130577,-3.8992462805339474,-4.8975885915010275,-6.310202390347472
77,-5.002901785056124,-7.599817729456067,-1.4828354629287885,-4.835277944055972,-4.160940949234665,-3.5240672904991635,-1.6488944185655423,-0.9105036082632589,1.1693078962912884,-4.8314955315970405,-0.7425571378349147,-1.2406416929945883,-2.8880784243548927,-3.374947844006915
78,-4.274441619232474,-6.096644537424532,-0.7204149258244046,-3.994879929561811,-3.2420875117863073,-12.84069339484148,0.5819994824599246,1.4828846636589794,1.73461512947185,-1.5534391936032963,1.4869617868119391,1.2997452394088307,-0.8125139026696688,-0.37165891060603473
79,-3.2921468003528878,-4.217671475292782,0.026853846551121968,-2.9567994404524085,-2.131740216192159,-20.55689062750848,2.684938597399727,3.6612370067211017,2.1092661253563234,1.6123005054186448,3.4398567142630476,3.463203042947443,1.116954809842747,2.398874249385621
80,-2.1709140583023263,-2.1330106813334715,0.6923159926779534,-1.8103892756487203,-0.9535764711929748,-25.958593681921897,4.437375436970888,5.4126257943862495,2.252045335602003,4.301209530594673,4.908851189858415,5.0422934589006365,2.7158995238194845,4.669854468124332
81,-1.0379654292094724,-0.030332014863911797,1.2119213580884316,-0.6570149428404471,0.16346072967654648,-28.6561559037652,5.6604294373703565,6.569613952692648,2.1498080660715693,6.226956418600116,5.747085315038777,5.897968312283324,3.8441092157175425,6.2325329007948245
82,-0.0209230953582171,1.9010513519910233,1.5288998216730911,0.39743912518366364,1.0990067191606252,-28.657666595359206,6.237312089392391,7.023933289868123,1.8183289660670185,7.210437687631696,5.88230399742949,5.969268266884591,4.416802785050718,6.9543347397882815
83,0.765484959202558,3.4875650004185017,1.5997190514185629,1.2524402705923112,1.7548008278298919,-26.385733886964776,6.124186158622948,6.735524117091414,1.2994945087637084,7.194297409822924,5.322318968888305,5.275548297664367,4.4100269590415015,6.7899101329017215
84,1.232946171968857,4.5887735816946185,1.4008331100231557,1.824239607076704,2.0663300399474354,-22.62987920446257,5.352495146472132,5.7354080095533755,0.6553668211534247,6.242272549030923,4.151664222345089,3.9117823214462812,3.86026576683618,5.784500908737326
85,1.3317786720689946,5.113007202920464,0.9352269601022607,2.0574677572165037,2.0111009917899247,-18.435894532977294,4.022827666513796,4.122338769902465,-0.03996070042155686,4.524602891618145,2.5202650817397276,2.0378974722723067,2.8587235617811024,4.069488580547949
86,1.060073629715193,5.029251043685743,0.2374000227949393,1.935092301368173,1.612339479712499,-14.943397498288737,2.291388088358413,2.0536332958362458,-0.7095520867963161,2.2922896249565947,0.6256700000095409,-0.13669403907897199,1.5410500826210864,1.8504248236443417
87,0.46801946889222457,4.373422832479328,-0.6246800332720099,1.484822148555912,0.9374016377178157,-13.19197230406265,0.350993598775771,-0.26899673736647994,-1.2826326713356975,-0.15597563545244245,-1.3090924892314781,-2.3721044180727757,0.07347620163680577,-0.6117229108260773
88,-0.34399474508038147,3.2475613669353036,-1.55191731597767,0.78028688521617,0.09080411706846495,-13.923275300398473,-1.5909138793681898,-2.6174365032783022,-1.702292418605156,-2.509934384433383,-3.059684922339688,-4.419225757523932,-1.3635370425558535,-3.0249210612662747
89,-1.2342262546143234,1.8111604443944294,-2.4214554906810584,-0.06408212981102525,-0.7975433565886182,-17.41005321535044,-3.3345442545720787,-4.757539527613053,-1.9310357530692939,-4.482765893999124,-4.424245040133466,-6.041902017198927,-2.592925333777602,-5.094333992495861
90,-2.035162600119971,0.2648445139161934,-3.0990134661812463,-0.9046554350349054,-1.587686635340995,-23.34228305817078,-4.707796765190342,-6.470267854825327,-1.9536834042436795,-5.84136518818106,-5.244490279467462,-7.0386197395342,-3.4586090268010468,-6.552320961694872
91,-2.5745489732926177,-1.1723279740794492,-3.4552006531790505,-1.5858365474644207,-2.1468404981006493,-30.79525100911078,-5.582028174976212,-7.571923264061947,-1.77752029989112,-6.429158840156257,-5.42214066313478,-7.2622208716264,-3.8416354742911465,-7.1875411212923375
92,-2.6995293223471752,-2.289595638127369,-3.3839337238768037,-1.961036661526368,-2.3664527935878277,-38.29464723617535,-5.882242835139886,-7.931823733537659,-1.42993979185951,-6.179746708186198,-4.929099926663668,-6.636054965637927,-3.673425505586251,-6.870255447254975
93,-2.300775578412264,-2.9120865719505913,-2.820406674043741,-1.9146851309272774,-2.17705034120173,-43.980642249607556,-5.591206029789863,-7.485907564101716,-0.9541112811825065,-5.120696684233758,-3.810408373001967,-5.164983029949409,-2.9447306596953298,-5.570894778656566
94,-1.333092985141504,-2.925642593808825,-1.7557663548396965,-1.3821057124106184,-1.5589912321363908,-45.85801408245809,-4.747744554443143,-6.244973923733674,-0.4033686779320504,-3.36777450917128,-2.179654974796893,-2.9397910234317384,-1.7091155694329518,-3.369296001760344
95,0.17087520151922342,-2.2952859550607565,-0.24580853644422887,-0.36409473402509424,-0.5476682735462282,-42.10474410425304,-3.440101586711243,-4.296596511989588,0.16492546485359788,-1.110701581645989,-0.20726313064941862,-0.13391788825194056,-0.08016901480055796,-0.4527311175193698
96,2.096532997478563,-1.0743238480954387,1.588351709437429,1.066453413497673,0.7676914366673472,-31.39931253694946,-1.7955865220659766,-1.8001764032219727,0.6953301059301616,1.4078274839652551,1.8972179126807074,3.0080303014681644,1.7777868598111046,2.8980605156014203
97,4.254322203581606,0.5978253311508911,3.568641204816176,2.7675636913364383,2.2517716398880676,-13.219303105975388,0.0321153004360082,1.0248789770659485,1.1395040672145442,3.9176783444258123,3.9070492078188943,6.18974424829521,3.665022415097543,6.334277744652386
98,6.397827740332415,2.5095387539219836,5.477136842322229,4.54123683429277,3.736847508430151,11.937472801624608,1.876700099315065,3.917273032567527,1.4601991239627095,6.148898402389772,5.602223610677461,9.08952302456457,5.36654819894458,9.473895687526067
99,8.25138611259793,4.401450593840454,7.080293931438485,6.1554969283320595,5.04108386065615,42.45238282676012,3.5730267654023904,6.597027936983658,1.6338421912338543,7.858871217354208,6.792877935873129,11.391383870232016,6.675179240866299,11.94259001669268
100,9.544087247785622,5.9987211556116495,8.157482878412688,7.3729945094202805,5.989535442239247,75.63614069326154,4.970141802339762,8.791961237070572,1.6516531300917803,8.856533468183828,7.339708752146268,12.81810537619366,7.415081102556122,13.41636703756815
101,10.045914396603667,7.047100741581265,8.530183641246454,7.982605664982891,6.4355100072425735,107.94119952771027,5.942973843195632,10.265072164997802,1.5193804402483104,9.021440843811737,7.169179507010114,13.162761391253438,7.4630912026587675,13.660961520034363
102,9.601165927777407,7.348019474891628,8.087840677326518,7.829792801061894,6.279764325463463,135.32529827657552,6.402217399441496,10.84010864513084,1.255830496116278,8.315896436830117,6.281826564126055,12.315084484746311,6.765165090014569,12.563100937370526
103,8.154373884030182,6.787833402655932,6.806607138142454,6.841400338351172,5.485095024494805,153.7317454751506,6.301908535660607,10.422472253080358,0.8904234510608378,6.788947633160328,4.752689187963128,10.279226831215848,5.345710410278089,10.149414275415706
104,5.764712232643794,5.356964161243562,4.758003715354755,5.041102151410981,4.084286487564826,159.6312846973507,5.644120156850505,9.012831916651786,0.4600413295307617,4.571793541284164,2.723735062596351,7.180193691079242,3.308317820257142,6.59004859008043
105,2.6062982192665647,3.1559278552468673,2.10579211933746,2.552853616834568,2.180074295902329,150.55561402539186,4.4801584710644775,6.711389882851068,0.005450282702241387,1.8649748645987407,0.3890443674282398,3.257367120192171,0.8273980513215111,2.185815629672657
106,-1.046349587910183,0.3869940795786588,-0.909059129806015,-0.40871277199181427,-0.06328712060263032,125.54662982079115,2.9077143485822248,3.7116525402485854,-0.43241443929673473,-1.0814399411066644,-2.0256475314576243,-1.1550036545508944,-1.8686413802788198,-2.660292250949286
107,-4.846388965723933,-2.6678019975654834,-3.993788824059255,-3.560198629325636,-2.4362102590632526,85.44998106784325,1.0636715329080448,0.28372048511197173,-0.8160130354437589,-3.99270741896506,-4.286776773398568,-5.658873739148382,-4.520955817142122,-7.484374249481403
108,-8.413037083183724,-5.679648137417382,-6.836633564215905,-6.581145540981432,-4.706037320591347,32.99687983080964,-0.8872972779866786,-3.2516095294981757,-1.1143381072557652,-6.596777239533297,-6.177470699009407,-9.832046526520202,-6.867936441032169,-11.811130014438719
109,-11.375518453335735,-8.312722182674527,-9.142909253790336,-9.15157934302306,-6.642839682531806,-27.35695834813864,-2.767657116700219,-6.5554132505308065,-1.3053739258536299,-8.65136134418015,-7.520011175274617,-13.272171855037048,-8.673794184421386,-15.205884108609208
110,-13.41696836272911,-10.265523150136127,-10.669768515170576,-10.990532594985767,-8.045651762421247,-89.83469522671614,-4.404180227375479,-9.30636847469321,-1.3776772526210666,-9.967903532321921,-8.193757267350298,-15.64012138851274,-9.754672664015908,-17.322944305114525
111,-14.312586801977533,-11.308288521322087,-11.255119821263323,-11.890460604367664,-8.765870447446515,-147.94918434389706,-5.645577933511494,-11.23553912624522,-1.3309516819910463,-10.429964851079044,-8.146601585097205,-16.697603715195907,-9.999155356878504,-17.944436890726262
112,-13.95703616395698,-11.311528592212275,-10.836919450771788,-11.742962227662598,-8.724823400728797,-195.2541712979307,-6.378525469082771,-12.15602585418063,-1.1755787922021304,-10.00412420579961,-7.3988097060538,-16.334378044722907,-9.380680526821175,-17.004847939045693
113,-12.377475898254469,-10.26192013098202,-9.460307228790466,-10.552368887778503,-7.923203337059103,-226.1437865343244,-6.540022691566957,-11.983778728809192,-0.9311695774037946,-8.74228677867648,-6.038987816716593,-14.581552601314678,-7.960351252040377,-14.598221966601603
114,-9.730535473787368,-8.263541705287166,-7.271681961622489,-8.435410295197169,-6.441098244861963,-236.59459999331898,-6.124379820968236,-10.746879531512892,-0.6242962697645649,-6.775212574333173,-4.212831651129698,-11.60909188587196,-5.879805495420794,-10.96711283122587
115,-6.283672855060051,-5.524446139155273,-4.500570911139779,-5.607062412596662,-4.428578969567857,-224.7452140416613,-5.183761991255833,-8.582016322995203,-0.2856461479074508,-4.298021948375654,-2.1061185365788,-7.707599926257714,-3.345037359279166,-6.474662282073437
116,-2.3834405479025214,-2.330555574141448,-1.4317821309129894,-2.3545535671160147,-2.088059055716162,-191.22443090956182,-3.822074340022253,-5.718497239517584,0.053103313701899885,-1.5492972063833585,0.07598267494373742,-3.2564320731438263,-0.6031713889805113,-1.5632892023647407
117,1.5851129189511284,0.9894572707411793,1.62840011560053,0.9969231919105287,0.3492668605803798,-139.169204239211,-2.1828846879936097,-2.451752722892174,0.3623613265075888,1.2139165979380588,2.130857585251216,1.3180608692937363,2.0849588611339045,3.294878794187927
118,5.242582378714095,4.103510592941052,4.387492476909865,4.1221942783281555,2.649834510872872,-73.91439420096687,-0.432910234081449,0.8903754634384674,0.6173351385673383,3.742477330997365,3.879161249176302,5.589085123470846,4.473097307273162,7.649730713605123
119,8.257226004272926,6.714463957330135,6.599004007337958,6.732810088325758,4.603577649237618,-2.3824328193087156,1.2568031978692498,3.9843584941914694,0.8001057655505067,5.820013963640959,5.182040604980648,9.175085715779783,6.355337202174024,11.120792160617423
120,10.379664324028768,8.592590837542376,8.087563922854342,8.607830407251983,6.046026115033101,67.75420966376856,2.7296041092099044,6.546190376474208,0.9008785781041458,7.283623729603125,5.953081861789562,11.779058259549004,7.586385984020544,13.435141573802897
121,11.466225553499864,9.598290859672925,8.764139396903607,9.615037079191897,6.874030445774401,129.0283000350889,3.85953898426679,8.360840775603881,0.9183205900392188,8.038219169208809,6.16387850873503,13.216902376590117,8.094100811695919,14.451415289845656
122,11.48858865995545,9.69266475189368,8.629989308109225,9.720384987276857,7.05347392374844,175.11927138554339,4.563329635859141,9.302553183462878,0.8590034228454237,8.063093050845538,5.842914571492185,13.431745688048357,7.8831168079629945,14.167606855822115
123,10.529304786765813,8.935332564077578,7.769607117320789,8.985202755655463,6.618478145685891,201.64600414191045,4.806779819832421,9.343864030020143,0.7360703823666744,7.410185321221572,5.06827686342644,12.493062359374978,7.029559360663479,12.712519883860027
124,8.764655040291167,7.470610767410971,6.334374671149755,7.552320003906259,5.662752204597437,206.69377389962747,4.605161388095522,8.55273145000246,0.5673274584701816,6.194513489316977,3.9554382079539927,10.581401375387717,5.667959331998167,10.322816835772514
125,6.4378554529167005,5.5046241035160355,4.519760450222511,5.623679398539375,4.324708904896217,190.99549066838236,4.017929597594859,7.078700642626552,0.37301252828035375,4.5781450713002485,2.6418885653599133,7.961337609682957,3.9724170337972384,7.309325111887627
126,3.826644321671582,3.2769225413896965,2.539505520324726,3.4329041614561193,2.7686449102596282,157.73980303086677,3.1388045379213896,5.130384896656871,0.17351712795177088,2.749828332645324,1.2706583471234438,4.946612553851739,2.1346623873054478,4.0173895859222215
127,1.2096792425446572,1.0305977021178951,0.6003000104424524,1.2166423452028687,1.1645862683020631,112.03812193235281,2.082745041408307,2.947530082451134,-0.012681730540348584,0.9028565991467951,-0.025249078252213144,1.8621724113607296,0.3418664057664299,0.7864746777008489
