,AF3,F7,F3,FC5,T7,P7,O1,O2,P8,T8,FC6,F4,F8,AF4
0,-0.12446942421329615,-0.8611704287269392,-0.18508575912506792,-0.6612940311494049,-0.5984667460337367,-0.6335857676610884,-0.2787861464867164,-0.266064037537931,0.43322054454048536,-0.0863002077377419,-0.005730881961998623,-0.04734137681226179,-0.13539174957221864,0.5249594119178569
1,-1.4663471348189203,-2.83889225975073,-1.7322342151465517,-1.6635677885830915,-1.443412661547465,-2.2638173243860185,-0.4435303750745954,0.6759558291603036,0.5360487362270429,-0.739151550648734,-0.975973017735707,-2.2759250061736847,-1.7739942247130396,-1.6238779488569433
2,-2.6852532229392185,-4.59767053910654,-3.1114107919003002,-2.5388281219378186,-2.188415577859047,-3.7014416825042686,-0.604193024844375,1.5973929643327773,0.6609429127106972,-1.2839864438123925,-1.8490367505598229,-4.273181381392961,-3.2296203612675494,-3.5516241650029734
3,-3.6935166700685516,-5.989350526974539,-4.197658166733885,-3.2183620183450126,-2.774763434264614,-4.7894980052347425,-0.7678895113642636,2.457332971812957,0.8261715438616576,-1.6470071493021632,-2.549428507167541,-5.835973163416918,-4.349246181329024,-5.037266949567339
4,-4.43279967733773,-6.90664622465458,-4.903690671843662,-3.6563792233492403,-3.1603101046060775,-5.408953667788418,-0.9393443794723109,3.211758641010717,1.0370716859803968,-1.782282292469389,-3.0257074150482954,-6.816178239289686,-5.02474793795512,-5.924490529529323
5,-4.878313476518021,-7.293480478468974,-5.188826979052751,-3.8342198502146685,-3.323377114969447,-5.493034487192035,-1.1192498965836575,3.815062020346228,1.2841114043491226,-1.6781872379078377,-3.2556524893454655,-7.1372054558562015,-5.205622449872376,-6.140037889614097
6,-5.037354037758702,-7.1483500943414775,-5.061149124956883,-3.7605342561580484,-3.2638620210320597,-5.034998954473488,-1.3028959245507525,4.223132310305706,1.5432081498246888,-1.3585459288718502,-3.2467872162675167,-6.800372341434826,-4.9032032351996655,-5.699681359266343
7,-4.942691902184524,-6.520520830721016,-4.57281031529146,-3.4675410968680813,-3.001506165764141,-4.088426889818698,-1.4793655685145852,4.397782610132951,1.7782943202112884,-0.8783492651199901,-3.032359165211543,-5.880596886968921,-4.185977451613186,-4.701351416506648
8,-4.642297297936479,-5.499947605562094,-3.809476307543737,-3.0041226996773736,-2.5717248338345957,-2.7601216771806527,-1.6315990733313972,4.311948508096889,1.9458794527313406,-0.3147577629543974,-2.66363097438371,-4.512475502951112,-3.1669838036206053,-3.306926890997488
9,-4.187550689899012,-4.202737563299706,-2.875770725899654,-2.427030878508019,-2.0197746042590357,-1.1966979487897789,-1.7375496843297236,3.9548435865,2.001138830499541,0.24518352088810744,-2.199939928654308,-2.8692265229348988,-1.9854723438721629,-1.7158690701251318
10,-3.6223510655548563,-2.7545786245974027,-1.8791614993414534,-1.7917624099392202,-1.3942625696504185,0.43329052685113806,-1.772494531743983,3.3361354724320518,1.904860644026618,0.7181852300465524,-1.6983266824904448,-1.1379509794443803,-0.7858429415338811,-0.13502078301591944
11,-2.975334211252442,-1.2747483615710384,-0.9148831711592387,-1.1446732685570675,-0.7410524305706732,1.9593286994050805,-1.7123461898776147,2.488241696392349,1.630421535021377,1.0375668657816415,-1.2045621885466502,0.5049484986439616,0.30278212719091535,1.2506857098260462
12,-2.256779780476499,0.136925612057321,-0.05421649011044123,-0.5176354344426508,-0.09849001706352103,3.228501000228542,-1.5375781475908088,1.4660462399738732,1.169860340011632,1.1633066474698157,-0.7471101000751983,1.9145946891702994,1.1832081025284507,2.3022151943344005
13,-1.4608325086079932,1.4084070628345715,0.6622035147698837,0.07394903280961575,0.5054121246270701,4.122272562433258,-1.2371849526661767,0.3436840305156776,0.5381117635747664,1.0877196672405292,-0.3350001440484035,2.9919319632084966,1.8006215271091277,2.9417541493189443
14,-0.5725706386823403,2.498232683883394,1.225287855232318,0.6295837179593207,1.0535663073803978,4.568573572698314,-0.8120017056884212,-0.7915198713315925,-0.22542982284701227,0.8358947742139958,0.040144101450658366,3.689946756629406,2.145538350436775,3.15755996506628
15,0.4215637720777393,3.3928577482276197,1.6528448054911853,1.1590127403889752,1.5383098488399012,4.5479244378850625,-0.27674531787402895,-1.8474093087224546,-1.0586042180130342,0.4608577323411933,0.3984509487142514,4.011680292402147,2.2492342789612185,2.9982947316265025
16,1.522203715419014,4.099605741434025,1.980555071967535,1.6754555852563788,1.9582984737929419,4.093113301711972,0.3396873892096521,-2.7367030876064042,-1.8816460556430394,0.03427058385369865,0.7637210025271239,4.001241751638008,2.1729045988637052,2.5585069143187167
17,2.7069246544350367,4.636954381222627,2.2504444813792452,2.188111707032114,2.3145305338611406,3.2827337308585416,0.9958593731746619,-3.3868152880564577,-2.6055302563294798,-0.3658070464711764,1.1545792287338115,3.730070856173936,1.9928056999997112,1.9582770512674892
18,3.923944230125489,5.024249207816211,2.4990866799353837,2.6954337207638135,2.6063584796235575,2.2296156581063835,1.6412583169805606,-3.74844474413487,-3.1426773121211884,-0.6680920205590131,1.5766725846346135,3.281279046193629,1.7842124439971367,1.3208318893451718
19,5.091436584563755,5.272912660585532,2.7477334304241503,3.180539489516823,2.8283168628253663,1.0657550233906696,2.2211917432960377,-3.801670987884204,-3.418694272510325,-0.8200241147883324,2.0175534273793514,2.7349449175747016,1.6070919541209778,0.7520397328216716
20,6.103256058797875,5.38083074110453,2.99615500865529,3.6097711159231785,2.9684323595592232,-0.0742947048239107,2.6825049086852486,-3.558574052950599,-3.383482879651203,-0.7965102102108192,2.445408781057469,2.1567741987205893,1.4959458250716322,0.325128415460815
21,6.840681221543814,5.3309328589412655,3.2212566574036923,3.9348738632667297,3.0084097399736076,-1.069497390240399,2.97939801260722,-3.0618484655103555,-3.019953965144039,-0.6040080936597931,2.812087648613986,1.5916696661068268,1.455402625740432,0.07283404462904224
22,7.188625862574279,5.094162960767587,3.3806518561481678,4.098649587137294,2.925753679740539,-1.825948178905642,3.078608593547014,-2.3794494913438373,-2.3488012366647557,-0.27926021606801316,3.0600669449344178,1.0626749193766882,1.4620212047644348,-0.012286663021361227
23,7.053838072777973,4.63622303112872,3.4204814355624937,4.0433394956094295,2.6975448969736484,-2.286470167626643,2.9633145145063695,-1.595904786269021,-1.4282999281245146,0.11711683747058287,3.1322310903844333,0.5746745677969028,1.4716082354193658,0.029818198412590244
24,6.382096935278697,3.9267940242169384,3.286026662018195,3.7205065588970587,2.3052948993565523,-2.4351824215514664,2.6352847383258666,-0.8014458630599435,-0.34883332400566325,0.5111131288487253,2.982766618585925,0.1213583862215509,1.4303769695371564,0.1396270422862908
25,5.171414830320252,2.9495080980507145,2.9331956461252506,3.100892882159152,1.7401010163330892,-2.2966764454300495,2.115031808397899,-0.08046849998894183,0.7773126216351869,0.8281125629908098,2.587201334304028,-0.30655551551054827,1.2876499336064149,0.2532874638002166
26,3.478767045981515,1.7108160036743238,2.3388333775290944,2.1826643043761287,1.0072409055884513,-1.9301105318632574,1.4399695371862984,0.4990455147467293,1.8295635178019918,1.0058312816008432,1.949700549994075,-0.7139149988114951,1.007632900814301,0.3169850663074796
27,1.418819563373977,0.24607262258640267,1.508026524951704,0.9966324220207802,0.12939382464639684,-1.4191482466935923,0.660819636322815,0.8936453741190784,2.694177766427569,1.005228800179667,1.1061595764289491,-1.0962633677737739,0.5780718273915076,0.2976322460476955
28,-0.8456389998093935,-1.3783861068025804,0.47710028665503346,-0.3925610726095883,-0.8521540348614535,-0.8591583017442042,-0.1632874634848018,1.0889337566777546,3.2787069016215593,0.8175638331501901,0.12232896032890991,-1.438527414810222,0.014276285756054536,0.18797451704579843
29,-3.120532941468203,-3.0677593125065563,-0.6882574306495338,-1.8897580209036586,-1.8786976232932284,-0.34340361182337154,-0.9704335490839701,1.0998999133239555,3.5237165335229,0.46642537847601284,-0.9129467553597014,-1.7174153820076645,-0.6420888972955738,0.005452405757661378
30,-5.20238314985408,-4.705748584456362,-1.8994881444614051,-3.3769226196161823,-2.877750874282383,0.049957297730523556,-1.701610528040966,0.9670887794056403,3.4101080796530163,0.004413366928725121,-1.898455653781036,-1.9068112346896875,-1.3290582159228348,-0.21451631199072063
31,-6.902161482180988,-6.165142747721915,-3.055251784655017,-4.724314656185228,-3.7688581789068243,0.2683653178092336,-2.3058718688073903,0.7492367373126585,2.961049087168236,-0.49497688278169283,-2.733700319463716,-1.9847658028592616,-1.9740123875285611,-0.4290210488027453
32,-8.06766290706391,-7.320635476703981,-4.053515966122831,-5.8038933795416305,-4.4710034740606766,0.2915064069821306,-2.7444103962959043,0.513506979730724,2.2383213075887887,-0.9489390866824025,-3.3323047233097,-1.9403072492772588,-2.505059281243205,-0.5993509878380686
33,-8.601123055426386,-8.062164650351738,-4.803753285362165,-6.503314940103701,-4.910813547356067,0.13327827936385164,-2.993190648568386,0.32478879305569375,1.333699705637288,-1.2785353885693342,-3.6336374584895488,-1.7782941658066949,-2.8620467717834264,-0.7011365428859567
34,-8.469531177491515,-8.307008594962587,-5.237390322556955,-6.738782438280789,-5.030628947569092,-0.1611319851992415,-3.0439569484178466,0.23563989189161388,0.35665608298769647,-1.4213630827324149,-3.610825285772695,-1.520922978575224,-3.005258732389719,-0.730564920959783
35,-7.706245755944305,-8.009098198106116,-5.315014039837504,-6.46514887833702,-4.79551322241765,-0.5226258616858579,-2.9036426838714533,0.2783304038013326,-0.5798596204009594,-1.3417183167153874,-3.2739325598661315,-1.2052163784813295,-2.9203632221887066,-0.7051940612999211
36,-6.403919935659274,-7.16445881768993,-5.029461282353825,-5.682035455983896,-4.198383786614899,-0.8690017817619601,-2.592393839536575,0.46010755567132616,-1.3736202284322108,-1.0367084805065776,-2.6678972245450674,-0.8767273480161836,-2.618958316929425,-0.6591216106817966
37,-4.700138461757286,-5.812290977641531,-4.404671873111746,-4.435248758964409,-3.262650364299407,-1.1176991395085605,-2.140566640701262,0.762295516720306,-1.9454526156802439,-0.537442353492974,-1.8656900381051271,-0.5806046446870982,-2.1349336123810154,-0.6335674729025825
38,-2.7583021910014636,-4.03182023141197,-3.490922125857543,-2.8133747073636814,-2.0420056143628056,-1.1986987328838772,-1.5851506626530496,1.143257897450195,-2.2481753396113153,0.09478928322110852,-0.957934723426618,-0.3518760254165954,-1.5176537975121398,-0.6650130417829712
39,-0.7469609572393955,-1.9355828611197277,-2.3576241283215857,-0.940003234176115,-0.6172957195591599,-1.065752735829093,-0.9660983381292186,1.5446774296668384,-2.2711207706061067,0.7766781134497649,-0.040749813310953904,-0.207142335906145,-0.8235168950780845,-0.7736666406323286
40,1.1791301500812106,0.33982220762015236,-1.0851644293096925,1.0374831516099576,0.9093184916229977,-0.7043281078557098,-0.3230075906006091,1.9001409437646994,-2.0398150447586456,1.414144267902174,0.7962438484208404,-0.13973771944284433,-0.10763968455457872,-0.9550510064833406
41,2.8934757892871525,2.6443391525623525,0.24278416421458113,2.961295328810356,2.422437039399615,-0.13509666366004774,0.3074900066549276,2.144728166859846,-1.6109989547211732,1.9150341854710495,1.4799827749140348,-0.11979870696294219,0.5827512358793957,-1.1769204029574964
42,4.306069022379603,4.82530792782024,1.5453826702042885,4.677381617358423,3.8030367095347137,0.5875704244125141,0.893426310358892,2.224224715686884,-1.063735250461882,2.2015347339893068,1.9607987597018837,-0.09970702447400812,1.2121367546936694,-1.3826288887113753
43,5.364894556968642,6.737677140572339,2.748624438358454,6.048927982212342,4.938765387130898,1.3819414810916373,1.4082438536818094,2.1027095619702454,-0.48781336259578323,2.220701809228388,2.2154064741896375,-0.024222284343216847,1.7573347357371936,-1.5007111821785932
44,6.051506078841809,8.252995527733098,3.7872690122586663,6.967972667200848,5.733962863771512,2.1492576802589585,1.8307398705883173,1.767569301544037,0.029014331935887493,1.9518255789404197,2.2461110160506585,0.15646301137577007,2.2052799275284496,-1.4590841766815412
45,6.3725380781483505,9.266904528502236,4.6053049959154055,7.364163107915703,6.118456485038855,2.7866713855861023,2.144511677587571,1.2314057470063609,0.41328919065875996,1.409804186440644,2.0769105264758134,0.4733017174744653,2.5489184681473054,-1.2012078709998095
46,6.349643866226579,9.705085348575338,5.155873719232042,7.2100184155900635,6.054275212152918,3.2010476784864808,2.337304512147155,0.530756752907073,0.6159823255347044,0.6442036291640693,1.747579196636982,0.9274669682540863,2.782569220151343,-0.7009800277978805
47,6.0104369724908855,9.527724327179932,5.401644895093564,6.522417990096805,5.539607938069405,3.321772992914825,2.4006650018216744,-0.27802880356454934,0.619158982522919,-0.2658201882095187,1.3069749545881884,1.4845175905905934,2.8981730268671186,0.026796419933317373
48,5.382549703994806,8.732541639695842,5.316403063678056,5.360377637198565,4.60958399377947,3.110846891494052,2.3301985320457472,-1.1250893289334802,0.43825778510000296,-1.2201192321434455,0.806720519886652,2.075420875034417,2.8835894613399287,0.9228372070519973
49,4.492020284047633,7.3563115588712655,4.888137189993955,3.8194704563455586,3.333753363489158,2.5688926593099066,2.126533115229902,-1.9346424106415625,0.11963591515490309,-2.108698537022192,0.2961061510219452,2.604954701662067,2.7235725118274248,1.8879489155017868
50,3.3660744892936707,5.474646167846826,4.123336636189532,2.023483598063458,1.810463924312199,1.7362649398618182,1.7968475015447996,-2.6329203413305255,-0.26634472850455204,-2.82418839207258,-0.1813554809536915,2.966576211182103,2.4033822042915816,2.7955138868959675
51,2.039219362345379,3.1996871740415576,3.0516225862860042,0.11406758643428919,0.1586393008151995,0.6890876160575983,1.3565833862089565,-3.155558219539638,-0.6358121069323394,-3.2742939125901804,-0.5897272008569412,3.0614890305955527,1.9143146246242368,3.5101507672578034
52,0.560654458456931,0.6753144353994043,1.7294213616950809,-1.7607660445007638,-1.4922836523404068,-0.4692693137748684,0.8307881946848427,-3.4537068067392314,-0.9040789742961571,-3.3928702691781694,-0.9011641902041774,2.8186291911832693,1.259900591172164,3.909577973011935
53,-0.9994758319194921,-1.9304233310334906,0.24122600047226828,-3.4584058185328708,-3.013326553608202,-1.6201681358977824,0.2544728612168926,-3.4983704340771324,-0.9988252139656337,-3.1483979036892795,-1.0957340213782336,2.211835025637476,0.4612472427488956,3.905966046229183
54,-2.5474034018140674,-4.43570648557022,-1.3028378649006478,-4.852785714663024,-4.286848507277082,-2.6435975433469188,-0.3285529327521352,-3.282715408673443,-0.8719378494941725,-2.5488755663977294,-1.1611607254777423,1.2706919074586434,-0.43995731690507933,3.462968116635007
55,-3.9684286266957076,-6.65784677558399,-2.7739172550278335,-5.844105521094776,-5.216361848691974,-3.4322241293615647,-0.8686809226959038,-2.8223133173351416,-0.508297714894532,-1.6424875308478621,-1.0929680724772068,0.08245116012389282,-1.3818848865080506,2.6052105361054028
56,-5.1357097040187085,-8.427911139144957,-4.0357977554429025,-6.36641705812428,-5.734434395133799,-3.9038555638059624,-1.3153049220665398,-2.1534525987022444,0.0698484566666206,-0.5138091480691707,-0.8952106997426305,-1.2161162507555157,-2.2869296153259158,1.4182280834656118
57,-5.9245511678821705,-9.605824495417064,-4.959792313638747,-6.392498567485964,-5.808018493609725,-4.01080316913512,-1.6229765883759464,-1.329771654682876,0.8037367888063008,0.7242297172070997,-0.5816354728605794,-2.4563037220023367,-3.0696985899284694,0.03843652815603163
58,-6.230285765030255,-10.094353569638113,-5.441335821688578,-5.935608231473494,-5.440787013897214,-3.745051719888095,-1.7580861784057566,-0.417552671262344,1.6042554134361773,1.9419261811724842,-0.17680999441851067,-3.4621104978591153,-3.6475883213626186,-1.365541273316759
59,-5.9868284595388275,-9.850222119949823,-5.415834436377658,-5.047920868192771,-4.6723227873060225,-3.1386917638507765,-1.7049703576668935,0.5099207076327554,2.3627659062995936,3.006779216056393,0.28342291329095276,-4.078149979138184,-3.952329207029878,-2.6173567112152916
60,-5.182480114596074,-8.890724374884512,-4.8710858533088945,-3.815705802335313,-3.57427693220654,-2.259666016548458,-1.470267767805784,1.3784957749865134,2.9652034128754035,3.7983432882782218,0.7528093722928866,-4.196236631853015,-3.9405904035911004,-3.559335456323671
61,-3.8696926208255826,-7.294600133382352,-3.853834882408699,-2.351581711207332,-2.243861555179823,-1.20344635744475,-1.0844843327681137,2.1193102831904858,3.307566440827894,4.222245553447901,1.1773385634850095,-3.7760410261721384,-3.6017887879330805,-4.076511081721523
62,-2.16627543067907,-5.196568950752145,-2.4687451381911427,-0.784458979081977,-0.7952565878626257,-0.08172660446148906,-0.6000916700750396,2.674527191869547,3.310677660480275,4.221664292099052,1.4998439835709492,-2.8559815788656926,-2.9616291692063,-4.114327602078836
63,-0.246804767557081,-2.7757033921416467,-0.8691496563398194,0.7519800178838343,0.6503241615102892,0.9904575239705196,-0.08601781690066512,3.002227168889173,2.9321907318730744,3.784809996267824,1.666316407848453,-1.5519884648915785,-2.0805512511059745,-3.687028457799761
64,1.675422066660918,-0.23863624261330244,0.7597823669649649,2.131237765252223,1.97505709764839,1.9076179158571482,0.38098751330725905,3.0800918798836596,2.1742088215340374,2.9474032139462802,1.6332955751330487,-0.043698396298008174,-1.0470617695779125,-2.8752338650834735
65,3.3739277671205894,2.2006772711088796,2.223568787660044,3.2452853420242658,3.074534319470737,2.585190308400594,0.7270357084626906,2.907572494203682,1.0854898521984633,1.7897440587716291,1.375375122859266,1.450292075511283,0.03324162458892019,-1.812957837129085
66,4.638749322701241,4.342390296178507,3.3437042904887404,4.014081469350743,3.866533701223813,2.968103583959258,0.8923019749582791,2.5063095704814975,-0.242066487773595,0.42862814128621346,0.8916455533567326,2.7046128683240167,1.0514227464422397,-0.6660523556498905
67,5.306033492927524,6.020881146575801,3.982168372901884,4.392364331089171,4.297776271442007,3.0356320881240437,0.8410046336677305,1.9186577738179265,-1.6822365776079575,-0.9950129005106241,0.2098574817508205,3.521882246492241,1.9096963492794323,0.3944906473666187
68,5.28301709422836,7.12111815586785,4.061504032467578,4.372991000444255,4.348075376284659,2.8021012006292603,0.5684852382748924,1.2042827496318231,-3.0875588588337264,-2.3313608110129627,-0.612756647229018,3.7645736241629484,2.534420165605509,1.2200422469029986
69,4.564333107961761,7.589237636554939,3.577292616254833,3.986432997043805,4.03149863534237,2.313526364974794,0.10406438643175901,0.4349495058912262,-4.305186162921662,-3.4381270860493514,-1.4927002847618278,3.378791632392358,2.8855245312720292,1.7081059305479533
70,3.236719786457481,7.435999123679233,2.6008506093397408,3.296440444012864,3.394421990778415,1.64074319673412,-0.4910621668043602,-0.31218713143642857,-5.193728955882559,-4.196275642535645,-2.3276239875076015,2.405897079350366,2.96083976971806,1.818376024392164
71,1.4708625820753205,6.732689682566897,1.2713628827744452,2.392319055315958,2.5106353852142673,0.869980017349022,-1.1308763687434253,-0.9622665733022778,-5.639241835481864,-4.523265222193225,-3.0074334685918687,0.979745254076308,2.7945834854636975,1.5783543314712918
72,-0.49898731392487106,5.600037434947621,-0.22176950832696907,1.3786679852178203,1.4739369120092687,0.09209527421191926,-1.7157405013736782,-1.450657674500024,-5.568625905121061,-4.382304809935657,-3.427946756462426,-0.6904732267909011,2.4502150984609568,1.0775216428240224
73,-2.4051025827721504,4.191618605921269,-1.6641002748175413,0.3637424363036973,0.38889868691664126,-0.6081766072279678,-2.1462509272017556,-1.7302779904258159,-4.959008177008757,-3.7865729964959955,-3.5054160884055867,-2.349531311309654,2.008792678476986,0.4509730194272581
74,-3.9820337022517456,2.673967164873753,-2.845387590181405,-0.5522182085158439,-0.6393247484186924,-1.1616701859707113,-2.3377589051154897,-1.777383815083451,-3.842077753123204,-2.7979345860974965,-3.1899077356978247,-3.73339736209264,1.554719565975379,-0.14480520719212628
75,-5.003042055698143,1.2060185403524233,-3.5888127285219857,-1.2873478213179845,-1.5151671626054637,-1.521825189922882,-2.233393509035661,-1.5949975228187223,-2.302858517626824,-1.520319651962852,-2.4754932198648834,-4.608875574010548,1.161217869083198,-0.560010104536298
76,-5.312021615370786,-0.07941860824516744,-3.775996787207344,-1.7860112404722264,-2.161804677815745,-1.6685459781319063,-1.8135813533024288,-1.2133520588443152,-0.47292959540321416,-0.08852788546574637,-1.4054759318575227,-4.809656607748573,0.8779365155578414,-0.6787724313559955
77,-4.846283777620876,-1.0897736927048682,-3.364202409644605,-2.0232917862790005,-2.528372242912404,-1.6085343414695525,-1.1005369644775818,-0.6870639888905501,1.481371936361845,1.3462876692073455,-0.07144062106327098,-4.2632312918455275,0.7227782821502917,-0.4410062373595663
78,-3.6468369807454186,-1.7806524239813333,-2.3932025726002846,-2.0056655432161214,-2.594489555709646,-1.3722003817817152,-0.15692582490201423,-0.08915949324847997,3.374744697443394,2.632865489359818,1.3942926167744727,-3.0044359361967694,0.6793599818847803,0.14486588144966617
79,-1.85455868786888,-2.1567235305147077,-0.9807708347760654,-1.767906096255761,-2.3716002175472717,-1.007697581864745,0.9212297659904212,0.4974830280631822,5.0212675524443195,3.636055447849382,2.832306213874633,-1.1733820143945866,0.7006058290648831,1.0005706938226198
80,0.3073318167438658,-2.2656800743230723,0.6926208685777436,-1.3667451488516675,-1.9009566237859514,-0.5730047413478292,2.016458440409363,0.9903107178807418,6.253523372446345,4.251281383578756,4.074393298871467,1.002128255105094,0.7179619373050093,1.9884466508398169
81,2.562138449903685,-2.1863908812864725,2.407763515462492,-0.8722242451615505,-1.2484507915971315,-0.12723680302453455,3.0048792411075445,1.317638723747261,6.940544602125621,4.415710565764405,4.964340957727315,3.2372501493315493,0.6547749012668045,2.932217567582659
82,4.615925181949193,-2.013184745001674,3.935966644089787,-0.35795227552871095,-0.49685395987098996,0.2775363555944454,3.7722094140423708,1.4281715921705047,7.0026186197564835,4.114941895370689,5.378489077895227,5.229375745943801,0.44165434615690496,3.644899923128078
83,6.196135644628297,-1.8387463745256296,5.069511798135034,0.10840744487957518,0.26366199343213353,0.6027741153222841,4.228432573324129,1.2981838119388847,6.421195339964493,3.3844859139465235,5.243222055893233,6.700305676883435,0.03125867760948986,3.9594809625574823
84,7.087309360571247,-1.7382620185235715,5.6490827339014995,0.4731734886560812,0.9456343021534407,0.827335144717523,4.319035741546422,0.9353044097191672,5.2425605182896104,2.3058421406033305,4.546814805808745,7.435151778865765,-0.5900254097455963,3.757510651594276
85,7.159073408337087,-1.7572068172835087,5.584447661959207,0.7022101184932288,1.4738791897585266,0.948234283256865,4.031264759510975,0.37828395584223123,3.5745577186027053,0.9975418540601109,3.343716717006671,7.312335629387465,-1.3955888121220932,2.9910297538183306
86,6.382736156380785,-1.904553185350651,4.865699742784546,0.7834105277762784,1.7934144374101895,0.9782920454025881,3.3946231975060503,-0.3073333971799062,1.576411530983678,-0.3979258209435583,1.750345302057156,6.320434374592168,-2.3185637740359546,1.6942687468600761
87,4.834456866696913,-2.1522986480643476,3.563756457804494,0.7259569294606995,1.87483621232214,0.9411970101688993,2.4757222454944317,-1.0371340273337992,-0.5574587379875837,-1.7299024810977375,-0.06735843469246061,4.55963902130735,-3.258483847729419,-0.016863150753049127
88,2.6848537164470483,-2.4412068714615858,1.8203530101954273,0.5566863210566658,1.7165816004727956,0.8649397628404898,1.3684333442932914,-1.7183377698679478,-2.617956110678902,-2.8563065022844643,-1.9131678160048546,2.2278992115541527,-4.09379248541451,-1.9575845017184326
89,0.1767566067268138,-2.691692361588401,-0.17079534560413376,0.3142956270637511,1.3439123559030715,0.7748593438428777,0.18096517679822888,-2.2614865882260977,-4.403857319313706,-3.6594162953112837,-3.584144557797067,-0.40593913358269945,-4.6984040395398035,-3.8975403869473393
90,-2.4056557997192938,-2.81801312488238,-2.1888507671423723,0.04239700386041532,0.8048717500003214,0.6876141920888126,-0.9781210554439045,-2.5917562267422953,-5.7437616163424465,-4.058842146592621,-4.895430445423414,-3.037888133048368,-4.959872405299993,-5.591215748518913
91,-4.772077234600726,-2.74348368415482,-4.0132373487763005,-0.21745609968394788,0.1638323577617825,0.60723238482122,-2.0128824932625577,-2.6583923927336506,-6.514798524038624,-4.020150386798116,-5.702935784577916,-5.368228989378545,-4.796477471682205,-6.811067794795766
92,-6.661007763619045,-2.414341354361625,-5.4499067997955875,-0.43171934411894025,-0.5064805045103117,0.5240345928381775,-2.8501425902175086,-2.441058345695942,-6.655804470025072,-3.5581214551669476,-5.920891800112935,-7.139053446772551,-4.1707230733333285,-7.3786566046089055
93,-7.870011845105762,-1.810182109206909,-6.353200666921933,-0.5789565084685077,-1.133464657873676,0.41671764330500266,-3.4455458069017957,-1.95233526397585,-6.1733383366878005,-2.734278560785494,-5.5319613582383775,-8.164943116916662,-3.097298893032538,-7.189436423128282
94,-8.277732152327937,-0.9494585821969712,-6.640806714472262,-0.6515961375046381,-1.652585478795106,0.25732228692273335,-3.784958537046502,-1.2361595474673313,-5.139792540520352,-1.6490269462470935,-4.588646992239549,-8.353014381189718,-1.6443786708835624,-6.227864307331185
95,-7.855321999400356,0.11070697671986496,-6.300361799388867,-0.6552456812248183,-2.013879976424842,0.01828013895536074,-3.8814116549590225,-0.36252074890955943,-3.683847556605434,-0.42939817917558704,-3.2059306745260745,-7.710229960688943,0.0719359750235344,-4.570903414671886
96,-6.666409404459942,1.2803179750283988,-5.387411423346943,-0.6058480860383101,-2.186341755903073,-0.31967253130722256,-3.7684594742704856,0.5808002094843219,-1.9744776488543099,0.786088391432127,-1.5462495987651041,-6.33772911382913,1.8993046055359084,-2.3796170242951766
97,-4.856174686019621,2.4470553088855995,-4.0155361034952115,-0.5252912061801023,-2.1598153901426764,-0.7601486024692826,-3.4913340332865097,1.4983540652910043,-0.2005183646724202,1.8636152542878495,0.20110136718706062,-4.413685370163188,3.66547828825747,0.11986457328390844
98,-2.6314267849942015,3.4901043839261976,-2.3403628857997814,-0.43630240887160043,-1.9443719341709362,-1.2857665454063432,-3.097537006280413,2.297750581309844,1.4516474947045344,2.6893820877503436,1.8433702027639354,-2.1676302324377006,5.197235849740259,2.6633736990895973
99,-0.2345512697423551,4.295364587337201,-0.5398008909582447,-0.35754948717850316,-1.5674676652718884,-1.8560155626383825,-2.62850610043737,2.8997333908889247,2.8195068942609525,3.1822539434049206,3.2074876701262065,0.14988737367421234,6.33962327187667,4.98014984792074
100,2.085226822194052,4.769999448690434,1.2068788245988307,-0.29981174607913713,-1.0694557494274142,-2.4090968057501883,-2.113729593130549,3.2464853009399732,3.7822915870825495,3.302287739477926,4.160004675583612,2.298093790174989,6.97321759498611,6.824664825272058
101,4.099713541703042,4.854409097811468,2.7385620929431616,-0.2638896626548289,-0.4981855878180536,-2.8679094193262937,-1.5682092851306828,3.3072984262400493,4.2731425517763695,3.0541882080810816,4.621392996299692,4.073273829216308,7.02743223424933,8.004872354372623
102,5.6255338925033564,4.530077559260864,3.928223024422485,-0.2406176340626136,0.09653205704943958,-3.149671762566891,-0.9935646137137665,3.081073825800835,4.284155414069824,2.4853593349260823,4.573087919377339,5.329347196708539,6.488395148424796,8.403501422617493
103,6.541328358419818,3.8223105214526445,4.693689423285547,-0.2129803470061157,0.6678898979015842,-3.17801329711938,-0.3824221299187694,2.5954898143387517,3.863843576218731,1.6788693188781794,4.056648611079016,5.989673885389624,5.400590540864671,7.989992321993957
104,6.796813726112488,2.7975569782165683,5.002415245852148,-0.15996763348449056,1.1759426966263005,-2.895850746748542,0.27485583098862626,1.9030597355313401,3.1075620426500308,0.7422600761507931,3.1654562932544352,6.049341671708823,3.862176328923256,6.821918577676008
105,6.413244400327583,1.555711173132871,4.870226465209726,-0.06149347862261768,1.5900517368205977,-2.277069322642932,0.9824870146635443,1.074648334362003,2.142368930046575,-0.2063654987930194,2.030324455820058,5.568497404415065,2.014593459971687,5.036077535472116
106,5.475862289290021,0.2184295122234772,4.354741719640294,0.09649909026723327,1.8898572414014851,-1.3350321387582522,1.7322212231209415,0.19129008467345765,1.1085348433598676,-1.053215157861203,0.8011377848842173,4.6584080679163735,0.027697332441529297,2.8306926283243334
107,4.119818848247589,-1.0850089745883835,3.5447583703537617,0.31769065865607293,2.0649526100492372,-0.12626099487726228,2.498454808466611,-0.6646815365814098,0.1403338456994572,-1.7027595950099321,-0.3729242419950622,3.462740760410084,-1.9178936210074675,0.4411961051362466
108,2.5116969571708285,-2.2324807374380473,2.547272820712259,0.5926500194612783,2.1136123400245608,1.2517592731982623,3.2366977891058926,-1.41814916294744,-0.6512075598176588,-2.089006617318644,-1.3619362585504757,2.136949683149554,-3.649265216236645,-1.887264544494612
109,0.829097744435338,-3.122567115142299,1.4739360894328977,0.8983271738567297,2.04102264490904,2.6688808220161233,3.8860247412972986,-2.0084245679713835,-1.1912795802872782,-2.1826841354853217,-2.070172877005308,0.8286311387648362,-5.01846954672575,-3.9271976813129768
110,-0.759224784904587,-3.6852037221027087,0.42863261247181655,1.2000342027580093,1.8574673685279162,3.976010979557705,4.375446727382972,-2.3944280899541504,-1.4483467106047092,-1.9934546771293267,-2.445653483694614,-0.3387079129007964,-5.916729105347816,-5.492793476489384
111,-2.1104727988105023,-3.8881720291625212,-0.5024506392661173,1.4557528447336887,1.5768374810174395,5.0226920607263565,4.63342678475443,-2.5573971520313434,-1.4345856294443207,-1.5669450033583767,-2.48329144290696,-1.276736259014754,-6.284103604228863,-6.457947014053136
112,-3.1204556879958085,-3.738749208647227,-1.2573622016014507,1.6221955997090993,1.2156824764987182,5.676298549027944,4.599148115831701,-2.5010122442284453,-1.1999964342733782,-0.9770736511787574,-2.221568635146797,-1.937393376057826,-6.113676675338637,-6.766483383664728
113,-3.7307437810261264,-3.2804898270628726,-1.8011628015781935,1.6617149250946666,0.7928375656544064,5.84021847347934,4.233740095562272,-2.2491410880450973,-0.8214098401989988,-0.31480294553114707,-1.7335560385669206,-2.3120613840847732,-5.449959736684545,-6.433827519116807
114,-3.9300198005640294,-2.5857677633573077,-2.1251040366877763,1.5489582207017933,0.32947666010443416,5.468372161609867,3.529547580642033,-1.8416639231510246,-0.38833503329722213,0.3250578643223053,-1.1138617520448222,-2.4256983274144828,-4.38188317043499,-5.540440095591503
115,-3.750041802233005,-1.745267847095182,-2.242835206230093,1.2761413050218964,-0.15070406220263963,4.5738086370862145,2.5157255868540624,-1.3290246067837896,0.012004274430166594,0.8570918697703446,-0.4636032016632659,-2.3274305095642167,-3.031371435063436,-4.218326572539827
116,-3.257244627727331,-0.8559967329578875,-2.1845966876466383,0.8559755292259673,-0.6215373290826741,3.2298731967350585,1.258936755885328,-0.7662339442681224,0.30808418662320075,1.216647542834593,0.12430682252329378,-2.079439463264809,-1.538995320538631,-2.632698020712635
117,-2.541436609030505,-0.009515732796209996,-1.9905139152796245,0.3216203484039432,-1.0550082560156666,1.5634598171343743,-0.14134709979424118,-0.20703305967387847,0.4539607789886701,1.3677323340206102,0.5774315709247906,-1.7460077969968413,-0.04848842664181179,-0.9613239628448158
118,-1.7032460515749586,0.7180385485779843,-1.7040691525826415,-0.27650343746945805,-1.4226626443247945,-0.25900345163977073,-1.5626005605120787,0.30117597072416313,0.4343203439823842,1.306371224925152,0.8519971425887872,-1.3843240659794822,1.3080361085948995,0.6257835999138355
119,-0.8419305753939201,1.2729577362693767,-1.366620310700822,-0.8766900131704942,-1.6978150769747598,-2.0511143644686727,-2.8729032087898303,0.7211812829649623,0.26426460360766285,1.0591029430071712,0.9360789005756713,-1.0381559406353351,2.4225287352482128,1.9839748147129095
120,-0.044915055931332555,1.6273433315667873,-1.0135125745352607,-1.413887988208115,-1.8583454851445027,-3.629032080134474,-3.946685267795856,1.0283298367179574,-0.01573393343018697,0.677056774131844,0.8477094107355262,-0.7348858489394435,3.2198663143352526,3.007028442936266
121,0.6199647322938446,1.778818890064132,-0.6719666811730937,-1.8284242226641032,-1.8896708606018222,-4.833928993434015,-4.6803445406281865,1.2113427010272586,-0.3485371653676123,0.2267290504533586,0.6286331233099953,-0.4857835263071921,3.6624243629831343,3.634592954955285
122,1.1089868427749892,1.747067234987414,-0.3606058194056917,-2.074174047529353,-1.7873515844187047,-5.551253018749202,-5.005456561018122,1.2716845401779548,-0.6710464943188911,-0.2209526272562061,0.33506652309936835,-0.28887774347564277,3.7502208109697643,3.8537130756861893
123,1.4037523133793495,1.5680842112957702,-0.09025808998565728,-2.12490864981982,-1.5587748895336002,-5.724117577849935,-4.897602411250833,1.221738371785663,-0.9250553957805262,-0.601496805800726,0.027189412547029758,-0.133463497730292,3.5170271751331676,3.6948898818795604
124,1.5093786437914039,1.2872471300284147,0.13443653859892427,-1.9778374456877907,-1.22346207030789,-5.358980438847216,-4.379471607833923,1.0821326553880863,-1.0665088778882732,-0.8659678159085016,-0.24084730408289629,-0.005168930247509107,3.0232776185173873,3.2237134557420464
125,1.450277831982693,0.9523111761070193,0.3130912366226123,-1.6538143809544363,-0.8117543156367812,-4.522910574860159,-3.517759552901919,0.8786122964738824,-1.0718028699710966,-0.9870420095118954,-0.42884452579275656,0.10941189887038993,2.346902158158835,2.529508310534959
126,1.2643230622630597,0.6072993368328486,0.4477200464542366,-1.1942082078668774,-0.3619054042923682,-3.3329868145770742,-2.414319189036355,0.6388413180794816,-0.9403188757986607,-0.9612432276551037,-0.5153229329021589,0.2192864783305691,1.5733432462671049,1.7126296385610036
127,0.9963055699999217,0.28798386312464924,0.5412715175757841,-0.6549557079613869,0.08410313202984297,-1.9395142137864083,-1.1928802247096655,0.389479102852073,-0.6930477268739643,-0.8072604323414017,-0.49866497435358775,0.32727979954870334,0.7859763351431391,0.8720418659221535
