,AF3,F7,F3,FC5,T7,P7,O1,O2,P8,T8,FC6,F4,F8,AF4
0,-0.465249147037639,-0.6483682778066795,-0.8273924054082237,-0.4050191367308245,-0.18016412221348357,-0.1695113082322343,-0.10416628269263507,-0.027485077671806038,0.33429292965420954,-0.09656679005042841,0.6650700803223825,-0.43900558232185694,-0.1529171401789354,0.14101747472324203
1,0.12147271157902573,0.13397117882573445,-0.7181074410810727,-0.022707016480750863,0.1938680064089541,0.978372949480253,-0.943651218522594,0.19799589223728614,0.3375482154614769,0.20263103407631058,1.1721549287355724,0.1823471137671246,-0.21741630957044827,-0.7874564672815543
2,0.7867804327077101,0.973027763784599,-0.46039541577300996,0.41487565073725907,0.6134828524284954,2.104268661975403,-1.6351056990531918,0.44104324507015547,0.39774581143128906,0.5347995183309733,1.707878368249272,0.8772462667364493,-0.19418580015940284,-1.5284753383267342
3,1.5324708240485885,1.8643857939419692,0.006811408470356028,0.9226561522656312,1.0897747439542698,3.1591913971355314,-2.062623102569521,0.7009509780080743,0.5589397856261414,0.915701452913938,2.263458841433571,1.66854787665191,-0.01999426189258774,-1.9436011000245346
4,2.3368597554971493,2.78495975740455,0.7047147686575984,1.4968133640998063,1.6160077291909116,4.0897381550889715,-2.1474111506961044,0.9708639992800349,0.845906535102933,1.3525435625675406,2.8194574062517677,2.55261320627155,0.3485997828223752,-1.9428029902770216
5,3.153653067147038,3.690711331722702,1.6074557869874422,2.111949897741257,2.1650753040873183,4.840376638974097,-1.8591964777227163,1.2375404359814954,1.2593815665716783,1.8405097203504615,3.3457260271774065,3.494956154237178,0.9269203897818686,-1.4979563906813338
6,3.915246938221369,4.51835640312714,2.6425938988880104,2.722091106420368,2.690814171279943,5.357163720528104,-1.2210845829940509,1.482023762328719,1.7742188380233244,2.360449163097523,3.80263119725742,4.431264764646031,1.6968721669239508,-0.6478345814362437
7,4.540192403885689,5.191087431376183,3.699352590674091,3.2655054012695315,3.133156146364836,5.592665551961418,-0.3071579768676652,1.6812201597020724,2.340822675744789,2.8782244458238955,4.143609394681727,5.27378372015991,2.6055320842055294,0.5061184685339347
8,4.943917752399538,5.627691026743183,4.643535980264663,3.6727439889654856,3.42646011035775,5.511617558669848,0.7669307432607877,1.8102977363052586,2.889911819105047,3.3461276793554013,4.319038816946881,5.922230908977362,3.568131165604207,1.812700705783012
9,5.051266258615697,5.753869312527727,5.336984783235464,3.876777773493717,3.509809783874783,5.096649205159729,1.8591588843573905,1.8457258043994544,3.3403262877481454,3.706582862131751,4.281300256610597,6.277731624256719,4.4754567847417,3.0908569420757144
10,4.8090505075793715,5.514158598306268,5.65870821903186,3.8237426255247984,3.337682837549926,4.353246495945691,2.820111595528079,1.7686627901588305,3.609201440743445,3.898068782000311,3.9907408007573326,6.2577790489928296,5.205181001527026,4.153956778030122
11,4.196703802053357,4.882639946801781,5.524505572734183,3.482649242748945,2.8892560199677972,3.3130744370583796,3.5131859639128544,1.568297843209065,3.6234502451441633,3.8628412246697286,3.4220517310430174,5.810028373921215,5.636082264187725,4.835239547434641
12,3.2332562113427485,3.8706902582465035,4.9020319505830185,2.8525006674729254,2.1747412419594183,2.0348619759247204,3.8332788236981714,1.2446777645884974,3.331172959008441,3.5556538086088207,2.5703564495905655,4.92283338654058,5.6636443086391655,5.0110405325601475
13,1.979281894588012,2.530341046928714,3.8188628578308705,1.9655862579794032,1.2375427718746521,0.6022749248565495,3.721403587797761,0.8105327207444362,2.7114238681391925,2.9523491987522292,1.4561311792333471,3.63083504375444,5.215169252777101,4.618667982099662
14,0.5331221660704931,0.952372475290436,2.3621010329921903,0.8862469335622658,0.15163614993482186,-0.8814439802059921,3.173226216308228,0.29167198018869633,1.780778419599896,2.057000864440226,0.1280168479972909,2.0145687413186195,4.2624103838579686,3.6664719534073216
15,-0.9784923566693943,-0.7409927644275062,0.6693116107591695,-0.29493884673373716,-0.9856967086876506,-2.301841702411997,2.2403394424299687,-0.2743338556025317,0.5954122910634969,0.9062981641674875,-1.3373210153490027,0.19388815483518193,2.829867398852373,2.2346591631686037
16,-2.4144351642200785,-2.4081229450616504,-1.0881156821791262,-1.4709118716464318,-2.0649044465641313,-3.5439218834154227,1.024092841910029,-0.8412390259306406,-0.7520671957053467,-0.4298842974403584,-2.838845384178281,-1.6841060520129814,0.9973035176836464,0.4666356509264285
17,-3.636041850874259,-3.903316044703102,-2.726901548968623,-2.5305824480816717,-2.9774873129501747,-4.503969657824829,-0.3371777723179524,-1.3587476995305765,-2.1410641502358936,-1.8523264768457974,-4.258432045007755,-3.46112691290412,-1.1042992530385178,-1.44806316084554
18,-4.524546301448605,-5.093460087527223,-4.075984173162283,-3.372286158596633,-3.6297239893199293,-5.1010824847445875,-1.6857742541593896,-1.7781596940194295,-3.4359189452779026,-3.240688318298143,-5.471363390608848,-4.9856305232266935,-3.303316059436266,-3.297045699197627
19,-4.996604043142954,-5.873757714693238,-4.9992930327591285,-3.916367580583185,-3.9548268479118267,-5.286845981752152,-2.8647168480394125,-2.058288360654121,-4.501766826653876,-4.465426951387087,-6.359061044563534,-6.130183872861647,-5.403693702054312,-4.871475713735058
20,-5.015585540145641,-6.180321965358223,-5.413838602125752,-4.115109088189605,-3.9217570378357296,-5.051728670126238,-3.737583810788165,-2.1707875695770866,-5.221237252123881,-5.402097438142,-6.8226239375883075,-6.80589256558356,-7.205120298193494,-5.992122745415526
21,-4.596861474884463,-5.997847141996137,-5.300436436319207,-3.9585880229923496,-3.539412180246475,-4.42714609676088,-4.205494591467987,-2.104060385570325,-5.509671363830721,-5.946273504065311,-6.795449926682048,-6.97191965036595,-8.524859884523446,-6.531606186208535
22,-3.806136478085038,-5.361231924865072,-4.7054706722690725,-3.4756268493723312,-2.8555745025718737,-3.482709674174039,-4.219062714850407,-1.865109349753701,-5.326666443780933,-6.02710947413716,-6.253170939785209,-6.638834140926612,-9.218632455471354,-6.42992185482598
23,-2.7508995384422352,-4.35088407506854,-3.7334423429787837,-2.7297091910900746,-1.9507691962117715,-2.318838005036004,-3.78386707482434,-1.47899452175815,-4.682231431518366,-5.617634003274901,-5.219353598582339,-5.8654250983757406,-9.19792933805348,-5.701276103850308
24,-1.566097077741902,-3.0823402810208083,-2.5314340854332658,-1.8104634790751724,-0.9279156722347504,-1.0555625627978922,-2.9588819755050477,-0.9859340617212263,-3.6365846035501033,-4.740220377177687,-3.7658948677271153,-4.749566971009182,-8.441517683621406,-4.43145548442736
25,-0.3960334135659688,-1.6916525005669285,-1.2678350522640907,-0.8219548818329675,0.1007508164001489,0.1810953065402434,-1.8482407456997911,-0.43644769372709985,-2.2935296740926674,-3.466274554222698,-2.0077182638334627,-3.414578089338682,-6.999568919150902,-2.766256963915837
26,0.6248887780858741,-0.3185953480636252,-0.1085150414259878,0.13052353911275624,1.0276405436431924,1.2734434997112527,-0.587560929196338,0.1147564506893726,-0.7882707472877973,-1.909940877679739,-0.09215617006785609,-1.9931436849325221,-4.9897564776770436,-0.8927041297140349
27,1.3897683958357012,0.9099591731759571,0.8060184930629322,0.9532790319360511,1.7627162611280067,2.1252863753234577,0.6732777542827895,0.6152666393779108,0.7286754881714319,-0.2164379215268748,1.81583257476484,-0.6111764442841264,-2.5856830707410636,0.9842995918099067
28,1.8325660861553739,1.8942210914972308,1.379154782885028,1.5748854267155759,2.24360570640028,2.6722344439359613,1.788619221075937,1.020900453176224,2.1092684688368735,1.4536185587371568,3.550839628032036,0.626090877157855,0.0010252244505277355,2.6667103622715107
29,1.935300127704021,2.571353336647441,1.5698012025710675,1.9532811536563273,2.4416312339754076,2.8878365005061077,2.6344194935404435,1.3002745159280018,3.225029548563962,2.9419852215373106,4.9644372606910325,1.6439340520910872,2.542820173109695,3.986253259117642
30,1.7281221658675299,2.9198647580121895,1.3955994011026547,2.078481158596198,2.3631021654155715,2.784795153439248,3.1224144819906217,1.4374423155293896,3.9811872029115825,4.110435079893824,5.940666280002748,2.4027786526975565,4.819879624885625,4.822678475023772
31,1.2824389930305555,2.9582114830310013,0.9275596877007022,1.9707880572965832,2.0459319554330926,2.41122088242171,3.2094527731803892,1.4323612355207072,4.326138191974273,4.856068232915686,6.407662795063977,2.8974386092220343,6.64250444416622,5.115311465994448
32,0.6983327359583882,2.7381706785301954,0.27724066440332995,1.6750855801710371,1.5523264965306869,1.8425787125389474,2.9010743187223906,1.2993067406263734,4.255206734664283,5.122396810629974,6.3440642970936825,3.151620043837447,7.869688429988593,4.866850674737518
33,0.08839766305508814,2.334309781194037,-0.4213179982485476,1.2523709572816148,0.9588317453927564,1.1705721048465079,2.2491865875984067,1.0636687102272482,3.8085115798288385,4.904880966328685,5.779578274838985,3.209073373389648,8.421835197496504,4.139446643748787
34,-0.4393871580898362,1.8313940308226133,-1.0320089529459717,0.7700382275990209,0.3453447539138524,0.49059805683817365,1.344423222446523,0.757784214564069,3.063550309743776,4.250329243845667,4.789894005390622,3.123204316775454,8.286382479278085,3.044088832430354
35,-0.7970733437119094,1.3117761085114064,-1.4363066664975812,0.2925073150798667,-0.21525992533713453,-0.11045974559071968,0.3043716865007937,0.4165459934808125,2.123771489460317,3.2503690739642646,3.486840712428413,2.947036695883693,7.5160009055032875,1.7250969315575588
36,-0.9281608430271275,0.8446690536422577,-1.54933173116271,-0.1264021493443734,-0.6654524918190509,-0.5644690623407899,-0.7407411629898432,0.07346792419797393,1.1048481079056274,2.0299261412483163,2.005235824902693,2.7251645127827837,6.219933855973564,0.34197021281136813
37,-0.8134928871097854,0.4787525732151027,-1.3302288914407463,-0.4483829792022879,-0.9683150770190873,-0.8290629084422708,-1.663147314855637,-0.24229137124207906,0.12054207688311334,0.7322274729104697,0.48815873756153194,2.488803346908583,4.549817728971964,-0.9490461041223425
38,-0.47109142392749564,0.23889324432205175,-0.785768050649936,-0.6524422679734021,-1.1093159313309424,-0.890718847808418,-2.35172246990901,-0.5077022692278672,-0.7300505804364669,-0.49780190735495866,-0.9275876778063601,2.2543618153476195,2.6818760528438994,-2.0115412891579303
39,0.04957489048020432,0.12699959426778132,0.032813102303762075,-0.733795165939347,-1.0947486030211873,-0.7638129344902747,-2.7238122013288883,-0.706463729982437,-1.3724263050840042,-1.529771632867497,-2.12427089732919,2.025240698078914,0.7976659537906526,-2.7420047640310408
40,0.6775165430964658,0.12632608061785372,1.0386964803226566,-0.7005585903695741,-0.9475135750395333,-0.48614353535522176,-2.7336299069224466,-0.8286854894737087,-1.7628329023397122,-2.2618427169588884,-3.013092671762827,1.7959718507078124,-0.9344363942876973,-3.0783332154388243
41,1.3323843726811695,0.20801206061182015,2.122324021687425,-0.5692725310026038,-0.7012739284304852,-0.11187632772972565,-2.376583370630544,-0.8700456823207667,-1.8902962125734548,-2.6310185063701828,-3.540397682011667,1.557443689753293,-2.3750679112940856,-3.0033828849511917
42,1.9367009252443217,0.3383769609863533,3.166022208905232,-0.36036134362768957,-0.3941542361412584,0.29687766428771917,-1.6893055571509694,-0.8308391697925969,-1.7746965371655974,-2.618687803207805,-3.689977118671752,1.3018804180439325,-3.425530585731234,-2.543754133623896
43,2.4261729266722303,0.48551891850644846,4.0582289985061895,-0.09450057977310933,-0.06306990543702,0.6785948647655076,-0.7455440962963356,-0.7152494756561854,-1.4615250922092868,-2.2509794521599664,-3.481651860759543,1.0264392071148074,-4.034348354548874,-1.7644545122795117
44,2.7565933626230708,0.6240544350614047,4.705465879797437,0.2094740604537438,0.2604881882215146,0.9798747158164361,0.3516088045813542,-0.531022204833174,-1.0142617170949597,-1.594097032881124,-2.9666735663610306,0.7347016419325565,-4.19845595746543,-0.7603952611082713
45,2.9065531458751295,0.7373205436813979,5.040767679447758,0.5349098842933723,0.5527645003152786,1.1611542916655826,1.480389265315951,-0.2895339669193782,-0.5054764944748558,-0.7453688132342942,-2.220729029873583,0.4358673071797722,-3.9593642923814487,0.3541656834093417
46,2.8759758316462354,0.8169390729311011,5.02797618629086,0.866166285072506,0.7981051383724234,1.2001299550412095,2.512956329318884,-0.006083329736196126,-0.00777813958178016,0.17879604398597126,-1.3354598641755628,0.1419973110821963,-3.3951626036064364,1.4570967892634306
47,2.6812274674907934,0.8602039228992325,4.661992022790302,1.186524272603569,0.9877069453322179,1.0927700227243093,3.328756225052199,0.2998829325587974,0.41436882167559497,1.056562403645603,-0.40941524471804613,-0.13590292195709835,-2.609574207417622,2.429729135732498
48,2.3481150021283472,0.8661927739295188,3.965650064742202,1.4759863736482761,1.1173418069031256,0.8521150747397327,3.827398400496898,0.6049306286712092,0.7111335449744423,1.7743544675818124,0.4607446923700067,-0.39191148557559446,-1.7194505685008754,3.167166266481976
49,1.9043815297946936,0.831744087709454,2.9842585450465666,1.7098110499192347,1.1847757552140585,0.5052998974329017,3.939765047661884,0.8824606679222882,0.8515581505106652,2.2390852554306715,1.1881508914984602,-0.6282424263404207,-0.8420737159711614,3.5868869385003466
50,1.373296226080608,0.748438816835945,1.7789881262270946,1.8584779668657179,1.187582202534207,0.0893744128373568,3.636165977122813,1.1043488954362277,0.8252986243057471,2.3877027639783655,1.702292862895162,-0.8564251125300538,-0.08347432574810325,3.6351789194228354
51,0.7696410367186882,0.6014953518935333,0.4202310034732721,1.8894846900691313,1.1218992024653789,-0.3534533664363581,2.9305718762339543,1.2433939715957376,0.6419368988103615,2.1932027642638197,1.9540048019993534,-1.0960819669617858,0.47128794496478876,3.291144908834413
52,0.09888363859756458,0.37108138954577463,-1.0181769334687294,1.7709919316401255,0.9824410425109759,-0.7805686390026131,1.8803139826889288,1.2763855878559611,0.32822340537979705,1.6667003679669572,1.9187770044456822,-1.3712526520522246,0.7652434355149437,2.5681968535636504
53,-0.6403087058463045,0.036044284919552035,-2.4633029906341704,1.4769331656782474,0.7637922303313284,-1.1532108130756142,0.5811020376212032,1.187442533610552,-0.07617178376469137,0.8555984577536797,1.5983951431095742,-1.704715280891812,0.7736997557820533,1.5130988474700091
54,-1.4507150977532846,-0.4204571016159258,-3.8458302887708276,0.9928521386192006,0.4627338963075182,-1.439888563880154,-0.8422665306127934,0.9711454858456824,-0.5237116684234727,-0.16172071939492277,1.0209413270846017,-2.111206445579639,0.5054306157722135,0.20272777221510083
55,-2.3294412840608443,-1.0043873542686828,-5.101282796906497,0.32148819964517555,0.08112282907429061,-1.618725887083945,-2.248621556700759,0.6349229230482234,-0.9641763059122939,-1.2839686014016272,0.23917015720844076,-2.5907682568824937,0.0009966670437967274,-1.261206187138728
56,-3.260507388272783,-1.7046044679885555,-6.170194788283282,-0.5129583920135175,-0.37129971178971877,-1.6786379416256898,-3.495241099535036,0.2001613422410818,-1.3494267891578167,-2.396905861883352,-0.6727631987724657,-3.12358279694845,-0.6715361917736254,-2.7591895635038273
57,-4.208769092627556,-2.488314897289488,-6.997836236691248,-1.4628571908330785,-0.8748235732951251,-1.6193457428163456,-4.453166301449959,-0.29838036913782995,-1.6373834728648036,-3.3842313382430924,-1.6242499046735166,-3.6675439972802226,-1.423116906617271,-4.162353529411703
58,-5.11667276429123,-3.299400118537584,-7.534153458493738,-2.4581858541841326,-1.3989786368755788,-1.4503430496205083,-5.021288586078132,-0.8150662327709499,-1.7950531528176723,-4.138466551532968,-2.514811586174877,-4.159458872694222,-2.1520141278940623,-5.341948552835479
59,-5.904952806967033,-4.060412086022786,-7.7344944968174545,-3.4108863185493106,-1.9034194614327955,-1.1890282774843512,-5.13758334464016,-1.2977179116767272,-1.8006102729987916,-4.570963272739571,-3.242138924020607,-4.520211393369548,-2.753357502159452,-6.1793720738965465
60,-6.477777416071075,-4.67848167911459,-7.561480762656957,-4.22236916321805,-2.340610440316322,-0.8582992798773557,-4.786158218642748,-1.6933983465833298,-1.6446433936152014,-4.62026300566873,-3.7111913014897153,-4.663555591419692,-3.129267591522372,-6.576174021141778
61,-6.732133073693125,-5.054756637946915,-6.98810509765089,-4.793508913544799,-2.66014876052507,-0.483960877390992,-3.999244794283327,-1.9549542384977947,-1.330703633579115,-4.258166310560246,-3.8437234636730833,-4.507551105447684,-3.19883430314818,-6.463361116678705
62,-6.570525824055776,-5.096386253256091,-6.00183872357402,-5.036051747506051,-2.8142905047165474,-0.09229541319303275,-2.8538384264496734,-2.04740966969774,-0.8752435612486098,-3.4930245344867594,-3.5873833237674546,-3.987137936584797,-2.9071373113403935,-5.809238051876094
63,-5.915480312397578,-4.729595473743003,-4.609265232732716,-4.884066859651723,-2.7640302665994265,0.2919129969866389,-1.4633149501078995,-1.9532194644762892,-0.3069427622197562,-2.36994658630911,-2.9233745323279368,-3.066062677553978,-2.2324820119676763,-4.624987437398886
64,-4.723921764365467,-3.9121144963227894,-2.840562655270878,-4.303960278022778,-2.484956905421988,0.6467209125729014,0.03504966782271639,-1.675473882731251,0.33467525478456417,-0.9678200608648307,-1.871645294382319,-1.7463628036131515,-1.1910704469568312,-2.967227692752339
65,-2.999384781236541,-2.6431931709489302,-0.7530470984632722,-3.3016575384639566,-1.9720839790579099,0.9536939917786381,1.4952321063372722,-1.238402040069664,1.001473256301877,0.6067177300657116,-0.49268457955023537,-0.07388658103716647,0.16154422879276817,-0.9369247852665435
66,-0.8001253011028734,-0.9696399449416616,1.5670120611270435,-1.9258435601436095,-1.2429353684733173,1.1979983626559487,2.778523123780631,-0.6849227314467792,1.639875448698519,2.227959435826942,1.114711659805238,1.8611712711905648,1.732648474397695,1.3257140604929625
67,1.7583959523618828,1.013244874699707,4.004991543724315,-0.2665903269298769,-0.3383435444884383,1.3681232261138665,3.7685996542064486,-0.0714742372293057,2.1949554666883575,3.761785910949318,2.819919897790831,3.929084364742481,3.3983232130255887,3.6503752062425607
68,4.50758226033905,3.166378723167366,6.421411786951212,1.5507520026358548,0.6793321201003971,1.4555085512128048,4.38380616565876,0.5391719486336586,2.615215598922631,5.077387191390746,4.470919896229154,5.970423306099822,5.01291115441347,5.84937448768131
69,7.23648816628329,5.317105357815658,8.658533664971209,3.375949381761683,1.7305652027324616,1.4543568202627948,4.585170438630607,1.08604114728994,2.8576399960430767,6.0589616335089165,5.90785769170848,7.809913099260618,6.421352957889928,7.73310555473221
70,9.708669805831992,7.274073383684881,10.549918174654216,5.047582555763615,2.7252921036357534,1.3618453441610074,4.379203270698355,1.5177732767446337,2.8924577132502325,6.616253598000862,6.978461875242382,9.272828508814495,7.473381970233396,9.126895812640994
71,11.683657433026621,8.845353599041628,11.93245758702698,6.4086540813514965,3.5712205642470636,1.1788319838084371,3.815192303189583,1.7989139299665542,2.7069936608540823,6.692871376254739,7.553717712515309,10.202139735745126,8.03827918331177,9.887666536879678
72,12.94096382520704,9.857925494512063,12.660053882372084,7.322458239859938,4.183000111639123,0.9109833760399777,2.977413070978168,1.913726185426236,2.308033687149888,6.271545984001814,7.542087792772285,10.47456725797394,8.01873311167127,9.918675220741207
73,13.30412540972608,10.176446007981408,12.617847363048314,7.687010241194051,4.4912990794211805,0.570084001588383,1.9733480790466382,1.8670006193106978,1.7222757949718475,5.375822698963583,6.900674797999855,10.013887973799866,7.362359416791516,9.180714006832883
74,12.662138995566929,9.719239738436555,11.735711030747613,7.446463654324985,4.450797733877125,0.1751462041209419,0.9195300538466001,1.681852142311107,0.9946571095904565,4.068069809890104,5.642031284694997,8.80020447072952,6.069617698222374,7.698443225038367
75,10.985817510925841,8.469705030276467,9.999638971354125,6.598245704206431,4.04617736175129,-0.24712672385922257,-0.07307225300108929,1.394985151264503,0.18460341476395203,2.4440785203853164,3.8357790314023372,6.874364161646581,4.197190755646301,5.561010871905662
76,8.337019369107212,6.48177548235995,7.45967871452365,5.195071429527056,3.295351835489372,-0.6629442574659028,-0.9121777079070027,1.0502939350457647,-0.6394885597332063,0.6248557968282747,1.6047371424204833,4.337209446236915,1.856315937976453,2.9166807806167947
77,4.869364373648712,3.8786609807366985,4.2332001907714165,3.3415150265763667,2.2494383434983125,-1.0333877397071687,-1.534127452751307,0.6918814772630074,-1.4069900794804,-1.2535585530750895,-0.8841924425265683,1.343789760825344,-0.793974025154905,-0.038206831627164914
78,0.8198785908998191,0.8447607432376412,0.5025721656397374,1.1853723198823358,0.9892833791380364,-1.3177921066969365,-1.9094205626669152,0.3576025881472395,-2.05227770035206,-3.0512990154145436,-3.4336233391285007,-1.9069598481716554,-3.5582767283680097,-3.0750507394306315
79,-3.5080618903473524,-2.3886680661079476,-3.493263161889043,-1.095409086950141,-0.381272422432096,-1.4783392913387414,-2.043289895769218,0.07408226219799054,-2.5216525536087,-4.635934128668734,-5.832575678403362,-5.186275081396094,-6.22005821669248,-5.952202207570611
80,-7.769187362894866,-5.562855375731928,-7.473281202799467,-3.3089802414073546,-1.7448254480011474,-1.4853663082446569,-1.9714693279932292,-0.1461256435898241,-2.7791276096103017,-5.892866343382039,-7.875141178030217,-8.2523308098753,-8.559485230055335,-8.43583375510972
81,-11.606061574637728,-8.414110320555519,-11.134267085923721,-5.267415213311749,-2.9816226959192744,-1.3226529261046387,-1.7519761392132376,-0.30492927362381594,-2.8103660109540516,-6.734072380396646,-9.379204748931675,-10.868532584151055,-10.37236091328253,-10.320511370533264
82,-14.681324994585784,-10.697531476762544,-14.17480084669494,-6.8043134796805225,-3.9813830808997066,-0.9918158217119062,-1.4542713944972359,-0.41669524022957616,-2.624235345568775,-7.10453316529018,-10.203455306855782,-12.82203296259062,-11.488517310603878,-11.447498648878044
83,-16.709359159478037,-12.209564244343893,-16.32145304283032,-7.7903915305401314,-4.654426951516099,-0.5149369448756872,-1.1474936458690013,-0.5042403859036176,-2.25169607619567,-6.9858827631629286,-10.261037563637398,-13.941133129591607,-11.78800127909711,-11.719013528361696
84,-17.48426579759005,-12.807232701458611,-17.35488340607891,-8.145484868225664,-4.940855227124642,0.06528965450623621,-0.8895445889549878,-0.5934788352882638,-1.7420495174597286,-6.397020325893624,-9.528489399126107,-14.110269479982616,-11.213526420725362,-11.10705728329395
85,-16.90137044296537,-12.42219789089735,-17.133319908816386,-7.845769688470279,-4.816726234581467,0.6883063440628738,-0.71863017678233,-0.707566976621447,-1.1569028646412318,-5.391673980490412,-8.049051750731312,-13.281404310528632,-9.77794536153418,-9.655996670249097
86,-14.9700560010005,-11.068300491125164,-15.610920825209101,-6.925528420447342,-4.29652218241492,1.281339094834388,-0.6484516131890232,-0.8614635256851005,-0.5625251548574172,-4.053165361238791,-5.929977595635313,-11.480826353404428,-7.56589684664149,-7.478726304609428
87,-11.816529435459673,-8.841866070643254,-12.84879418869831,-5.473358669152643,-3.431628835387067,1.7674862598953631,-0.6676563906036717,-1.0577753096711158,-0.02152270101326965,-2.486872581396035,-3.334038022250963,-8.810606580560824,-4.729261675236502,-4.746879055891512
88,-7.676034452684363,-5.914709095092042,-9.016955386095992,-3.623290657891674,-2.305010693365827,2.075354270548254,-0.7434885989720098,-1.2845915640729197,0.41508906152708896,-0.8110956045327191,-0.4659627258654418,-5.444243686959307,-1.4765784272363278,-1.676104256888644
89,-2.874959210918086,-2.5203996368221726,-4.3862205784775,-1.5417699616391303,-1.0226887574970378,2.1490063044895167,-0.8289254116795369,-1.5157361681143628,0.7143342490023359,0.8528383150719342,2.444991692138734,-1.616380961542604,1.9429137591313939,1.4921627176678522
90,2.195818009376269,1.065089384050919,0.6900713333797432,0.5881663997951938,0.2970311831904497,1.9568136466293262,-0.8720570878805979,-1.7135227242513758,0.865314663037889,2.3903441924546707,5.164811289854044,2.393103757814354,5.259451228210554,4.510785195399234
91,7.114201597967264,4.546776244167872,5.803591768455719,2.58396486368465,1.535407240018174,1.4978284305382166,-0.826145301705652,-1.8337320130992358,0.8802019953596225,3.7023737768158282,7.475086287464234,6.279837804257195,8.205553331602374,7.147143958335422
92,11.46396545774884,7.636171671263873,10.52582474674922,4.280247010687042,2.584922903242641,0.8045442691165773,-0.6587265940087871,-1.8321991792766503,0.7919465277720164,4.712489476241165,9.192143199698625,9.7391819756531,10.539527620205218,9.201842600020331
93,14.87238432792374,10.076719629091606,14.447160730882146,5.543551319274891,3.359543079308069,-0.05864219502195889,-0.3583148636761138,-1.6721422961354149,0.6489113049666204,5.371637226636961,10.18319546341418,12.492079172692087,12.067526869974195,10.524436429103382
94,17.044933180325597,11.666926457540677,17.21653652461582,6.283764045100992,3.802522190915763,-1.001368112508829,0.06234348946185404,-1.331212785502226,0.5070819501634823,5.660256078718317,10.3779829023695,14.310236981927792,12.661986118658739,11.024993757908478
95,17.793681227447905,12.27902291578151,18.57747037195126,6.461206413308638,3.8910054973516806,-1.9170999656138041,0.5669662644078505,-0.807219683280043,0.42088289531078243,5.587622427095726,9.774745794620435,15.038144643171815,12.274466435950247,10.68063643697732
96,17.056442697217246,11.871297373385396,18.396399567270844,6.0887688661054895,3.637023552963486,-2.695661375161692,1.1002869057305993,-0.12158552565832967,0.4338926537356359,5.188608130235844,8.439888906976611,14.609491921162867,10.941368769043928,9.53659117344031
97,14.904500837579972,10.492729067635276,16.67979178152132,5.228964729250981,3.084873927723077,-3.236925278436252,1.5957870003128478,0.6801673545862708,0.5708407070745312,4.5183044135857475,6.501294043145139,13.055938712331436,8.781635804818302,7.701695194503018
98,11.537742414376584,8.279211103994923,13.577542288686343,3.986270553033005,2.3052702214038794,-3.4638731936471356,1.9854633087476727,1.531241936562777,0.8321547871598582,3.6451912721974136,4.13587659114096,10.506860193481778,5.986373497415072,5.338716858372363
99,7.267241447062739,5.441431750197991,9.371589342125437,2.495581424880676,1.3869740424873847,-3.3332408599937406,2.210177584467083,2.349606316484381,1.1920141695564104,2.6436806026278767,1.5525813430603295,7.179593428661716,2.801205248858403,2.6502506121206664
100,2.486603109690498,2.2453110891426746,4.450325231917641,0.9079926557286306,0.4268780543442559,-2.8422327613819074,2.2290402323214566,3.0466926119620226,1.6003946915072869,1.5869081898593056,-1.0274948676920337,3.360735472305505,-0.4969871730922022,-0.13869384483800826
101,-2.3654033647101094,-1.013309191234087,-0.728940927444417,-0.6246139603103887,-0.48034561497162953,-2.030269189031465,2.026401145950987,3.53778647823923,1.9890321310002843,0.5405884140210699,-3.391841871822021,-0.619928706647576,-3.6265902131527663,-2.799987631700673
102,-6.847362448291365,-4.037337282457277,-5.685710284772959,-1.9645813120446192,-1.2518932894572417,-0.9753744754516812,1.6153448759907982,3.7528323790899916,2.2806579247368695,-0.4414185053815252,-5.356013004553232,-4.42038424570933,-6.328263196989922,-5.121932304334113
103,-10.558603705830809,-6.557592711751205,-9.965327143498834,-3.0015329982768852,-1.8247400095273265,0.21445553787350305,1.0370711091202576,3.6462286543904994,2.400350362832201,-1.3194277750385703,-6.779841202707502,-7.7190839935271125,-8.389508864591638,-6.927343155309809
104,-13.178897599533478,-8.359383683678457,-13.185849146323829,-3.662133256664847,-2.1610011730959595,1.4138575896941175,0.35612733175776523,3.2042258604586844,2.2874676117822603,-2.0680492456231434,-7.578749251403708,-10.245918017301587,-9.664126332345377,-8.088506406152504
105,-14.500094942597123,-9.303563838263706,-15.077351194697423,-3.9155710917475584,-2.250250226941615,2.495047426044788,-0.34792362224610845,2.4487857720090216,1.9064477399092983,-2.674339051152052,-7.729057129872306,-11.80806508731015,-10.084426286706705,-8.537572173783577
106,-14.44608461436852,-9.339632008379331,-15.509009003163282,-3.7742683738833906,-2.1086675838546154,3.3431299720602237,-0.99125847642372,1.4371869995314153,1.2548148217103918,-3.1345145021558514,-7.266873436837251,-12.307826497427433,-9.66492577873692,-8.271329883796918
107,-13.078665431655269,-8.509275481269432,-14.500686957946382,-3.2898625623888287,-1.775275683878894,3.8697381107079156,-1.497415768815434,0.2572191344515338,0.3670282284241844,-3.4499861557604614,-6.280899983440979,-11.750408271323105,-8.49725470465397,-7.34984224533861
108,-10.588515142458897,-6.93984815498932,-12.217608146959329,-2.5450728730637615,-1.305854548547191,4.023210937816445,-1.8080454223362619,-0.9815927682372066,-0.6866707882813214,-3.623568798647637,-4.900185022423325,-10.24076598599961,-6.737068369729804,-5.889038786077728
109,-7.272199862304776,-4.828484029441047,-8.948770881383545,-1.6425476794572258,-0.7653857448130462,3.7940274552556343,-1.8911353558287451,-2.1597389323313276,-1.8065855295278923,-3.6566926674881874,-3.278433695538093,-7.969914564626567,-4.584721951354054,-4.048014017577236
110,-3.4978646373020457,-2.418707415828104,-5.0718061214947605,-0.6921367796518532,-0.22000819449175357,3.214891836671146,-1.7454277487147163,-3.1610329879926953,-2.8744903118178047,-3.54823702934051,-1.5768414018690522,-5.1923622670795275,-2.2621825824250013,-2.0123541277395582
111,0.3363577149091101,0.027652525889332213,-1.0086558907533205,0.20181853006293063,0.27052705028498475,2.3556150262829956,-1.4003194243734278,-3.8858254876335465,-3.767880475259808,-3.295273514711759,0.05249489151049807,-2.1973821949804826,0.010969873692028946,0.024744706104121165
112,3.846284359374483,2.2598430901984385,2.8224431534327534,0.9516524666147645,0.6590388381569433,1.313641791296258,-0.9112460495198333,-4.26245745502092,-4.3757123021911735,-2.89559381244982,1.4807212243496637,0.7224578749035662,2.0396178425796974,1.8815589250208449
113,6.702759594961578,4.06531713486941,6.052812265450604,1.4947435002891913,0.9150969242827611,0.20162891393047114,-0.35126163981288344,-4.255498541292002,-4.613480015799062,-2.3514857381758474,2.612492858499845,3.30181869924455,3.670812793732282,3.4050960514037096
114,8.665061152169798,5.2913846827743685,8.401556005660032,1.7982551462554932,1.0268570454824755,-0.8661893921005104,0.19987418440348673,-3.869721716310374,-4.435460782672679,-1.6738983316786153,3.3915285373428383,5.328679252778301,4.8053668101332905,4.484719265112948
115,9.602845759914883,5.858914943345334,9.70179793825424,1.859933997779812,1.0005210135976128,-1.7870474658639524,0.6673981846283837,-3.1493175213389035,-3.842270365896055,-0.8859719657152914,3.80129053572497,6.66314543424433,5.402472397532887,5.060756036759258
116,9.504354545061142,5.76669644359578,9.91221331715153,1.7051782234142,0.8576890678888349,-2.4804970434395424,0.9922170131577572,-2.1724692101208647,-2.8824850860167164,-0.024946345053948993,3.8612667866475054,7.247117020933435,5.477440526373252,5.127301936232876
117,8.470391050469232,5.086313475118049,9.113112624456779,1.3810563628087327,0.6311124935029122,-2.8958533983506145,1.1389158596869648,-1.0420080858433667,-1.647918556610364,0.8582976500168543,3.619844575554931,7.104149929876563,5.0935097701857295,4.729119442977049
118,6.695406326317975,3.9486338670897965,7.488338212553873,0.9482986145957262,0.3595133599453694,-3.0155705493963585,1.0999141477611962,0.12663703482915817,-0.2630679433424236,1.7023936031237563,3.1450857707563604,6.33009311307319,4.34933861576344,3.9532293224954564
119,4.438622278523944,2.5240462719062844,5.296004604093927,0.4724601166399156,0.08220049904487775,-2.8544606048350945,0.8952201861383451,1.218655954509899,1.1298848173971,2.4411638959599715,2.5148100963752538,5.076194982869712,3.3641681700525004,2.916405599489123
120,1.9892801751940676,0.9992928848094987,2.8324026549287127,0.015455914829028746,-0.16582481501710908,-2.4552146393567895,0.5679588292152886,2.1325800436607145,2.3884607750061777,3.0111216988094722,1.8072757101859505,3.5272164112961883,2.26270457785676,1.7502300494843854
121,-0.36933031856549536,-0.44596676152046744,0.3940391469410299,-0.37149400341217004,-0.3577020831630517,-1.881110879372576,0.17652736788582163,2.790955425119343,3.3872475401188247,3.3596959054530835,1.0934620873111016,1.8775556558021635,1.1615431377401793,0.58558222967063
122,-2.3924819174167444,-1.6598719507489401,-1.7572660707210532,-0.6527575168060369,-0.47709893154811134,-1.2070611890204703,-0.21523877401130642,3.147718238136388,4.032841863714309,3.452845487589445,0.4315778390376023,0.3084417254388465,0.15850715118325187,-0.4615818811041747
123,-3.8993637846615687,-2.5339091889716703,-3.422014526474907,-0.8106297998620602,-0.5189898443940675,-0.5102296231594485,-0.548223770269486,3.191495222675172,4.274357780629202,3.2807396986657786,-0.13598936907432335,-1.0310974591635726,-0.6742986442205867,-1.3015603561519564
124,-4.788454001293605,-3.011687046714984,-4.480425375964957,-0.845106857671001,-0.4888884872190031,0.13863043382502424,-0.7768480902147998,2.94461770144065,4.108167859367107,2.8604381754627735,-0.583423994281046,-2.0374679223551704,-1.2935108610315968,-1.8781819421457018
125,-5.041666921678479,-3.090341967602387,-4.898193437792983,-0.7714232460950226,-0.40079401290527955,0.6821927403575085,-0.8751674476556264,2.458209210368564,3.576406862222057,2.23496847036286,-0.9003447470309679,-2.6588238921623857,-1.6839142336540343,-2.171435950350757
126,-4.71760920058084,-2.8150088063926693,-4.7208704139694,-0.6159473888419786,-0.27426000707286435,1.0812995876429439,-0.8393971906094738,1.80419996904297,2.7596673392804605,1.4687817173218682,-1.089340180316322,-2.8943374827022983,-1.8549256887101424,-2.195490209168998
127,-3.9357271026443224,-2.267692990769375,-4.0586453720468825,-0.4111832167871678,-0.131076460504654,1.3171295888869836,-0.6866596488306067,1.0654664951266974,1.765114527921883,0.6401610981840976,-1.1627825796188487,-2.7872397397324526,-1.8350786182475796,-1.992733149523857
