,AF3,F7,F3,FC5,T7,P7,O1,O2,P8,T8,FC6,F4,F8,AF4
0,-1.2804189787330706,-0.6901951460042771,-0.7896849861578125,-0.4408346280051114,-0.5716684237358229,-0.20457143631539643,-0.02947688015188374,-0.6735594236567212,-0.4722075722070815,-0.3014584373998929,-0.5618771543881929,-1.2463909574651288,-0.5158498142381638,-0.6851578140798088
1,1.0912378361098074,1.6288940177784663,3.37997181622757,1.065306070432547,0.6638171390003902,0.33535172716763284,0.10443476255382042,-1.7912325231126167,-3.633075416115954,0.15708496068036568,-0.2350880260174528,0.2089943820966597,0.9432669761133557,1.099588216118704
2,3.3492815523105466,3.805007751236299,7.228464349070934,2.447529696804118,1.782624678057244,0.8239537523887432,0.24574157606278765,-2.7340837048675177,-6.452848932530148,0.6265454792861862,0.12096501729375184,1.6715714865342137,2.3230908722228447,2.7783665377204247
3,5.315285882566927,5.657248099892707,10.418093504885693,3.5750154608015428,2.6612726301067533,1.2226374927073194,0.39738232729308304,-3.3795539446864407,-8.640241914091746,1.1002352552505827,0.4953279946467381,3.0892064191963486,3.5189997035818537,4.224456030283841
4,6.835960914015561,7.032037009852659,12.674186269305546,4.345143705174017,3.2073198892003707,1.5048609671840465,0.5599425709304281,-3.6370895185950323,-9.96514097385598,1.574940834947828,0.8790679309026804,4.405587314050863,4.449646823247528,5.337768350478796
5,7.7956716971232245,7.816302091445098,13.810666391674557,4.693530005945893,3.3696987863974885,1.658788743739289,0.7310266208852514,-3.4590880587440886,-10.283997927621929,2.048340130620521,1.2642218958857343,5.560247481018936,5.063387895921832,6.052444969656059
6,8.125861589564535,7.947394422120735,13.746623943552192,4.599731040428829,3.143772136109382,1.6878868805627416,0.9049675027516634,-2.847077356500505,-9.556614814713209,2.515063580273041,1.6416779112622115,6.4901810842583885,5.340231875175971,6.33996594679919
7,7.810633048148117,7.418853658031122,12.512366463658024,4.0881062362298515,2.5705979712376785,1.6093898606760335,1.0729010299524688,-1.8523763938948379,-7.852230052711303,2.9622945663846214,1.99856478798668,7.1332991781245365,5.2894728589482325,6.2078188885711505
8,6.8880160861360356,6.281425800175613,10.244559060002544,3.2238744217784747,1.7306370102181172,1.4508746582353695,1.2231978201693254,-0.5711140434204722,-5.343896992587691,3.3660825794167515,2.3159408082144757,7.433630866135021,4.943869341986555,5.694418920819863
9,5.446769087208218,4.639095711120675,7.171193110307133,2.1049434151814626,0.7328399664183142,1.2454553212001758,1.3422191802103944,0.8658700741173422,-2.291411679240142,3.6895709606517735,2.567612549863358,7.347799314940131,4.351749623520072,4.861455548121815
10,3.6188959369501337,2.6403079486311904,3.588142500544923,0.850554389360128,-0.2993848811418643,1.0263242740204377,1.4153478348023152,2.3071284332938258,0.985646369184049,3.8840974594177236,2.720767793575222,6.851964815844975,3.5686557635968597,3.785099100329783
11,1.5684093495321438,0.46498930848953435,-0.1701351645365784,-0.4118837988778869,-1.243470126180593,0.8214804919181345,1.4282404779089681,3.59713952754744,4.142005714280844,3.893642241136157,2.738788777324488,5.948190998377297,2.6500651627034943,2.5474959504205046
12,-0.5228038764075087,-1.6915890230252375,-3.762700637505287,-1.5602379416999952,-1.9923020334982855,0.6494727110085071,1.3682433502498903,4.593421300646821,6.844247658235624,3.6624520992950975,2.5861732116825653,4.6691017183357095,1.6463714593209693,1.2297275512755181
13,-2.470884726915855,-3.636713486718111,-6.873839136601697,-2.4898777348419268,-2.4663622451205987,0.5168385309709995,1.2258926215267936,5.182298691329942,8.807593085500299,3.144975912331618,2.2350072646221504,3.079782119843674,0.6007364481359525,-0.09304090777643634
14,-4.106342747898106,-5.198251168753092,-9.241363624290752,-3.1234132206099288,-2.622009168609605,0.41765624465918233,0.9963880226882968,5.291539445933817,9.827671755926369,2.3166397687336615,1.6720028568600689,1.276144355750717,-0.45024449720109305,-1.3540445049022543
15,-5.289409738775876,-6.241050099797497,-10.678990421635486,-3.4170286760801236,-2.455066603159311,0.33528967848850527,0.6808929911762648,4.898416291455506,9.803485489329134,1.1836001486286198,0.9048264644400318,-0.6205948372400323,-1.4737521015238542,-2.495388506847023
16,-5.9229991674706595,-6.68004365277021,-11.090955824787791,-3.3629434063381742,-1.9995171650726478,0.24605430503371784,0.28749433762649457,4.032270964523711,8.748737108594582,-0.21046431444655406,-0.033619167828973597,-2.473144133019241,-2.43697795485588,-3.4672637269426394
17,-5.962010760482135,-6.488638031091971,-10.477857582633039,-2.987997367267787,-1.321713397841488,0.12422248061918438,-0.1683395262014207,2.771291353607358,6.79004420126328,-1.7821882973120324,-1.0841125423859839,-4.140332777195838,-3.3037321651907137,-4.226871002545506
18,-5.417995004749293,-5.701386493802706,-8.933553442700541,-2.34879168059282,-0.511044133831249,-0.0524350818219698,-0.6639303844335006,1.2338925506276912,4.152127093009843,-3.412050183091562,-2.1639588022093217,-5.491026754984185,-4.032670945083378,-4.737985685721734
19,-4.358582425908539,-4.410519247713668,-6.633752380924142,-1.524162244460037,0.33162856607546154,-0.29747289221152573,-1.1702697520201386,-0.4342684338016381,1.1316521354419409,-4.9538309817876085,-3.173893324475424,-6.418162328031424,-4.5780197284882815,-4.971835388215972
20,-2.9015581571946085,-2.756548667896131,-3.8176307810777406,-0.6059944560551145,1.1062504527935582,-0.6118225511129821,-1.6536217559824438,-2.076098839733889,-1.937185127445233,-6.249296447944805,-4.008498296012291,-6.851137555852482,-4.893104721095537,-4.909537450685533
21,-1.2039797421278036,-0.9138301427802341,-0.7643509240903456,0.3105207922715114,1.7250630718463533,-0.9817658444196884,-2.077794429326595,-3.5398276945157576,-4.721222667223994,-7.1465025543854255,-4.56894739174548,-6.764880963171434,-4.936362280815308,-4.545835303774634
22,0.5527589562838935,0.9274560087171738,2.233278874677419,1.1361384345949952,2.121978452331753,-1.3792406571216462,-2.4069470139963833,-4.694755264971572,-6.926404571655604,-7.519417278034503,-4.776397213075603,-6.1842259112502544,-4.678890356501026,-3.8933904116810334
23,2.180579268966568,2.581005330623837,4.8956045919550055,1.7954399282183044,2.258869976888783,-1.7645368426411678,-2.6087218360381166,-5.444190050993373,-8.330781120916795,-7.286149350567283,-4.584077397918541,-5.182726463882682,-4.112150801410217,-2.986533083257663
24,3.503430280218911,3.8836584482093457,6.981039967997898,2.2327274610634347,2.1282615222005474,-2.09106484429405,-2.657420343550618,-5.7341487714520225,-8.808480775334099,-6.423056994483847,-3.9861517459760467,-3.8757005005932244,-3.2542175374642324,-1.8832367384011337
25,4.375249572412505,4.712149573758531,8.306992356832623,2.4156172337854893,1.7523822648902088,-2.311546924586231,-2.5368996227944822,-5.556950958189179,-8.341829123717597,-4.972407729172945,-3.0217511910926604,-2.408007171835857,-2.1530509069823123,-0.6642068491543218
26,4.695378723796334,4.995513414048531,8.765110359591217,2.3363067579819563,1.1790017735561886,-2.384745771800802,-2.2428617335976746,-4.9495004076974265,-7.020288939960035,-3.042044377214681,-1.7731917630418772,-0.9377755141737989,-0.885670410463281,0.5716298653457634
27,4.419836901688063,4.721809728065165,8.329689523689524,2.0107250276739115,0.4748089462038922,-2.2817470028148663,-1.7842490132853166,-3.9867228634911216,-5.026571854033788,-0.796586692138188,-0.35821324475724126,0.3820901759026887,0.4472547052690556,1.7153402428879592
28,3.5672101280214723,3.9384584740339057,7.058664385857653,1.4759258105350912,-0.2826913807417588,-1.990864816396257,-1.1835386352657722,-2.771228286473017,-2.6119024026433424,1.5590898865578504,1.0830114217178604,1.4223837593887814,1.7310798612652702,2.6592839074616847
29,2.2183941596027306,2.7461895695969067,5.08722589591269,0.7861478604736377,-1.013732363821005,-1.5204321389452076,-0.47583448007945944,-1.420698405406988,-0.06377613073621584,3.8021941625349203,2.4044889536209992,2.0936538829390288,2.8500026271810266,3.310176044740186
30,0.5099988703733518,1.2873173225339114,2.614694288926141,0.007957004925419774,-1.644338609662176,-0.8990353019743684,0.29323389937891253,-0.05470122556223793,2.329544709152979,5.717352421951381,3.4723890378373867,2.357614563054005,3.701245250030401,3.6020573895411556
31,-1.378160367977189,-0.2703276933818339,-0.11418511489714749,-0.7851672118731082,-2.113113713493763,-0.173112548810566,1.0706896336869158,1.2174200222480698,4.313236507170557,7.121591819711234,4.181841592552804,2.2321702295796113,4.208452539107904,3.5070666260642906
32,-3.240444525981609,-1.7520044863487743,-2.8319042962544216,-1.5185008066841494,-2.376243161591066,0.5977962205615832,1.8002529514954366,2.3062220459184757,5.69456265146706,7.8856135581988145,4.470095605084592,1.7890851876250196,4.332153086817608,3.0420240742538094
33,-4.866056998673201,-2.9951317001273923,-5.272860869477281,-2.121748802202173,-2.4104583900567,1.347535368289093,2.4269532552167714,3.14849497380595,6.362572936211484,7.948488816478311,4.324093377994013,1.1442865919723433,4.075513195819516,2.269323243983885
34,-6.060986919954547,-3.8667149104623793,-7.197893755078731,-2.534488509652931,-2.21395201001523,2.010704683011996,2.9019320670788438,3.7098897627299845,6.296751469003417,7.323835993069992,3.7813419827289136,0.4418132733890461,3.484318916197878,1.2914290281958491
35,-6.668992779858562,-4.277228886808426,-8.4165272616132,-2.7111313222272018,-1.8054273395501175,2.5299512320727184,3.1869984790546764,3.9840137398880975,5.564032053371915,6.096748275795431,2.9239777069970505,-0.1666329308014973,2.6410330637656974,0.23927426664824578
36,-6.589386206663923,-4.189469277476312,-8.804917525162882,-2.625108219560226,-1.221589811912662,2.8622416790710665,3.2584684308460012,3.9886230352862664,4.305139672057701,4.41204519030464,1.8669510219575973,-0.5438521927372733,1.6537328649327476,-0.7441363337726422
37,-5.789617344124409,-3.6214704208423156,-8.3178212031659,-2.2719369294627754,-0.5134456918784549,2.983328188157757,3.1098342214693195,3.7598473164636825,2.7125617386755922,2.455614877142138,0.7421346308236774,-0.5879643828460053,0.6415681678329695,-1.5227452000499069
38,-4.3111417177263105,-2.643270541771737,-6.993395832717753,-1.670808888583022,0.258217803367504,2.889874757407251,2.7528812021352933,3.3455057446510725,1.003421843361504,0.431510277763268,-0.31927146739504786,-0.24885925335617037,-0.2810623691458754,-1.9863713694641218
39,-2.2677216580880337,-1.3680114084469426,-4.950263847566629,-0.8643672774809587,1.0278176874895975,2.5990281336424945,2.217000026793105,2.798514710917075,-0.608994265986375,-1.4620647976809893,-1.2034830874295621,0.46224832481142025,-1.0192368662294768,-2.0667208752046626
40,0.1638912139942995,0.06150329517176732,-2.376972648559856,0.08355519995691453,1.7301068712054612,2.145558108464263,1.5466323638292854,2.1711835134215,-1.9413589351342404,-3.0547424434673927,-1.8276900249850967,1.4717932442308632,-1.5089726902598524,-1.7479882238216764
41,2.7601246319804975,1.4891768278706048,0.4853065943153433,1.0923100896383329,2.3051679127283093,1.5770120684845086,0.7970193233763038,1.5109021602351567,-2.8608976429399897,-4.221253934356391,-2.1486645130146993,2.651824837673615,-1.7238258376930187,-1.0703078551786145
42,5.2720829785174,2.7630120081723772,3.3653448332399156,2.070778481783093,2.703007806032102,0.9475846034201314,0.028664505624960365,0.8574114963250072,-3.2981961392647716,-4.89206482443898,-2.165463773662329,3.8361280583032134,-1.675835763039049,-0.1253564222968784
43,7.4502471205367335,3.751559406340503,5.987650618345871,2.925304506536951,2.8875011859331687,0.31155945888578446,-0.6988630157426565,0.24156907383659462,-3.251099629094022,-5.056484861172911,-1.9161830831067057,4.842450562917541,-1.4109329555665098,0.9554219870318167
44,9.069863100383307,4.357610222430243,8.099087679015714,3.568585548168026,2.839428207021458,-0.2827832955339569,-1.3330199325202914,-0.31467279400492915,-2.779796819372191,-4.758423138309958,-1.46958887101988,5.4978348862174995,-0.9997810571131915,2.01838027735012
45,9.95437535625716,4.5276757834462265,9.493742227869836,3.928671338665579,2.5583560326456274,-0.7979926249866546,-1.8334771495842697,-0.7974583996337367,-1.994306153604653,-4.085930823722238,-0.9131653162385326,5.663527627229776,-0.525687808751108,2.9085519478238973
46,9.994403351273832,4.256300085054019,10.033540437809993,3.957084697259237,2.063137738828231,-1.2104066189025735,-2.175703926008178,-1.199774818698866,-1.0364808532050338,-3.1564170882137565,-0.33954328926174854,5.255923965152559,-0.07159040039985312,3.490872035517896
47,9.160171114010822,3.584853133660104,9.662442354704282,3.635056928018314,1.3908666798926035,-1.5109379765017126,-2.3524600753264653,-1.5200691394422303,-0.05921960174328345,-2.099845671715518,0.16660953595361974,4.260514571451046,0.29184745001422785,3.668695627861834
48,7.505944988500901,2.595088023487702,8.412607971894372,2.9769947074949425,0.5942352470892494,-1.703705055155295,-2.373010201868478,-1.7609402304813473,0.7942474866040322,-1.0422801640693087,0.539377749458533,2.7367587021111763,0.5152882485296698,3.3969793655398894
49,5.165855765848916,1.3983446944441074,6.401702120294305,2.030559209841851,-0.2626026701726161,-1.802850615181211,-2.2602173887294317,-1.927984685288003,1.4083356229723363,-0.09186391242125172,0.7387015667244142,0.8130684824719303,0.5757492824316779,2.68829303027633
50,2.3413938484113963,0.12177928546426502,3.8214053511000436,0.8731143562344339,-1.1093951052358406,-1.8281575815902678,-2.0460031310613895,-2.028773345850248,1.708229964006051,0.6712344855883625,0.7531009319203698,-1.3275320200302154,0.4771549036048021,1.610895231149803
51,-0.718226438050814,-1.1066696327596484,0.9181378710757885,-0.39525620214157614,-1.8759446552580434,-1.8002435540891206,-1.7659171752458034,-2.0718765709457476,1.6668351224723654,1.2001011718545804,0.5980546479612763,-3.469213304621242,0.24671211502920223,0.27927024765253483
52,-3.74083455697756,-2.1727405455190283,-2.032117195752922,-1.661513447789109,-2.4984811289473927,-1.7361667179602631,-1.4536973928466883,-2.065854515852325,1.3051376633132752,1.4815389739867486,0.3107338219433113,-5.389721809689706,-0.0719342350120542,-1.1613947149779686
53,-6.458600637090385,-2.9879974180076063,-4.752289721079808,-2.81116704160874,-2.9256124984113705,-1.6461961629400808,-1.136690208510523,-2.018179769934637,0.686460604996377,1.5323518865705885,-0.05771277562508484,-6.887819281445381,-0.42735196293402294,-2.5544712792095092
54,-8.634929803364491,-3.4982503088479406,-6.992939467522458,-3.7402058682985007,-3.123216550514281,-1.5322987958178627,-0.8328458949162787,-1.934146801585042,-0.09416830395065612,1.3925913079820385,-0.450864487354045,-7.808122261538671,-0.7691703790722836,-3.7520907156902865
55,-10.088015182070665,-3.687331303908768,-8.558027842510466,-4.366035609329301,-3.0777195096496466,-1.3885998788871716,-0.5497226738282441,-1.8159180687748868,-0.9238084409264439,1.117155433505561,-0.8152730632814303,-8.06003979965276,-1.0556128738371728,-4.633428133395147
56,-10.708435630906704,-3.575920050324453,-9.324794414971697,-4.636084330609544,-2.797362491265206,-1.2037273009573024,-0.2855727286747139,-1.6619277325402753,-1.6866051139067513,0.767131361677183,-1.107034903831368,-7.628305622492349,-1.2585461590467903,-5.1185748543309195
57,-10.4688160009346,-3.2157521494773373,-9.25538416260059,-4.533000295695379,-2.311263740548151,-0.9646049602930896,-0.032203992644582846,-1.4668821086577295,-2.278084754701879,0.4020520450957564,-1.2958966771854141,-6.573731657209889,-1.365407893952526,-5.176213260955786
58,-9.424450297334818,-2.6801300355598996,-8.398783152668347,-4.075783088451975,-1.6663219352135923,-0.6609764088704825,0.2210144987867602,-1.222545998635251,-2.617108965423259,0.07387474319870571,-1.366607075196144,-5.02412695958274,-1.3779859012161717,-4.824258820645207
59,-7.704835475407088,-2.052122689684904,-6.882761394414059,-3.3167087815879692,-0.9222515522948925,-0.2897709875654551,0.4828423397020034,-0.9193886725187294,-2.6542939433779904,-0.1769457444495895,-1.3177395009252735,-3.156664225107795,-1.308610343553659,-4.123691603267836
60,-5.497159591983869,-1.4121342652450322,-4.896762868762171,-2.3344651139844346,-0.1452729415394894,0.14158727417356365,0.7564331723531562,-0.5490021223212216,-2.3762446213482993,-0.32333577417087145,-1.1586444998750656,-1.174162055679646,-1.1747861817585894,-3.1668138931811565
61,-3.023791883590909,-0.8266013497373151,-2.667859608646172,-1.2244253492792434,0.5988310351118347,0.6136675157560922,1.036924496694986,-0.10702795060734857,-1.8055153961075205,-0.35181224480750956,-0.9054739778460015,0.721383022760795,-0.9935561791310851,-2.061987341021489
62,-0.5165871888738173,-0.3394204549366001,-0.4328218702942994,-0.08737891257616456,1.2514679938884414,1.0957457927820986,1.3108260115417951,0.40382727029458476,-0.9967129189974341,-0.2615874678506608,-0.577299416892554,2.3542761932298295,-0.776893455059421,-0.917388327296402
63,1.8087805612369356,0.032683825123351315,1.5901033871914143,0.9817651211365974,1.7669718004558357,1.5487702431093455,1.557325563299105,0.9712119985490983,-0.029534617711830243,-0.06314661634595625,-0.193207237765809,3.596017420747969,-0.5291686665395675,0.17361143881676835
64,3.7752716108444737,0.30022013922681146,3.226061827124532,1.903815837569556,2.1166135038569793,1.9301827913766214,1.751268475977863,1.5715319520850841,1.0002468120882255,0.2232710729575927,0.2290718692237733,4.378694252750603,-0.2472653936960399,1.143193148894452
65,5.260999617013844,0.49647794490260694,4.3619169559215925,2.6224462109068205,2.2904081748577876,2.199843250013873,1.867258742673554,2.1698059197987445,1.9907826086777558,0.5691005462037625,0.6728789640368235,4.699093989309196,0.07667490933662023,1.9544453510205426
66,6.207925018791206,0.6693015838034083,4.955734786676739,3.1078428245729683,2.296540978157505,2.3260711775223406,1.8841292305746216,2.7212727017436382,2.8441216282600315,0.9388593181003178,1.1210115845430328,4.613164154868233,0.4504841000903554,2.6007570171161993
67,6.621909151373563,0.8704028004741248,5.036351002671825,3.356591366644091,2.1585672267690152,2.2907672515738873,1.7889669172599658,3.1747995040993415,3.475290865444781,1.2917979408116045,1.5534559824448952,4.221920961116424,0.8762434982355247,3.0997068594686277
68,6.564499426493064,1.1438999421070746,4.693326113183919,3.3880894100243424,1.9108533688381548,2.0927154698775188,1.5799699706652912,3.4778651623138868,3.819804301050804,1.5841295679730862,1.945343410463909,3.6512178868200613,1.3449287084782213,3.482840264625583
69,6.137947011016965,1.5159054100388676,4.058951666894044,3.2382780331077625,1.5929716951150437,1.7484740426473426,1.2676367527132895,3.5826313847524554,3.8391301477714426,1.7721167812162,2.266011435053417,3.028740638198246,1.8327503369386036,3.7834228912167043
70,5.465879067826578,1.9868581112354737,3.285106375591418,2.951848581591821,1.2439000079514664,1.2906717130312022,0.8740927664915868,3.452408887391769,3.523846884768275,1.8161092493095385,2.479858926010306,2.4620320555948085,2.3002649806571256,4.02460723483784
71,4.672620277947655,2.5279272071186347,2.5184962939820736,2.5742542486872413,0.8968827849586615,0.7639550888588307,0.4306840637177046,3.0676989905697045,2.894387962181568,1.6853491767891928,2.549324056118895,2.021181317623574,2.694856562656595,4.210379376977531
72,3.8642908532720908,3.0822399954428747,1.878022875886254,2.1448123003861763,0.5756803246282993,0.21920556970565092,-0.025757847320437136,2.4309630207996196,1.9994054022596228,1.3630535015061667,2.4398511957477647,1.7290411200461593,2.956569866963851,4.321168458679977
73,3.114473121642041,3.5709852950137155,1.4376641436184092,1.6919325142929484,0.29269019293335335,-0.2930939914987499,-0.4573875137666487,1.5693516269066579,0.9118844584460793,0.8510202134366671,2.1262319280086195,1.5605727458719352,3.026626479858121,4.315174003448772
74,2.4564807878803765,3.9037136772547023,1.2173765414279214,1.2310978618026007,0.04911371787981499,-0.7293453253239554,-0.8298832277230442,0.5348129796784987,-0.27676022805754175,0.17286563320445233,1.5993018746384946,1.4513595643336985,2.857388179821966,4.135429897782093
75,1.8831963219569303,3.9915039590184374,1.183260493515522,0.7657288118886667,-0.16298841603987396,-1.0582132084138647,-1.1164099803149117,-0.5987209521599184,-1.4642578548201588,-0.6249690960568878,0.8717324696531311,1.3137301441885296,2.4221580392410447,3.7215507647492565
76,1.3542263823292915,3.7611871224781637,1.2567769440229302,0.29056813629470507,-0.3572010841538818,-1.2641170618661708,-1.300487089617777,-1.7410238013013426,-2.5462288479002053,-1.4750866992740697,-0.018367219511734482,1.0575661841908037,1.7230949399881328,3.024179307931925
77,0.8089532364888495,3.168585112216284,1.331384817216968,-0.20319116922957445,-0.5484838665425055,-1.3483501263478803,-1.3774244535594744,-2.79371828602339,-3.4254543789143805,-2.2941443348031694,-1.0071092803002897,0.6119836181659135,0.795689405432846,2.0195373405570174
78,0.18311862719291752,2.208770619421114,1.2938146821501286,-0.7220837233632643,-0.7488912334841121,-1.3277013058310383,-1.3542078335060335,-3.660097348410959,-4.020882495325206,-2.990793261178888,-2.008386532348901,-0.05615924548685863,-0.29131107754993896,0.7213000780770473
79,-0.57398232485471,0.9216853145864414,1.0464814788804184,-1.264996175630612,-0.9640283323486922,-1.2308292255107298,-1.2479292754954483,-4.255565040234461,-4.275514032969783,-3.475834062108083,-2.9213867188807288,-0.9304916733176678,-1.4409912480789635,-0.8126845885986876
80,-1.4847045169959436,-0.6079704383721527,0.5273753583976635,-1.8192845385407321,-1.1908448576246746,-1.092973588094258,-1.0830454959682232,-4.517477368100672,-4.162334641550057,-3.67344061081377,-3.6414625457261733,-1.9425336204203527,-2.53807514170432,-2.480555021785583
81,-2.533257894696283,-2.256916483699152,-0.2758254604452821,-2.3591714579133165,-1.4171327380613787,-0.949838798724761,-0.8878836535263309,-4.413151068895328,-3.6875938897950937,-3.532019891329188,-4.073144856579207,-2.9791161348193547,-3.4623963421061044,-4.144102961858714
82,-3.6626931565178626,-3.8750587383588533,-1.3197677851430125,-2.846829486525342,-1.6228021096673986,-0.8316117239939963,-0.6908858592451763,-3.944954943720818,-2.8909731109851466,-3.0331879856163035,-4.143613011563487,-3.898885877588251,-4.104337215286271,-5.643324473522856
83,-4.779333404978802,-5.301571010078439,-2.5086382057625136,-3.236110430936337,-1.7827118586063606,-0.7580557047543466,-0.5170829659765669,-3.1516917925769876,-1.8425011992822953,-2.197469991850301,-3.8146864984458544,-4.5553072441846645,-4.380120334754457,-6.816023584401231
84,-5.76409529948894,-6.383372989953278,-3.706212945513361,-3.478434229531921,-1.870573598364178,-0.7354534779636973,-0.3852169627772482,-2.105888080533533,-0.6364274178238218,-1.085657305504598,-3.091427536785291,-4.82233855532739,-4.2447014919546335,-7.519685908970995
85,-6.489011714817353,-6.99367387904056,-4.754985908748787,-3.5299706812560507,-1.863272440382855,-0.7558746446306391,-0.30580597994435094,-0.9070877235043331,0.6174047758480729,0.2047561576889699,-2.025763017276408,-4.618361447889673,-3.7002083547538165,-7.652314451373097
86,-6.836407666183626,-7.048147589839259,-5.49949354947585,-3.3589943996682208,-1.7448824092953215,-0.7988639401543335,-0.28029294231238916,0.32825931342501985,1.8038611834158298,1.5480382723848125,-0.7141212420986165,-3.9240967448653703,-2.798387853222243,-7.1689226327701085
87,-6.7177256564605345,-6.516535510569803,-5.81026791338307,-2.952211567253055,-1.509709152960595,-0.8352473238193578,-0.3012671276971795,1.479272745236998,2.813489601644268,2.8029214734054957,0.7111338381947377,-2.791124965049616,-1.6363117128248887,-6.090921629398901
88,-6.089014307576816,-5.428016691421599,-5.60470668369414,-2.318967292585429,-1.1638592052081989,-0.8324062097184394,-0.35362394837047445,2.434091729394759,3.553079615686456,3.8282767623208454,2.095805292843095,-1.3391024634058721,-0.34554005379972563,-4.506642976536799
89,-4.96058445357391,-3.8694809049231735,-4.861583212495892,-1.4925382158087026,-0.7250873031675944,-0.7601430706244546,-0.41645294111732384,3.1027083555602015,3.954767904776742,4.500002723225068,3.2819824845855634,0.25840708093309606,0.9240744828537439,-2.5625540676546392
90,-3.3992284406866107,-1.9767863645433956,-3.626875915268132,-0.5281572499870597,-0.22096905783104398,-0.5961948376083381,-0.4654243977329148,3.4275804237287,3.9827902288967802,4.727072584189833,4.127957217345214,1.7976671976790712,2.0238899534060413,-0.4461541491494706
91,-1.5225528109630992,0.07995205009555617,-2.009931297612761,0.5020660778619649,0.3142677876888511,-0.3305465202984796,-0.4754690003923424,3.390608473544717,3.637203116200566,4.464625394081443,4.527287990378793,3.0745866648659916,2.826617322473638,1.6371426971319325
92,0.5137965032188658,2.115164576214138,-0.1704727556484589,1.5166670784982395,0.8436991538958551,0.032075041223241424,-0.42358491479786353,3.015447584184828,2.9541730840599465,3.722202973112198,4.424291085619318,3.915992834238799,3.244184518050976,3.4898396331401447
93,2.5341401883957713,3.948271863563518,1.701621002861109,2.433734637079988,1.331780119738381,0.47184100980618365,-0.2916333849019604,2.36467289990155,2.002737321917352,2.565718983209541,3.8235620109709907,4.2073166736231125,3.240589484276408,4.94711499651458
94,4.363345589816101,5.423120694881007,3.4107530424090697,3.1799362156998847,1.7478880428839778,0.9555817502602574,-0.06897783896671279,1.5319720229549312,0.8782617038798282,1.112462533381006,2.791836265570161,3.9120585479491865,2.837628255144088,5.8968225375215875
95,5.846985116899981,6.423941487056756,4.780650465219897,3.6983814777349373,2.0688172485747707,1.4403639075258534,0.2452186763113919,0.6302176626309759,-0.3068572649816082,-0.48068781719386117,1.4515053422275999,3.0796025529501656,2.112366800460041,6.291750808444209
96,6.868227409246139,6.885899893368214,5.6763878722293715,3.954248037839719,2.2799351542099555,1.8783549645456161,0.6402823095668764,-0.2231167118391952,-1.4344049907891991,-2.0347394607191025,-0.03372199570072447,1.839754021421354,1.186435136540909,6.152349829255658
97,7.3592172874810995,6.799123364307434,6.020323384582714,3.9374660624589404,2.3749801200447247,2.2223169497841835,1.0932014349984331,-0.9212968689472276,-2.392394405727693,-3.369800524832802,-1.4793512594049916,0.38450400324276,0.2084779273426489,5.559629251636342
98,7.305642744203956,6.206030401076977,5.799894781697098,3.6622387115893997,2.3547439123109575,2.4310410419351154,1.56899947214528,-1.3823374134484323,-3.0867102928801105,-4.327436357556509,-2.7041748352943396,-1.0603722342936017,-0.6677984484343683,4.639494772040004
99,6.744302310422214,5.1927262454080605,5.0665153264985054,3.16367613938224,2.2250852890960076,2.4740948849221875,2.0225758013505626,-1.5597120313712778,-3.451085092742429,-4.791238193005619,-3.5545908829770054,-2.2695551826901386,-1.306768434954023,3.5411608541186923
100,5.754576456554199,3.8760115312642776,3.9261515817499753,2.4922506406901235,1.9948262320120358,2.335381446875823,2.402151464201314,-1.4482136328664132,-3.4542515806795673,-4.70273867638738,-3.9256998367079587,-3.0528977384719274,-1.6117026886154304,2.413221707617941
101,4.4455811355142725,2.388066136426429,2.523339805081174,1.7070649113879826,1.6740685130791446,2.0151750907027797,2.6542411623355644,-1.0840793312145296,-3.1033797197267523,-4.070295759930917,-3.776057758194334,-3.2850986592041638,-1.5399797070979537,1.3813101002551003
102,2.9412946358318703,0.8610469494854237,1.0212299140671368,0.8690217338757007,1.2733376779875796,1.5304823295152383,2.729801572518952,-0.5393098085612023,-2.4432942709904935,-2.969436251643888,-3.1338038412834144,-2.9255683379818898,-1.1101879749247792,0.5309590782721493
103,1.3660307196243207,-0.5863422197478328,-0.4193659765383591,0.03488679788894474,0.803739213317099,0.9137507826751158,2.590928981284282,0.08904846740758465,-1.5514451013727646,-1.5342964773304215,-2.0930937719477605,-2.025267383289452,-0.39981393934599624,-0.10164482207887394
104,-0.16770256613463272,-1.858742573027512,-1.6590221989342093,-0.7470228992402683,0.2780430644771094,0.21010391894820438,2.217258203523931,0.6931539563174182,-0.5291101405804993,0.05894059724725146,-0.8011843588952349,-0.7193729506346574,0.46633537002637854,-0.5297106466108334
105,-1.5675759821863888,-2.889631968496007,-2.5944405704202462,-1.439157607292034,-0.28764567258986096,-0.5265996494935803,1.611104510651769,1.1701266684459581,0.5102095421459252,1.614525414960418,0.562084738982461,0.7931141942351504,1.3353480013367651,-0.8069920497284432
106,-2.7654946706272745,-3.6423370087649536,-3.167277707620283,-2.015091310826297,-0.8721646907065471,-1.238499937901898,0.8004265025478986,1.4370515005105486,1.4538563842467302,2.9425304522447853,1.8094972668049911,2.2796367543204106,2.050172507250067,-1.0118851198143899
107,-3.717622296936115,-4.107206999760252,-3.3664122254389124,-2.458303419159421,-1.448138432015532,-1.8688325645658384,-0.16111788656237494,1.4430640073989636,2.2029650490720196,3.8836390750236722,2.772693432351222,3.509484151504352,2.474617012872039,-1.2275508380639006
108,-4.401335329759053,-4.296123916277117,-3.2239717203135254,-2.760021511140547,-1.9819530705216664,-2.366943484139037,-1.1974121088110794,1.1767672760485095,2.683679748629441,4.329845188605283,3.3255769081174913,4.288807492857213,2.5154261445609833,-1.5218180585372574
109,-4.8104687853963295,-4.23578196119789,-2.806271025990173,-2.9168598353928106,-2.4352414835258287,-2.6927892689540216,-2.216367314225241,0.6679049427742436,2.855214631057521,4.238125565880052,3.4014504104673984,4.48982392235904,2.137887038575703,-1.930627326968512
110,-4.950291642822118,-3.961131756682478,-2.2014023467774018,-2.9289268880045145,-2.767967308603281,-2.820531349888475,-3.119121441132002,-0.01694116509039053,2.7137298303967414,3.6351550478813617,3.0013858684255332,4.069754446307641,1.3724154314255639,-2.448101856814101
111,-4.8334277848126534,-3.5100879071578506,-1.5055037869794783,-2.7988750001323717,-2.942857216833443,-2.740899328176943,-3.810970517315187,-0.7839779596769662,2.291553413628922,2.6124449951915842,2.1926802681809314,3.0767011252094356,0.3110039857083343,-3.025106515638663
112,-4.477496048459807,-2.9201351528338404,-0.8097056702310533,-2.5320728495891567,-2.930607725401506,-2.4620905747820574,-4.212712864080558,-1.5257194645743135,1.6519122612218449,1.31268918328393,1.0977664751127827,1.6417442665060389,-0.9059629196313761,-3.576607337102794
113,-3.9046906487240562,-2.2269502208308745,-0.18944896637203454,-2.137762004796095,-2.7150538572570606,-2.0090905225645814,-4.270919366492044,-2.136402403696821,0.879945035590957,-0.09062256611725115,-0.12460869613407223,-0.04131215935375778,-2.1104831709715306,-3.996552596162595
114,-3.1429771784898475,-1.4646901985769678,0.3026442152184461,-1.6307785037831202,-2.297383973194024,-1.4214365775767301,-3.9656836960130226,-2.5270466107238505,0.07126821723490809,-1.4173090492030485,-1.3029877154202723,-1.7452345713991764,-3.132049331144863,-4.177638574475785
115,-2.228144538167259,-0.6672666316513539,0.6398009631723954,-1.033237983287472,-1.6985466911654945,-0.7495986460418813,-3.3146617251448505,-2.6379860843814797,-0.6803195105288609,-2.5048160505936257,-2.2779720518634172,-3.2430455799790745,-3.823172549515659,-4.032428848990089
116,-1.2057085660014262,0.13022212327901264,0.8201318292841563,-0.3755352655173946,-0.9592214794577216,-0.05029648928129353,-2.3726550588700412,-2.447095012740624,-1.2943252595739447,-3.229285018790081,-2.9244494146023907,-4.340866879787221,-4.081350029228737,-3.5120161943206196
117,-0.1316497713484905,0.8906790369759146,0.8623425962052467,0.3038936805516772,-0.13708187131127547,0.618798908078635,-1.226574758928008,-1.9725880800704203,-1.712730979522158,-3.5204667826790423,-3.168048070345661,-4.904930773192392,-3.8641035588998225,-2.6187994412356526
118,0.9288161347139868,1.5753812158517186,0.7992094893064029,0.9603758052138613,0.6984913545748394,1.2044453969937894,0.013743483336871759,-1.2700838885740544,-1.9057041946015665,-3.368554567096201,-2.9935534163218454,-4.878802783065203,-3.1948435739418066,-1.4109315213822409
119,1.9048301897575595,2.1457775600174416,0.6701085642703788,1.5463893893270586,1.4736658642109581,1.6627264783193316,1.227806316423551,-0.4244619895328121,-1.873239129020134,-2.8222556553729707,-2.4443163464209676,-4.2884983425475,-2.158783700371452,0.0025833568502259424
120,2.7257171226212322,2.5665852806055898,0.5138722886022111,2.0162153785821375,2.1184560262952905,1.9629381699270658,2.2982799097371487,0.4622061679298923,-1.6427229307992146,-1.9787405459934235,-1.6130988205989916,-3.2351522846427376,-0.8897067578277609,1.4755460483639598
121,3.3283805125906256,2.809720467922275,0.3630274076842816,2.331227528716622,2.574931317432709,2.0900462399738604,3.124563709040386,1.2848240275728884,-1.2630129015809664,-0.9672989062860295,-0.6261110595717283,-1.8768787878233029,0.45019025947971875,2.8448411383862964
122,3.665155917633207,2.858351179488851,0.2401019108282405,2.4649959770487486,2.8041729009652627,2.0454601046761955,3.6343190868236763,1.9494405787823805,-0.7960918897860895,0.07059299964527993,0.37701616272634547,-0.40310906260697,1.69410120269932,3.9540352358234796
123,3.7107638720469645,2.710255762862449,0.1562521313420114,2.4073252728031966,2.7909710719373435,1.846073381450244,3.791410049221169,2.3853851819629153,-0.3076639365791172,1.0016620599468389,1.2640672174125862,0.9942546120436369,2.694302762777205,4.676396745194453
124,3.467016882879993,2.3797277461159725,0.112038587338634,2.166459773106053,2.545571679091343,1.5217328241855756,3.599206729928205,2.5536874997969634,0.14187995534108308,1.7186329981759152,1.9286586452892078,2.148233333984855,3.3421009784852607,4.933527777712772
125,2.964221460111304,1.8974843283153529,0.09984537446030103,1.7689528463685193,2.1022062173984093,1.1114846354911234,3.0988566031346667,2.450709852434674,0.5048550554189333,2.152934487736623,2.3035585248675967,2.938558983956026,3.581117165453623,4.7065559765154985
126,2.258735851473475,1.3083680061982326,0.10724022782274199,1.2570670398238513,1.514609513603154,0.6590808138172354,2.362841362040811,2.106673057841382,0.7511112315270612,2.280756426914813,2.3671843555340426,3.304842227150139,3.4121690667668187,4.038121905261371
127,1.4268024424797823,0.6670130347053803,0.12052528058525447,0.6839816213740485,0.8491635489376235,0.2082893840621075,1.4847984861794012,1.57953620409084,0.8698394328626836,2.1220366494123253,2.1427445059714856,3.2496911101430883,2.8894193220587647,3.0249808262234033
