,AF3,F7,F3,FC5,T7,P7,O1,O2,P8,T8,FC6,F4,F8,AF4
0,0.6473022129484542,0.1096823589295693,1.029331323581961,0.13313480590667734,-0.16905566172441364,0.13376559980064157,0.9185150590099376,0.11470528551827788,0.7828032929082162,0.40194788064930825,0.2615313669102527,0.6204957744981419,0.11025356148451079,0.04925481243386178
1,2.430059525330045,1.0344670978415722,2.231124227763024,0.8752023339346139,0.05492189170014701,0.3649714467180239,1.4201813648549346,0.43125134234343804,4.364873415984807,4.900968707650014,3.8351436747169516,3.9928433098081504,3.2178197307327268,2.076232021316746
2,4.062508366312695,1.8817288269455983,3.3060132547104906,1.529864949323876,0.23730826905018598,0.5617437637644295,1.8489970006273233,0.7111607432895737,7.541925451958189,8.962864702344387,7.101144638548604,7.02642753944887,6.066406992086976,3.940604256614897
3,5.4048015466713775,2.5563302203442637,4.144931037827866,2.000631117184193,0.3197505343781221,0.6851927859788741,2.17057637082763,0.9272699603067271,9.999258760024352,12.20912377659644,9.76484096891606,9.411007062640273,8.41499545156107,5.487453348510455
4,6.336209988812649,2.976055748793133,4.654890051391249,2.2115176420289266,0.25864228590537225,0.7051606753792378,2.355952151349706,1.0590055631657673,11.496836195371962,14.344679357775725,11.589039277735584,10.904101642445873,10.066582264073958,6.5891802996832585
5,6.766687049648075,3.0815358741360623,4.769068893870372,2.1176159545341466,0.032735784409384835,0.6046722896639247,2.3846929609694274,1.0949562623187923,11.89574649185721,15.188800036381126,12.418074037495314,11.358684928768863,10.886780981018738,7.158425022514318
6,6.646399430733483,2.8444640553630127,4.454887844821703,1.7119735519481243,-0.3522611220489448,0.3827880497562456,2.2474666938040326,1.0342994552125937,11.173197957625352,14.693068078458404,12.193151523397473,10.739658059422855,10.816503768028047,7.15720704601916
7,5.972159141909885,2.2730038213889583,3.7191124672298748,1.0278355437066273,-0.8628263815327925,0.055468738139829186,1.9477033643168948,0.8868722810544096,9.424246212622531,12.944412990502201,10.95732855414695,9.127120796597438,9.87737253728366,6.601120119447532
8,4.789881731823294,1.4134799574815762,2.6092653415542624,0.13585807547027165,-1.4407264278587255,-0.3456948815942749,1.5021065263812414,0.671867660617998,6.85006246585758,10.152970934335523,8.849622193594538,6.706125054919556,8.169222372191301,5.557906802762234
9,3.1925077825327564,0.3477899660638452,1.2109703545748687,-0.8634693549035275,-2.009766348562384,-0.7767770486978918,0.9398890669558323,0.41533196107260717,3.734181371591462,6.626372003628314,6.08898572352067,3.744287871800781,5.859872272773972,4.140354922491031
10,1.3132458282922275,-0.8135576843351,-0.35872550597405306,-1.851345367274005,-2.4853712571666664,-1.1864821660695897,0.30075169223495546,0.14681208476903343,0.4096237529023878,2.7336864148923428,2.9500467131248116,0.5601345151183568,3.16816363118053,2.494136677056576
11,-0.6855125588169756,-1.9423233455473725,-1.9615577751838968,-2.7047573009785064,-2.785783573289931,-1.5222219926023957,-0.3682369050016718,-0.10438175369878187,-2.779118116685843,-1.1365245231836791,-0.2665598602648123,-2.5138559598278674,0.34200807970128716,0.7818666503930601
12,-2.626749565876368,-2.906329320986796,-3.450863008426502,-3.3114458176251733,-2.8434218125624935,-1.7366049564418617,-1.0165773286534758,-0.31278382653341325,-5.514657146572671,-4.618968158756014,-3.2658418592232574,-5.168957780148846,-2.3662543037852775,-0.8348155208749751
13,-4.335541706725253,-3.584696965559024,-4.685765278754669,-3.5838883346153607,-2.6149009846341262,-1.793573077920435,-1.5947228489057887,-0.45976660189991514,-7.541262392786958,-7.410123574350429,-5.788497698392128,-7.154130379771606,-4.724582967902551,-2.213019835049571
14,-5.656297184129148,-3.882753465965491,-5.545286926176304,-3.4705657206318827,-2.088368015823161,-1.6734419086631958,-2.0584849524114914,-0.5355342290223908,-8.691354471157263,-9.29807697684423,-7.636047537644121,-8.302232188180565,-6.54343963251525,-3.2440799383658208
15,-6.4686865899827595,-3.744742918130418,-5.940894310206941,-2.963108236670009,-1.2871351822382087,-1.3762021072705086,-2.3730248867274724,-0.5398804522773203,-8.900965206582248,-10.180470884487974,-8.688394862404696,-8.545629447209365,-7.693139488049145,-3.8648112305679034
16,-6.700465167000589,-3.1626269264035476,-5.826102768773581,-2.0984226489311735,-0.26905543396450615,-0.9226182320715923,-2.5160236957563953,-0.481654817043148,-8.21258578180453,-10.068909278042785,-8.912121868815412,-7.919690156608096,-8.114568193603896,-4.063135002984689
17,-6.335623241875963,-2.1796490768054357,-5.202031538225481,-0.9555150212192743,0.8783844298804914,-0.3528946162417561,-2.4796921399614287,-0.37706159220157043,-6.76540736073477,-9.079881552542014,-8.35894967817123,-6.554168429114842,-7.8222243120562025,-3.8773427362794393
18,-5.416750873253356,-0.8879279218558733,-4.118201857233651,0.3526357470073877,2.04674213908001,0.2770517269369975,-2.271386995497154,-0.24707096600166653,-4.774512321917581,-7.413925747634451,-7.154952857405552,-4.65394489071909,-6.8994068250430844,-3.389077748841321
19,-4.041125986909228,0.5799358712965363,-2.6683752351604326,1.6912110257141735,3.1180918746516624,0.9013911508951971,-1.912733530695012,-0.1143297415273823,-2.5019044388024487,-5.326134509147326,-5.4821657533257415,-2.471813374559258,-5.4862465804525105,-2.710921761977067
20,-2.3507613211909155,2.064496735704651,-0.9817770408941812,2.918288289454742,3.9779720327297534,1.4516740655472913,-1.4373049958321604,-6.084222113823503e-06,-0.22320218600294442,-3.0920429418541695,-3.5550296264743366,-0.2768483795661563,-3.762072515310838,-1.9701793361533164
21,-0.5173796391702918,3.3969181276460887,0.7894281195286204,3.900493609461883,4.528318498770591,1.8648269932720718,-0.8870677405451708,0.07901205455709115,1.805755068162739,-0.9733196940990999,-1.59461330976264,1.6777363322350174,-1.9242126110562108,-1.290953308868757
22,1.2760694340259573,4.418290144216955,2.485115663296988,4.5278056798565,4.698899508203906,2.090933494179228,-0.307952820010235,0.11221489486404938,3.3782658970637165,0.8125123230366506,0.1963449126562756,3.1834406194587523,-0.16568838640782196,-0.7768343527010135
23,2.855268505533679,4.998557898868896,3.9530581549993165,4.7258665485803295,4.455941403301266,2.0998517493850617,0.25495521837530866,0.0966256912038698,4.358617103920778,2.114815533454443,1.6547704596830635,4.098802158390927,1.3456632737872496,-0.49646671089069355
24,4.073455283637747,5.052771448489541,5.063974128190563,4.464449333082624,3.806946217213234,1.885798576207099,0.762036560456966,0.036906648691273976,4.694022852122015,2.8626473294102808,2.672709082844395,4.362857308046558,2.4843189308052294,-0.4739139424880002
25,4.827148336855917,4.552609424759498,5.724158894459959,3.7611644098496595,2.801114143728194,1.469213615071097,1.1829682670767978,-0.05555159911900612,4.415593979038952,3.0666121627371465,3.205435331701017,3.9985314158097496,3.178599003564314,-0.6851705127241825
26,5.066757136438795,3.5316316662294014,5.88434350879699,2.6800050092216603,1.5252537684394216,0.8954986328930923,1.4992450949028915,-0.16439817711884014,3.628715112108105,2.8101518340621703,3.2716488003032143,3.1059623924309756,3.4154307960682013,-1.0614076194309332
27,4.800760492893266,2.0834293873631933,5.543837840479598,1.3248879867342034,0.09554563044642549,0.23058720728330068,1.7050225694202115,-0.27068919943566555,2.494548260387353,2.2319731857307326,2.9461225857768394,1.8469187534771534,3.2379834368163443,-1.4986885183637761
28,4.092930769814167,0.35268197412861063,4.74953550068883,-0.17111837374603778,-1.3540248071879575,-0.4462951891389501,1.806154227410682,-0.35553273135679636,1.205457224560458,1.502341478538075,2.3460177901230286,0.4224521684184643,2.736657220224595,-1.873037849755107
29,3.0529656583507427,-1.4800040387359488,3.5899376024479355,-1.6597226786607742,-2.6853741323343554,-1.0519252720972823,1.817579970360242,-0.40266966809155097,-0.04217548429651988,0.7966110000210044,1.612762979217023,-0.9533751834875248,2.034690893556039,-2.059002870541336
30,1.8217466888978175,-3.2178150556663945,2.184923621955782,-2.9929922111651597,-3.7707187909503257,-1.509352277602117,1.75950268021263,-0.4006693915036426,-1.0740699268688851,0.2695607090202442,0.8918502569705147,-2.0804932758687946,1.27027579775893,-1.949302617666582
31,0.5531508547821369,-4.669756711849351,0.6724890135112227,-4.03889924199978,-4.506105102658334,-1.757873261087339,1.6530077478864862,-0.34447628919934875,-1.759739761775308,0.03384359270648957,0.31307356849344686,-2.797380993614615,0.5774559553646952,-1.4729123238460302
32,-0.6052088960704527,-5.67241304835856,-0.805987243410875,-4.695142024817495,-4.822572038910425,-1.7614125250163053,1.5158873517499962,-0.23613017011031284,-2.027131560376077,0.14519166108060005,-0.02638635080572719,-3.000380445562304,0.06820011227505267,-0.609028505841326
33,-1.5298167920769694,-6.108863275504499,-2.120236413354645,-4.899739178907048,-4.693675636265292,-1.514147124046639,1.3594040119347928,-0.08459015748121479,-1.868663854096181,0.5960458176659886,-0.07402381407118692,-2.655654492142709,-0.18214977189783507,0.6051944068236852
34,-2.13538711147319,-5.922495832543627,-3.1637205117571465,-4.637253801344569,-4.138480696423499,-1.0425206016382131,1.1865699510251269,0.09529585025531224,-1.3383490240918003,1.31814005486089,0.17216431555395653,-1.8025672645112423,-0.14428722804245142,2.0745032019366363
35,-2.3835559006514124,-5.124049589091866,-3.8630273376566056,-3.939989418691538,-3.21961266123638,-0.4032116016106491,0.992258467480116,0.2845304740009592,-0.5408898616966475,2.1934123738811135,0.6646853320616282,-0.5482652576810421,0.16191918927649832,3.6534179072272592
36,-2.2851518163537254,-3.791004649427611,-4.183134198279481,-2.88405846519515,-2.0365098544647475,0.32287452584151394,0.7651466646694957,0.46218829183395876,0.38533890456639525,3.0715809339862457,1.3141442859176597,0.9457732447492918,0.6709121790921261,5.161489225874237
37,-1.8959437937550419,-2.0593451838775327,-4.128176233015749,-1.5807913561929638,-0.7145641708454927,1.0400046774481053,0.4911707929886845,0.6078451851345853,1.288817879475902,3.7919330197394943,2.002367105370395,2.483574467748676,1.2811041048879097,6.404308093395404
38,-1.3066323766369272,-0.1086162655497644,-3.7379135237991217,-0.16446487492853848,0.6086767208200945,1.6493545623137236,0.15791063728129928,0.7039319984680308,2.026019629349819,4.206414535566908,2.599325183988055,3.8585667826109495,1.8694994617958838,7.197805726857929
39,-0.6285959426222568,1.8580107159274888,-3.080592011442225,1.222274054019935,1.7987089302725674,2.061679684950224,-0.24085087138178912,0.7377548975462197,2.480378425087482,4.201021907880513,2.981682346519327,4.878797740563144,2.309460598980413,7.392850410166268
40,0.02256943648061458,3.6363550067582513,-2.2432783888426977,2.4436681833929765,2.738939271114716,2.209330585685848,-0.7012012576914732,0.7029765177565576,2.5768006594562056,3.7127788763713174,3.0505983462942092,5.390600943918526,2.4893881381315444,6.896986980274864
41,0.543428687975596,5.043888217718025,-1.3209805512160062,3.385101448416351,3.343480964606568,2.05602564021221,-1.2065492656633394,0.600417681175448,2.2901600257905943,2.7401763497906146,2.7465116314956317,5.298006465993283,2.329925582077033,5.690401035127737
42,0.8567760229093835,5.939783624762895,-0.40592395918784807,3.964762181656471,3.566338955800879,1.6029990356578359,-1.727021034803517,0.43810967621569497,1.6470825520916492,1.3457824043948354,2.0589751552978455,4.575624769440147,1.7974035683712488,3.83379955269374
43,0.9215243661168567,6.239999295156182,0.42176047015976786,4.141428300965265,3.4058402728603316,0.8905382089173621,-2.2211005853771866,0.23059629167256707,0.7211912213277784,-0.3493084710187975,1.0302003637181496,3.2734115779427504,0.9116161804766879,1.4668186687746005
44,0.7371631277336744,5.925643121890656,1.100950432070736,3.9175299213770205,2.903722984501648,-0.005519553848745832,-2.6394802700972853,-0.0024495816281688396,-0.3772525811387137,-2.1785316050989527,-0.24827771392506132,1.512591021855421,-0.25335153910968217,-1.2033039187895742
45,0.34231621837987364,5.043698193026315,1.593444867528255,3.337199893011007,2.1389603866263247,-0.982108518728119,-2.9307332652915905,-0.23816949083753128,-1.5157803134937495,-3.9488582823431195,-1.64554646734638,-0.5269961229237453,-1.5757016498886305,-3.9218527807049752
46,-0.19222886617220739,3.700138417393388,1.8847120649606097,2.4796244238274454,1.217082039835316,-1.9211843583881145,-3.0481001846437077,-0.45284503897206957,-2.5563201985087516,-5.463482704089339,-3.006754882320276,-2.6268414485609717,-2.8994280019571663,-6.413488616282014
47,-0.7748805281230204,2.046410339910571,1.9817434954318067,1.4485799859062154,0.256363648003945,-2.7044291292324556,-2.95645071540021,-0.6243862550681887,-3.371945156532861,-6.545472645693826,-4.17219323720973,-4.554822223260204,-4.053332789953778,-8.412858343944738
48,-1.3072612426797292,0.26107080593594045,1.9086485393733716,0.35951294494949126,-0.6273000167906533,-3.2285294294171427,-2.638383201198008,-0.7347371991132946,-3.861834792735446,-7.059531513904903,-4.9976410333500265,-6.092467458986741,-4.873326939483924,-9.695417409075166
49,-1.698826397129639,-1.4710588830931288,1.7008720943224653,-0.6741827484430204,-1.3348250445320515,-3.4189827589699036,-2.0984842128387218,-0.7719452037950594,-3.962812939710442,-6.9292124052099995,-5.37337967556527,-7.06117060871268,-5.225212696224239,-10.104763644908147
50,-1.8800001267209647,-2.9796120410923677,1.399016009297117,-1.5539548138771848,-1.7957415470501321,-3.240506360025154,-1.364985325509916,-0.7316541676672633,-3.656263170397714,-6.14743077581814,-5.2393624231770035,-7.3441051824197565,-5.024908255339966,-9.57306856699069
51,-1.8120165580069985,-4.126763383946436,1.043190233044351,-2.2063716624941274,-1.975809669087411,-2.7025228500032377,-0.4883995379413521,-0.6178229237158569,-2.969769577443575,-4.778895182459063,-4.594457110909222,-6.901039899762673,-4.253229218109428,-8.131904106651184
52,-1.4921759980297096,-4.820616649442545,0.6686277297121217,-2.5896906870665073,-1.8794951312610564,-1.8588363779579575,0.4628528698828909,-0.4425387928857196,-1.9734288503526596,-2.954035074440682,-3.4983857904501523,-5.774069202119626,-2.962899570250984,-5.911833338710523
53,-0.9539119936868208,-5.022525280986671,0.3030073196189593,-2.6960550357084196,-1.5471041208655605,-0.8014094443035596,1.409373466057117,-0.22489070504706865,-0.7713726589827007,-0.855038868015999,-2.0658991457419646,-4.083378842058843,-1.2763788879777955,-3.1304455956417847
54,-0.2618101612025457,-4.7478240324829795,-0.03440344232347114,-2.5492767923312503,-1.0471550477652454,0.351013534952046,2.269420661934499,0.01102301530537967,0.5104395039265723,1.304407414269775,-0.4537289186323531,-2.0134176346671104,0.6257416594282394,-0.06991209820999901
55,0.49758895201991354,-4.060310687393968,-0.33198582246437597,-2.1987668533985834,-0.4652407525070083,1.4679462494545268,2.9681253238791934,0.23876317179884687,1.7387063488131467,3.303300519631562,1.1581738659169556,0.20891809174181133,2.5247547189929245,2.953557377076106
56,1.2278289443262134,-3.06157360695088,-0.5838308874255164,-1.7106698843433235,0.10889548936210183,2.4238398887932626,3.4460491175324672,0.432604458208471,2.787876131763862,4.9385386044619395,2.588814377880236,2.3414279877905853,4.190047392548197,5.624928430978675
57,1.8357156417722316,-1.8768205227554853,-0.7872100581784693,-1.1575899155637959,0.5941491446211817,3.1141312562030143,3.665917432825544,0.5706149999155486,3.554127113180624,6.048148254746735,3.678931140744941,4.155694954686939,5.408332562595344,7.666140141886292
58,2.2438421555174415,-0.6391699535986181,-0.9400758409644927,-0.6084098044690264,0.9288829426575848,3.468464307356021,3.6166025468781258,0.6373719710194506,3.9666554422040057,6.52970992552859,4.311407154218274,5.4644396415690055,6.0121487039382,8.868222502848413
59,2.4008152975004227,0.5256010216984234,-1.0391444123583586,-0.11960776142860763,1.0783330742248884,3.4592760244767975,3.313817271374837,0.6259501217253063,3.9949898376333146,6.351737235940838,4.426579115657767,6.143655149884768,5.903780254001077,9.11580859920132
60,2.2878893203912463,1.5120825302591572,-1.0789573384562938,0.270820786555886,1.0377001529974033,3.104581144907074,2.79744777005289,0.538898390218904,3.6515010406621173,5.556612875213004,4.030310710988909,6.146691225192544,5.071178070215702,8.400954113995498
61,1.9212166276185139,2.2446900317145393,-1.052109014145762,0.5461663056920343,0.8307106124071622,2.464600297240674,2.1259324884441324,0.3880421989808881,2.988834669853288,4.254713903688401,3.193600288675827,5.508498354329931,3.5933785953905777,6.824422782674406
62,1.3495108420361324,2.6827743557844657,-0.9505958017895471,0.7103747349787495,0.504113889501554,1.6327363529346184,1.3685061123344833,0.193100040553056,2.0926101412394393,2.6104471058661143,2.0435901647896864,4.3395297619577695,1.6342272994457108,4.584103899051163
63,0.6475088349024863,2.8212115389194365,-0.7680295241411406,0.78433126703703,0.11915701901689504,0.7221916628554053,0.5964116966024516,-0.020737628593547334,1.0703174149499166,0.8219242145583898,0.746994344033407,2.810159293817791,-0.5752569810847538,1.9518098153978682
64,-0.09385793769375085,2.6868727819349547,-0.502293694763832,0.7998357135014974,-0.2585327577241633,-0.14987662260643553,-0.12569680590891774,-0.22597400442843607,0.03782364580159104,-0.9031948065666442,-0.5119909925028246,1.127720506887676,-2.763988782284741,-0.7588442141518967
65,-0.7792787716942433,2.3318392437262507,-0.15812797866094913,0.7923428741238434,-0.5690757003989183,-0.8784310090884653,-0.7469973578997685,-0.39631387409486485,-0.8947986411120553,-2.372683828483387,-1.556432877009903,-0.49076478406483,-4.654151160125674,-3.229639327915838
66,-1.3213432953682331,1.8245316946208292,0.25088399565186603,0.793668106323482,-0.766992051669023,-1.384610204597905,-1.2354461133273558,-0.5100559247573828,-1.6363363247118001,-3.432459652779312,-2.2407737335984153,-1.846555342938971,-5.99655767174706,-5.17552876749236
67,-1.6517393184512679,1.2400481301015875,0.7013770142955512,0.8258063830193589,-0.8272038589000688,-1.625825056728692,-1.5798355163868676,-0.5529178878171825,-2.1247678721083667,-3.9842252031414263,-2.4710319020010374,-2.7841900188386557,-6.6034264662772095,-6.378387567554266
68,-1.7299863228065924,0.6509492870281948,1.1606296321789416,0.896799207680794,-0.7476686221758807,-1.6005255920806238,-1.7887946716239258,-0.5199112113628417,-2.333603613910786,-3.9959106608979305,-2.218270444396736,-3.21029105864582,-6.374160904270705,-6.712614631456013
69,-1.5486432274036328,0.11953183733525874,1.5884758456519936,0.9992451611443909,-0.5484521141494416,-1.3470250372584407,-1.8869920388653945,-0.41600336342086386,-2.2734938347079603,-3.5036955581510214,-1.5233689543602607,-3.103811818519493,-5.310551678427784,-6.159465494415076
70,-1.1343662458395036,-0.3076759936492526,1.9406136056475447,1.1116369136924573,-0.26756153362748614,-0.9365955703376883,-1.9091794049018171,-0.25546537074317205,-1.9889694506517934,-2.6054594940788434,-0.49227849444075633,-2.5165430069558283,-3.519148514986134,-4.808384711416786
71,-0.5446949196275973,-0.602824390033285,2.1730128166567826,1.2022768045947902,0.045702393949347817,-0.4618492805980542,-1.8930015301047973,-0.05997950339023343,-1.5507991967821988,-1.4465874610526614,0.7177725878163143,-1.5640093403863395,-1.2002208606288667,-2.8452108920060892
72,0.1390446605935511,-0.7570568135217826,2.246951658024146,1.2351320022959271,0.33880389896238533,-0.022085382207703973,-1.8716597665081038,0.14424688694977952,-1.0450077002512965,-0.200014333640102,1.919399018414463,-0.4081681622222424,1.3754907999451718,-0.5287421606157723
73,0.8218664520196507,-0.7785609162629663,2.134093126272484,1.1766915158220101,0.5642158162240876,0.29227174668761724,-1.8675414709778961,0.32997522857466555,-0.560032455915555,0.9568874544550915,2.9207373940752785,0.7656132015141808,3.899386756109485,1.8414251453255213
74,1.4070593569234757,-0.6889383950085857,1.820964692064733,1.0027226585643887,0.6866372307004764,0.4138702192978858,-1.8878012279730654,0.4725633915798551,-0.17375091184048888,1.8655825098852048,3.552234068748171,1.7741163570691516,6.062860779009037,3.961808647577421
75,1.8084761169891614,-0.518621076734909,1.3122267865387398,0.7038197200054859,0.6881514154422638,0.3091679038826654,-1.92261242555665,0.5532320655973262,0.057850237300944886,2.4068028036444367,3.690876744147785,2.460919119454264,7.5955419131247295,5.562152776967989
76,1.9616572809437458,-0.3020859031428598,0.6322140079188109,0.2887989854046888,0.5706078453535869,-0.01589890502958399,-1.946427142659737,0.5615241493663715,0.1087738899797236,2.5154984221903627,3.278492274802269,2.716890876647293,8.29899296578271,6.43817822449468
77,1.832393139142172,-0.07353323860716318,-0.1755940418973219,-0.21469441506085027,0.35492849921179415,-0.5161892929018165,-1.9221363889911376,0.4966243165903674,-0.013312249417039991,2.1883877780672774,2.331495338911809,2.493935564775141,8.071517846243342,6.475958786866403
78,1.4216273685538066,0.13648585342105482,-1.0512822975669083,-0.7625821391055181,0.07749599540136115,-1.113574534894877,-1.807573853640001,0.36736587879457683,-0.26843542260715403,1.4831596329812478,0.9406128850475359,1.8103560344110512,6.920902851812698,5.664977466888009
79,0.7660483325015821,0.30323983317589903,-1.9232383158697306,-1.2994983805441709,-0.21578790124045188,-1.7082213787071172,-1.563423739250451,0.19093629422576758,-0.590626917302372,0.5094884840377794,-0.7395256441123339,0.7473775613453796,4.963513687473299,4.098348297381826
80,-0.06576022042984439,0.408773594506492,-2.7145141874793555,-1.765992986681612,-0.4768437993745305,-2.1933206478277523,-1.1613408909755125,-0.009525320674971801,-0.898376208520091,-0.5868775962338152,-2.5096420548397615,-0.5624460957814952,2.409964102529051,1.9603132733646533
81,-0.9811895163829479,0.4418553880924945,-3.3501953067056522,-2.106754414910066,-0.6630244660490415,-2.471137334603127,-0.5910136727585372,-0.20809223585644981,-1.1077908576330993,-1.6447601140843786,-4.151378126478479,-1.953175409865306,-0.46068299088064985,-0.4972731984820637
82,-1.8745668409393,0.39727147956870895,-3.7650093318076525,-2.278620813464133,-0.7438263403054224,-2.4680651950245864,0.13498823400006943,-0.3795275603072048,-1.1465678447660674,-2.510077270355884,-5.455747960238266,-3.247236035059688,-3.334755237972182,-2.986380151312028
83,-2.639863162681845,0.2748985038029727,-3.9103373476287353,-2.257137726755938,-0.7056738386737981,-2.1465067609885042,0.9794539014456616,-0.5025912359397017,-0.9666814742153338,-3.0571359758682792,-6.250607225726981,-4.2780304297693075,-5.901428661979858,-5.218085130855081
84,-3.1835459033552898,0.0789613624588976,-3.7598087310350627,-2.0406031596185454,-0.5540379684347676,-1.5118447893218252,1.8823139372008146,-0.5627275501291773,-0.5537923086882568,-3.205723872326787,-6.423374278381378,-4.910462713302788,-7.888986990513005,-6.937191721220229
85,-3.435922987490519,-0.18223079455150015,-3.3127792782693626,-1.6508943724921585,-0.31255289851271323,-0.6134591594419236,2.7659248945886037,-0.5537828574555324,0.06821107190989645,-2.9316129875788275,-5.935875303558292,-5.056824812538316,-9.095327971893479,-7.951817219727806
86,-3.3594998500500597,-0.4959691040483254,-2.5952082552939078,-1.1308493411988463,-0.01925176137325936,0.4604207306538144,3.5433040244803964,-0.47854909704768966,0.8384471594842919,-2.269022863660679,-4.82928098248981,-4.6862172341997645,-9.40904113876798,-8.154328711779254
87,-2.9532639764446325,-0.8443802182909941,-1.657749123720461,-0.5385114751601704,0.27950807462239174,1.5933681543997773,4.128309234071143,-0.3480991413029667,1.6660992866400055,-1.3047632643166043,-3.218506439109634,-3.8266212863603783,-8.818746696840567,-7.531232127777853
88,-2.252372919991513,-1.2035630885719142,-0.5712151170772379,0.06094419530679722,0.5364861474960056,2.6554743935959064,4.4464335282192025,-0.18005000367664387,2.4424233546810354,-0.16501034335476267,-1.2769528241559889,-2.559759144921394,-7.410030979648259,-6.161154728938701
89,-1.3233690159317653,-1.5431314996245615,0.5800789854596868,0.6043883551942891,0.7111854554085069,3.52010737506468,4.4447447431261216,0.003965487246690636,3.056016122179473,1.0032324482651636,0.7861556901343181,-1.0098229944386332,-5.350990686690813,-4.201681564060547
90,-0.2556754243758734,-1.8267070518244641,1.7063211548538375,1.0395920931176175,0.7764301589858368,4.080406568389894,4.0995798415049345,0.18123964238116697,3.409089380134768,2.0531581139229202,2.7525587004191916,0.6721105363839666,-2.8688564942525026,-1.8672728670649725
91,0.8493590454540083,-2.0138116782373814,2.720608302871143,1.3323504759853875,0.7228097484982396,4.263255087625283,3.420891399473207,0.330924987500918,3.432288465119889,2.8585018312242667,4.422069945545098,2.3257369587783314,-0.22120179065197176,0.5984105260246692
92,1.890290670039913,-2.0633795571164812,3.546780781380901,1.4707192539286478,0.5602412585885298,4.038843359438266,2.452600021650147,0.4365669294974799,3.095785535862239,3.330214517592349,5.6362728818555805,3.798932492475773,2.3342751945253006,2.9518659281854345
93,2.7766590566649243,-1.9387755262529112,4.125824055720465,1.465663680938495,0.316372061762796,3.4245756600463255,1.2688594101444715,0.4879155072692272,2.4149353948762147,3.4271076081469887,6.295683206937466,4.962856216747872,4.567516673604181,4.9768911651235
94,3.4378907136270658,-1.6138293064819684,4.420209851127374,1.3480043350722415,0.03207100260491027,2.482869265878556,-0.033298445974339216,0.4818183237765163,1.4496062081833365,3.159107347714469,6.368325342103596,5.723210954455482,6.298185011894927,6.506180032220395
95,3.8290237832314897,-1.079050417489973,4.415858885595978,1.1621629181409385,-0.24525802689085574,1.313233926905389,-1.3439921535204287,0.42213960355750263,0.2972500036442164,2.5829398350811177,5.889000033507249,6.026802801150003,7.409872074884577,7.435060650580059
96,3.9327999226059998,-0.34695617210655566,4.121737809080988,0.9577547683202987,-0.46944383171162946,0.03977814012793723,-2.551922744579964,0.3187916707519543,-0.9192926853600756,1.7912438678039138,4.949901795079815,5.863243267197671,7.855516947883274,7.7263574116995555
97,3.7582545490244526,0.5446157320922067,3.567401480201101,0.7804508853933394,-0.6031229995948251,-1.2041298772701845,-3.55580303347676,0.18608249228309226,-2.067492532235486,0.8970888955616272,3.68446514977565,5.262263915118997,7.654385523687799,7.406702279811568
98,3.3364559127385243,1.5321953264842758,2.7990142443838053,0.6636733393697889,-0.6238822801380394,-2.29198513051442,-4.2744402627671665,0.04065910364740948,-3.0220817726316156,0.016505904507913435,2.247194681943393,4.287579320596751,6.882058770953767,6.555803505786657
99,2.714407394045404,2.5300066309266245,1.8744987556530297,0.6225630860091553,-0.5279668137622483,-3.118944265101704,-4.65435986720018,-0.1006468771243444,-3.6808559517125943,-0.7481756292593732,0.7926403270925629,3.0284890827780457,5.6556347012000305,5.291018556981442
100,1.948279787423365,3.437055487088907,0.8584576863367419,0.6512846379966654,-0.3309553000734295,-3.613429186049116,-4.674213023131632,-0.22278708888142246,-3.9771450536760633,-1.3216678903475476,-0.5434271962127338,1.5904425265758957,4.116686231349269,3.749962714233714
101,1.0970718702079338,4.14750016405997,-0.18259193956644762,0.7241715595105379,-0.06530049010152925,-3.7441466150800498,-4.345627845546611,-0.3140520287455417,-3.887307630492658,-1.6638957695221055,-1.65815751609813,0.08563497521616939,2.414430908465242,2.0737952113616562
102,0.2175411912781538,4.563235442026826,-1.1843072677226412,0.8005661034088407,0.2248579312485654,-3.5217860059750077,-3.710587799013282,-0.3670701936347742,-3.432363615408768,-1.772086105595147,-2.4895094341078536,-1.3755714701152568,0.6911291299702527,0.3933263001634364
103,-0.6391364003480495,4.607140242784645,-2.087773648751004,0.8325721885270927,0.49076171499645854,-2.995392407740282,-2.835809445440177,-0.37919596985452114,-2.6737514025549487,-1.67689581723066,-3.017410437661943,-2.691931653482654,-0.9289494059373379,-1.1806930490728098
104,-1.4289505886170046,4.235151698779212,-2.8419656325520264,0.7744264655594175,0.6868357175327555,-2.244129340881373,-1.8049117050569763,-0.3523165932323795,-1.7040418130193082,-1.4336636184669331,-3.2587980831753405,-3.777134304481966,-2.346428444226364,-2.562642546117246
105,-2.1152422616505424,3.445299142700786,-3.405602668017331,0.5918859925256547,0.7779612451329413,-1.3657473509235982,-0.7093860566626184,-0.292178190407214,-0.6341348291311693,-1.110606754208773,-3.2580643308771924,-4.5642027748939,-3.489769493344511,-3.6928673786135606
106,-2.6681071943173724,2.282093509825492,-3.74864325177321,0.26999184393146136,0.7450558023335655,-0.46346757899257335,0.36053929767782356,-0.20737629441735483,0.42110487812023917,-0.7761714251241683,-3.0750129160992223,-5.008637966304379,-4.314996488366828,-4.535336001096452
107,-3.0637106450338987,0.835208716501232,-3.853612118664417,-0.18219055125692135,0.5880838352756607,0.3668777501586045,1.3241111250139694,-0.10817350956471342,1.3567113676899407,-0.48772631250033666,-2.7726246856195846,-5.090448554400708,-4.803253697538968,-5.073531587525057
108,-3.2840951447955717,-0.7678510927882364,-3.716816833914528,-0.7307681795000964,0.3260531933693426,1.0477440243079115,2.116505344311452,-0.005298842651057588,2.089134945265229,-0.2833865400207336,-2.406699378630771,-4.815105497636814,-4.957288596934489,-5.305999582056461
109,-3.317802420183102,-2.3745353642974796,-3.3493250848008835,-1.3204187937834497,-0.00595282981942237,1.5274858697947633,2.692987946459266,0.09114316922583213,2.5640555367775852,-0.17806552236621884,-2.0188728799403557,-4.213307900579827,-4.7977524792827895,-5.242685112615973
110,-3.1612879044003916,-3.824070448096794,-2.7774003316559353,-1.8815509837606932,-0.3621803490891003,1.7839085836093995,3.0305974115194108,0.172561703410053,2.7597936108343437,-0.164017093474275,-1.6337249850294182,-3.3393221015066565,-4.359859486566614,-4.902700638781366
111,-2.8207715926824637,-4.966225799573254,-2.0419928374094933,-2.3401473736540175,-0.6931385501066019,1.8236238538281877,3.1275083078242587,0.23251452194766972,2.686330439204332,-0.21531324935539597,-1.2598572903720011,-2.2676201832169403,-3.6905506136519346,-4.313596850182653
112,-2.313929637182818,-5.679531289852842,-1.1969030630628494,-2.6287502774195626,-0.9529350241508803,1.6776917967226783,3.000515706106092,0.2670719816336484,2.3805828458879277,-0.295056152774829,-0.8940972517718236,-1.0876429837844426,-2.845982854836328,-3.511705579033643
113,-1.6707497781187195,-5.8864297922896105,-0.3053908658922559,-2.6968444474816,-1.1058619684142035,1.394530971081448,2.6812502094414534,0.27492286170601954,1.8990330808129705,-0.36375547312390133,-0.5275003209687098,0.10324765191703453,-1.8889841559241856,-2.542793215384893
114,-0.9329733806335648,-5.5632148302630595,0.5647266975529279,-2.5189801386688804,-1.1312499342636348,1.031385881081865,2.211775233212919,0.25725434469301356,1.3090363650524464,-0.3872575400152386,-0.15164552936275583,1.2082228896280949,-0.8861119177901624,-1.4621673198917382
115,-0.15180697507388322,-4.743310639224551,1.3471202508425988,-2.099346100142053,-1.025926384446004,0.6457191448360812,1.640141500615505,0.2174484380691547,0.6801112463504915,-0.34286785782749435,0.23614693730282477,2.140080071521078,0.09589381559853674,-0.3335198143849796
116,0.6160522193458936,-3.5133940548924953,1.9834590975765984,-1.4720808974909738,-0.8040278652551854,0.28774844678360256,1.0163124181254415,0.1606387783849952,0.07630020650811574,-0.22278471516704992,0.62966328492783,2.8299148280969186,0.9942196960637686,0.7738833645011751
117,1.3136538119564807,-2.002883540511285,2.429499174655915,-0.6972979908247049,-0.4943423871065171,-0.004973922409318997,0.38867899614110346,0.09316790767097347,-0.4496584826282059,-0.034545444162521165,1.0131641984349826,3.234175286708113,1.7543370296087468,1.789632290713013
118,1.8895670794986557,-0.36826272591228876,2.6598051469848465,0.14652727971122767,-0.13572909839717598,-0.2104601489005899,-0.1987889493001742,0.021980241028259507,-0.8599958985481002,0.20124505997213005,1.3631734351494738,3.3389839069422287,2.334085264221558,2.647772872026356
119,2.303305423338465,1.2255898263761962,2.6703022228788345,0.9726184548475459,0.2285830597800714,-0.3226177523715416,-0.708812634237382,-0.04601518658494046,-1.1334150057714167,0.4551894854171008,1.6521218559920245,3.160932806535753,2.70687502206772,3.2928162594069774
120,2.529550313629902,2.6245360358124104,2.478171639342731,1.6968908079751448,0.5569108181835302,-0.34934063420184874,-1.1125733111832135,-0.10457353934617894,-1.2646914903015951,0.694412233446628,1.85298757671058,2.7440768960922313,2.863476189799605,3.6852572824864605
121,2.5605312163612313,3.702283623293793,2.119042062490773,2.248292100081417,0.8143867051085084,-0.30896061999490737,-1.3910138206784355,-0.14868772724524965,-1.2627839011673843,0.887910573893118,1.94398182142614,2.153468578103545,2.812064331174608,3.8057458650703864
122,2.40624742872303,4.373359753147812,1.6418942416257594,2.577085465626243,0.9768994971760246,-0.22580518407529634,-1.5356331372029233,-0.17505244444898152,-1.1479158859047585,1.0110874953580296,1.912426814017762,1.4661680849808922,2.576486109784239,3.6572550212880253
123,2.092586849351717,4.600517682926571,1.102488128068403,2.6600441439064633,1.0332799905952903,-0.12562400034398777,-1.548672450594759,-0.182362700975818,-0.9480750003674431,1.048879054565468,1.7572068311543811,0.761098261041449,2.192998115347662,3.2648894601503224
124,1.6577251738985228,4.395959276768314,0.5563575630668238,2.5020253076271466,0.9856004898111003,-0.03155185814518275,-1.4425708311943917,-0.17139921239365197,-0.6953165989118711,0.9972045608784685,1.4894796507407218,0.10929967470314124,1.7059657921985312,2.673319623575961
125,1.147415809248693,3.8165977427089803,0.052449415975730634,2.133924611629601,0.8477355686648089,0.03890109149213303,-1.2386056294762917,-0.1448739906502138,-0.42219571449799853,0.8627643364584466,1.1316461086221217,-0.43395821458839956,1.1631341710526182,1.9421508999521957
126,0.6098747346917072,2.9543340143028667,-0.3716898965107792,1.6075035544625131,0.6425564830157189,0.07556025013787773,-0.964725049439197,-0.1070413424803199,-0.1585903099371987,0.6614414668397858,0.7148373245161697,-0.8341209179619932,0.6110844694746205,1.1398008213552053
127,0.09092851930507226,1.9228880650658673,-0.6926109943213865,0.9879643376473825,0.39827604129055194,0.07595030489177905,-0.6527071423982509,-0.06311640582407185,0.07087310805630179,0.41571008926186576,0.2753612879703164,-1.0788156979630195,0.09138541174028621,0.3366271068311508
