,AF3,F7,F3,FC5,T7,P7,O1,O2,P8,T8,FC6,F4,F8,AF4
0,-0.8215691910159575,-0.5662797851691664,-0.4685232340995371,-0.6103262250482544,-0.7856614138748358,-0.4993149802053236,-0.520703472898806,-0.08680652095627385,-0.5401771421937556,-0.4662918157654956,-0.3256599322343356,-0.37887592572339,-0.37656253647735743,-1.0660594143369166
1,-3.320759050204582,-1.7805642235240102,-1.8547851366242323,-1.3451920831224564,-0.7772701182481441,1.3382022191960539,-0.4349822495316762,-0.1620560361353516,-0.7285134347263482,-3.867787731343188,-4.700045325783974,-3.244220841776193,-3.9760649515457653,-4.885004554687419
2,-5.45332631486085,-2.7720779568624287,-3.0430582367241206,-1.9188745033840775,-0.6872794984118664,3.0702219422052304,-0.30917125249307414,-0.22363491166859223,-0.8230615172553072,-6.883231606479473,-8.626076262934495,-5.798529609637953,-7.203968491822174,-8.218628563746071
3,-6.956531225835618,-3.404445842376032,-3.875179811974708,-2.2254483346024405,-0.487146149558387,4.574595966645728,-0.13015127437345078,-0.2641205833729493,-0.8060612519018382,-9.221289019634158,-11.731553470540023,-7.791217756653061,-9.749472290293154,-10.709752616871766
4,-7.644232199010362,-3.589885451859214,-4.234390306807429,-2.197009981525595,-0.16615324073845375,5.749462780490474,0.107213726061467,-0.27791248432880544,-0.6732794231854329,-10.664464303970298,-13.73264630691512,-9.029705947158844,-11.372406747420094,-12.092737985633653
5,-7.430639424706675,-3.301453375308982,-4.060172916587253,-1.8144987928093697,0.26549892328340413,6.5221508492941584,0.39796832564386403,-0.2620052514166076,-0.4350441315923204,-11.092358539355992,-14.46399298930066,-9.400116801068833,-11.928876132849927,-12.224324633786997
6,-6.340918695263045,-2.57655446632632,-3.356166062956919,-1.1111910309573627,0.7771620917417448,6.854764272245628,0.7263994954568799,-0.21655947881442467,-0.11560605027281633,-10.493573941560319,-13.894756719808122,-8.879225553930844,-11.386036156777253,-11.10014488777177
7,-4.507294678585485,-1.5112363787696388,-2.190171517174984,-0.1683530728637538,1.321680735084686,6.745919479061994,1.0669892802031489,-0.14516670273988072,0.24918702129265033,-8.96488790597046,-12.128850024796781,-7.5362599264681425,-9.824313907243825,-8.854829476126584
8,-2.151317306886928,-0.2461810233791225,-0.6863025797885945,0.8962440923772576,1.8421173346093893,6.228650324669639,1.386955860272152,-0.05472423731607306,0.6157447424426818,-6.697886282318314,-9.389557097072279,-5.52434933643592,-7.426890839588373,-5.745669276502741
9,0.44515121172398986,1.0534531876474467,0.9896832602992535,1.9451531687230608,2.280108330122681,5.365011614008829,1.6501312616258021,0.04512515821675568,0.9377882519968581,-3.9547945363703416,-5.990749958112946,-3.0626572474990272,-4.457798413932213,-2.1218534443119905
10,2.9761720119994854,2.221286444043714,2.6499781002091303,2.8408277255421406,2.5844418000107483,4.238300703426212,1.8217137244125923,0.14297642402841373,1.172100218051998,-1.0365813615340993,-2.2985422582804533,-0.4113382322680137,-1.2313276554373302,1.6168990858969823
11,5.150232790859747,3.112602643259471,4.106773190023986,3.464976648427145,2.718442751664226,2.9440257380731483,1.8732637989492877,0.22698816623879745,1.284306731416576,1.7526437072518284,1.3116653763248558,2.157697107028333,1.9235402742774022,5.067197764496124
12,6.725878970956357,3.6235221787377987,5.194042897913935,3.7348209968688537,2.6649872268274395,1.5807602650955122,1.787218401762816,0.28640503499424635,1.253918391407934,4.140490002897859,4.497361207710821,4.3907567384359245,4.6994365698553855,7.86857107675908
13,7.539868655098329,3.703757062065067,5.786442080179612,3.613922970423185,2.4283930426617406,0.24186316895954088,1.5602053551508,0.31307757877403564,1.0778529307979916,5.916109222650468,6.985213758990288,6.0795857159855355,6.843381208585941,9.74412344086566
14,7.524403849885425,3.36128138921383,5.813120362651741,3.1161482073233553,2.032974551382761,-0.9912323659157591,1.2045675080552292,0.30275380104024596,0.7717949435466601,6.951405895584823,8.597305514597657,7.082713490442378,8.182278886944214,10.530391586970406
15,6.7115824138220646,2.6585155759926686,5.264938510079263,2.3024070505789513,1.5186080011407184,-2.053777067117089,0.7477438324723017,0.25592441741109323,0.3690169454295676,7.211234866506384,9.264570195441253,7.338564059531846,8.638333466742328,10.192933455560848
16,5.225003410352556,1.7009102786994035,4.194416939425053,1.2709189141788062,0.934141822524502,-2.900426643281548,0.22947542156267942,0.17804992175803658,-0.08335033861831803,6.751659356179682,9.026424649713661,6.868985235641943,8.232861582248454,8.826003192107247
17,3.2601870522649246,0.6199264749707445,2.7086458602128585,0.14268234188180556,0.3298266554413396,-3.506071853584152,-0.3028424528803597,0.07907864175278147,-0.5302148157500457,5.706913967531698,8.017376781157605,5.773023583185583,7.0784367165923445,6.636676992676229
18,1.056900349650237,-0.44682281143896146,0.9562272217701535,-0.9555292475122885,-0.2499206306564496,-3.8650620037778562,-0.8000192025794874,-0.02772976425913206,-0.9158439635502725,4.267175894391937,6.443007315881967,4.211947905401873,5.360731545878164,3.9157420584771105
19,-1.1325776706614796,-1.3751848669305313,-0.8900044624213725,-1.9080743841316545,-0.7721906275779983,-3.989156818653179,-1.2172715856021812,-0.127548095655383,-1.1916055241507146,2.6504008439703357,4.548960688299301,2.3875631220986446,3.312662231381528,0.9992952677154993
20,-3.07487239826328,-2.0709158428345242,-2.6523025174264414,-2.6248317083895065,-1.2187620374437709,-3.904529250910586,-1.5198269971999134,-0.20606466713247923,-1.3230061348290079,1.0721754303941373,2.587291906363252,0.5166310068223231,1.1843121269767183,-1.77389222745603
21,-4.582505665574732,-2.4806541770254107,-4.167044052709508,-3.0511528337130907,-1.5863150998191928,-3.648100886433548,-1.6870749488464285,-0.2516077167065656,-1.2949549724759362,-0.28231334964214105,0.7846319950546572,-1.1953690529929994,-0.7874841208450055,-4.103743558013028
22,-5.533179691545294,-2.596041427589179,-5.301300416208764,-3.1722235543668367,-1.8837386255791426,-3.2634556838237816,-1.7146545829572988,-0.2569883993661566,-1.1143913175660334,-1.280500428057372,-0.6838339723138166,-2.577895579643093,-2.406120517192838,-5.76374566664121
23,-5.879300565104528,-2.450718360422667,-5.965164636806497,-3.0115642400966074,-2.127112374094744,-2.7965689826822917,-1.6142088453107404,-0.2207666391837604,-0.8097632680634216,-1.8560700376776116,-1.71154997283816,-3.513567078351296,-3.5355718114128982,-6.625027869060407
24,-5.647138699758717,-2.111028665256275,-6.118659876534754,-2.6242758484254147,-2.3333651491383325,-2.29161042689468,-1.4109159795117974,-0.14772026854191422,-0.4272855516057777,-2.0124720962078073,-2.267228640411565,-3.948849301929517,-4.111897934421819,-6.666847693666772
25,-4.926479400434416,-1.6622021775216225,-5.772768516284077,-2.086372973820638,-2.513855664632533,-1.7871170329790003,-1.139256307406232,-0.048410673308806336,-0.024380273463706137,-1.816269109956398,-2.3907317841816855,-3.896115384166236,-4.144906157967358,-5.972530948852585
26,-3.8528722297468514,-1.19242840005881,-4.98485399149337,-1.482037539706758,-2.669156606636762,-1.3128614415413307,-0.8377261173797933,0.06213083133559747,0.33884903090805324,-1.3816919853157166,-2.179430057565925,-3.427127919455759,-3.7102907381314187,-4.711875015162925
27,-2.5854738876288024,-0.7774801450997149,-3.8494013116222057,-0.8908152864605204,-2.7861346631306656,-0.8877351741073921,-0.5433326783904342,0.1664414465938916,0.608906020654404,-0.8489963209082609,-1.7675080667131804,-2.6591186073478363,-2.9338013508542367,-3.1128326342029187
28,-1.2838903820475296,-0.46837699182232706,-2.4854985714172853,-0.37665193981039746,-2.838038041798061,-0.5189086632859551,-0.28668591585490455,0.24712327898527164,0.7475446921659075,-0.36003350988389055,-1.3015287392844264,-1.7356049237452684,-1.9699810051487188,-1.426699238653299
29,-0.08733148324788464,-0.2840249113531772,-1.0227683559382326,0.019733371024183627,-2.787788130601191,-0.20241220933060833,-0.08835971516000063,0.2894514753593976,0.7383521291132383,-0.03477210010289289,-0.9159367229797705,-0.8047530449178226,-0.9786344201618519,0.10816463110882245
30,0.9011645057415005,-0.20992470146101289,0.4124880168854361,0.28423544525588906,-2.594107364229915,0.0748853199118614,0.04303814966241984,0.2837148949070744,0.5900782670417992,0.04772043206275418,-0.7120296937663602,0.0016253525424420466,-0.10236227988596969,1.2989476731604466
31,1.6235961612631717,-0.20303996088745954,1.7093423068897662,0.42830168411682007,-2.2195943871318637,0.3321143644168176,0.11093234547418906,0.22693150694764377,0.3359678854103047,-0.13893491971070512,-0.7432938728905943,0.5855129226563746,0.5517901208193611,2.0228427395514417
32,2.0682536520778942,-0.20190761641966176,2.781259517459738,0.4838960497683296,-1.6394667961668692,0.5904531093197256,0.12911453515305216,0.12365609187187812,0.02896802970108052,-0.5654996021248758,-1.0089850728575516,0.8942100481344399,0.9242232110465004,2.2401178774672874
33,2.2638476915291066,-0.14021365902393707,3.571356310104187,0.49553640577644464,-0.8494972163998216,0.8689124356459801,0.11872140865857188,-0.014282291768614699,-0.26662959025428573,-1.1533021354159008,-1.4565857738343775,0.9245030130288907,1.0068822581963008,1.9943051644271943
34,2.2680529901052755,0.03852401022784645,4.053725757199958,0.5108392155811474,0.1282937168783637,1.180437496419025,0.10439258347477076,-0.16912702673627128,-0.4859199809036518,-1.788396796644619,-1.9924555378205862,0.7191588692339704,0.8394215963808491,1.3999344644310945
35,2.1527764408425734,0.36773357973216375,4.231193784868201,0.5711560457458894,1.2433534467301481,1.5288664008040795,0.11020391212055843,-0.31948052758566137,-0.5748366274067459,-2.341346048311713,-2.4987993066984306,0.35659030846094236,0.4984720292205417,0.6200777942860306
36,1.988835397942483,0.8483972126069673,4.13031022261875,0.7037895715857702,2.418421866089156,1.9071590947795032,0.15593305866253174,-0.44323937884747466,-0.50046120688975,-2.6894321511355486,-2.854178493075543,-0.06444295245250818,0.08204444425903895,-0.16255432550208773
37,1.832663623440182,1.4452708370440894,3.7946531710213987,0.9169562216296411,3.5555676380775325,2.2971230255458246,0.25410293484940416,-0.5207729808412346,-0.25841138170203976,-2.7377547641245483,-2.954318517128724,-0.44250891812291226,-0.30824537808917973,-0.776334612142849
38,1.7171740368578188,2.0896029419680247,3.2776071766905988,1.1981760709190405,4.545903976135993,2.6706571662786733,0.4080993387299596,-0.5378807814218605,0.12410640652031227,-2.4358713292056624,-2.729993652220345,-0.6906662291054522,-0.5842370162600444,-1.0884633047831844
39,1.648088393448469,2.688170814941381,2.635667289323435,1.5162029097198584,5.2818701787221976,2.9923492458723047,0.6115027470316703,-0.48807184161328193,0.5903854013480873,-1.787352434081229,-2.159285523846937,-0.7503938824491376,-0.6849364535034533,-1.0255197242772989
40,1.6060365464399646,3.137379907589826,1.923058853165092,1.826052541333838,5.670527599957745,3.2231156863798365,0.8486309825106357,-0.3737923302847205,1.0614808559091282,-0.8507434060812028,-1.2724276170167126,-0.600168686834476,-0.5849161345393789,-0.5838351104056555
41,1.5537016139087247,3.3402708361715514,1.1881053976503673,2.0762287804356645,5.646092562077893,3.3244794015828667,1.096169482999507,-0.20637384588096933,1.4478383352221986,0.268223642673027,-0.14861734115792297,-0.2575081803620488,-0.2964027477073518,0.1716246368174349
42,1.4464126845871703,3.2237010080737676,0.4713936451705754,2.216946022040908,5.179950288552338,3.263037922677135,1.3256725238397589,-0.004668506187357275,1.6636965050584058,1.4319398377611838,1.0945819147268412,0.2255863849009465,0.1348696267874742,1.1193334201254714
43,1.2440095139156704,2.7528201144112745,-0.1945538321545363,2.2080410096260334,4.286663924372216,3.0146777754312257,1.5066528422121623,0.20745394301081668,1.6420815192966802,2.491324673407649,2.3175044053206797,0.7727432980526959,0.6389493815737445,2.101989186577195
44,0.9216215281031582,1.940283918016305,-0.7846197705165084,2.025363818267571,3.0249782856097664,2.5681304317423415,1.6099396404102393,0.404381933037879,1.3479353823714593,3.308080919993675,3.3777393582318767,1.2969387523138995,1.1342281945134345,2.952449244588103
45,0.47724773199556697,0.8484163455394569,-1.2800543738130477,1.6647197196915708,1.4934577996603002,1.9275288580812153,1.6109766225972217,0.5623118121995083,0.7870471473237555,3.7752627502851692,4.149608648853078,1.71532665038184,1.5409819359232282,3.5205546267596484
46,-0.06534774145903768,-0.4163752113230122,-1.6675980417790357,1.142852250892301,-0.17889118682409463,1.1137027119541054,1.4927511183947968,0.662522802157375,0.009000000929429547,3.832917024816805,4.540877655952052,1.9626042966119852,1.7936074981621946,3.6965886171835836
47,-0.6590106842302706,-1.7163777983794957,-1.9391115402614627,0.4954428682537832,-1.845977784922204,0.16404001896695114,1.2480880836902806,0.6938739934330225,-0.896758899493684,3.4763963022135043,4.504359115511693,2.000721552730987,1.8496845008691725,3.4278130103118247
48,-1.240425434657882,-2.9007975613953905,-2.091798484026646,-0.22742945718036137,-3.3603631146122015,-0.8691576059165512,0.8811025782701718,0.6541516513100725,-1.8115214336737533,2.756173528568829,4.042964492595044,1.8235002555533306,1.6947063071370905,2.7257747328421456
49,-1.7408600187960788,-3.8267522402765364,-2.1288419757940904,-0.9675540838743999,-4.589416245945431,-1.9217899459198833,0.40767502216359147,0.5500867589728042,-2.6032805362087377,1.7693887450106955,3.207827063824112,1.455705700642538,1.3421787554088283,1.6636391133063886
50,-2.0984220152465047,-4.3798412739672425,-2.0600772878790363,-1.6655491709041295,-5.429835020606533,-2.922386974957961,-0.14510955695184205,0.39607987231200525,-3.145809598905035,0.6446794764427842,2.090176156109103,0.9471108463475887,0.829600463987099,0.36440443653829707
51,-2.2695190597092543,-4.491101096648859,-1.902231958672609,-2.2674518365822443,-5.818669935985617,-3.797565921708166,-0.7405375346322143,0.21187588145435693,-3.3380274026683026,-0.4771310474239298,0.8085157001394166,0.36293558755507754,0.2114696080826505,-1.0177785110674955
52,-2.2373376606693287,-4.147662195192409,-1.678305201001037,-2.7300157288573077,-5.739448950129854,-4.478102839759353,-1.3347598096956166,0.019591342789328746,-3.1206592586246966,-1.4633449636807914,-0.5067698859316251,-0.22741141957947214,-0.4491824351947248,-2.320021780563021
53,-2.0156751981637115,-3.3953646946358296,-1.4158252731087744,-3.0240800457844097,-5.222664407208888,-4.905096566125409,-1.8800365605859908,-0.15941407969581295,-2.487509449997757,-2.2075162566515054,-1.7290606336846501,-0.7611935653295198,-1.0891827015271138,-3.3933063541606967
54,-1.647294404002077,-2.3328138585340974,-1.1439848544285065,-3.135749315931109,-4.340652395202418,-5.035638372348549,-2.328519539073974,-0.3073273154845512,-1.4893926615010564,-2.6426852972092627,-2.7492541676661375,-1.1909389298534034,-1.6522244985433574,-4.121929273094669
55,-1.1969690506414805,-1.097674775671251,-0.8899535573534177,-3.0655186095782336,-3.1976530594594816,-4.8474004937664805,-2.636329303131818,-0.41192106944932105,-0.22983777682451284,-2.7479172161756367,-3.4859874342328694,-1.4894512120545693,-2.093637532568427,-4.437146412990249
56,-0.7403700492526413,0.15279108216139436,-0.6749310441409635,-2.8258207601388294,-1.9164729562273695,-4.341629329920323,-2.7676654649543675,-0.4675841665859409,1.1470773950699897,-2.547508439894894,-3.891403581112949,-1.6506941145828458,-2.382629007643887,-4.3234303928564755
57,-0.35071972550317143,1.264048400118801,-0.5106653499359741,-2.437696134686227,-0.6235853301736808,-3.5441669442621233,-2.6986619687833433,-0.47527591835862976,2.4751725959624093,-2.103451456264925,-3.952322124602985,-1.6868237392570133,-2.502248706233391,-3.816987430140406
58,-0.08557510353230148,2.106126043893419,-0.3971739648544852,-1.9273521503724051,0.5653526335300312,-2.5043106662754115,-2.420661288175205,-0.44152550158197407,3.588295593494595,-1.5028142479244515,-3.687368329979279,-1.622350334062049,-2.4477430485388614,-2.9973486168907493
59,0.023887906527512857,2.5917037860822734,-0.32225856482528986,-1.323285134520469,1.5577241936074155,-1.2915357201204756,-1.9425438583086674,-0.37674582815772734,4.342923825166873,-0.8424189663278785,-3.141118751085157,-1.4868759677741552,-2.2241681116841074,-1.973789818637363
60,-0.0208732137575266,2.687761792040675,-0.2631206309356485,-0.6544112369716059,2.2924639450430204,0.00967362582508456,-1.2917359678351512,-0.2932166083015938,4.6379113109608054,-0.21348762015764694,-2.3765661555106803,-1.3080074177928307,-1.8441079722414506,-0.8689218525370532
61,-0.18518696478362073,2.4190944307943814,-0.19001570436347007,0.05064975912443839,2.7439703986480874,1.306442902755897,-0.5135553263592166,-0.20310436644574326,4.4284665054532075,0.3112616248696661,-1.467194277596881,-1.1058766937071074,-1.326121634979971,0.19801892514372813
62,-0.40649976519278475,1.8632270348680016,-0.07149809740053911,0.7633066277284365,2.9212036276800153,2.504992306405,0.3313428541767851,-0.11683318189607522,3.732315220463045,0.6861771718403821,-0.4897219921236064,-0.8902667710925858,-0.6941872911178949,1.1258428056195031
63,-0.6048485172316561,1.1375689971423708,0.11952014317227572,1.4541692860202766,2.86242074548679,3.5183300731882667,1.1714773997258157,-0.04201646469197345,2.6271860491099845,0.8958812070693458,0.4817958381569997,-0.660736745060742,0.02198067082727576,1.8422089445293663
64,-0.6968168701221472,0.38079082578528295,0.3998770379456897,2.0922310767487895,2.626577270313817,4.27349028111486,1.930822158973718,0.016967722532562773,1.2400642368635495,0.9530958893859844,1.380241732605432,-0.40949708444095634,0.7862004912523025,2.3094323243006962
65,-0.6107108701348088,-0.268746957819074,0.7714543601594233,2.644635858265876,2.2828232940397313,4.717698620133882,2.5363819791218445,0.05880128261982366,-0.2701134586728473,0.8919876687108668,2.148186513172842,-0.12623082978411018,1.555332287161559,2.5249610050329507
66,-0.3004597182898862,-0.6942797439813801,1.2185351389536685,3.07747276387439,1.899697900340684,4.822936842376926,2.9263080950315503,0.08459571192453656,-1.7336996637799733,0.7586346629573308,2.7394802583026205,0.1963085553975888,2.279700786451179,2.5169505523410347
67,0.244071749060746,-0.818487194020244,1.7078033274692257,3.3578001010559255,1.5355589325185246,4.58849193777134,3.057577320702375,0.09701278123419271,-2.992364239199383,0.6005996004335241,3.1201565151466126,0.5572110913485231,2.9049488383564834,2.3359986036798714
68,0.9921167961569863,-0.6152974720303147,2.1911556966345245,3.4567992201464346,1.231501205857872,4.041213820947602,2.9121563147972576,0.09935557988402936,-3.9187363593331788,0.45759202010827343,3.269083132507683,0.9439893678209025,3.375545934424492,2.04454129573764
69,1.873311735917149,-0.11396268360956634,2.6110478727133484,3.353660303657778,1.0075686745952486,3.2333655974692195,2.5006300341950465,0.09481780856597302,-4.430954996882519,0.3548481420853074,3.178630849823521,1.331623674915095,3.6398057438569102,1.7056154853416805
70,2.785226415172898,0.6051244880108458,2.907684282773871,3.0395672578363473,0.8625299892853912,2.238136348762677,1.8625139279365024,0.08601422953329718,-4.500287935937538,0.30022746298462927,2.8553988968405055,1.684378612054361,3.6558931645691453,1.3726553513330115
71,3.6061245159741024,1.4221928619530833,3.027055910734865,2.521031048077472,0.7769473710639986,1.143097428287164,1.0628817449432368,0.07483261091255669,-4.151094040800126,0.2852500130484554,2.3208006211348136,1.9601581934082437,3.3980000243501993,1.0817496612133026
72,4.211176990559763,2.19567011788189,2.9286828071706807,1.8218493794198685,0.7188075770093785,0.042108733737758475,0.1854751723858181,0.06256533098199125,-3.4535858752182094,0.28952687308744607,1.6111337465217983,2.116687890369882,2.8617012017357037,0.8473826685213207
73,4.489852023078162,2.7830102573313655,2.591954011150426,0.9831419558755633,0.6506651083791302,-0.9736031979961938,-0.6769681126266232,0.050214383515242926,-2.510915171253731,0.287410415820945,0.7766856458113772,2.1184756938149336,2.0675064214380736,0.6621664482902017
74,4.362046078479575,3.061789559584786,2.020164406284107,0.061191537906647823,0.5371076188880237,-1.8243036705369449,-1.4339314134812482,0.03883000646187592,-1.4428869218478289,0.25531802951744215,-0.1205215009334525,1.9433595698732349,1.061804566142302,0.5004992555942767
75,3.7907091510393878,2.948101008535741,1.241682877114642,-0.8768385247136682,0.3513966840495531,-2.4495675959113243,-2.0083182079242543,0.029746299162489616,-0.3689855222777503,0.17812459869977332,-1.0105585672952808,1.5875104194498173,-0.08526597614539386,0.3255180963110761
76,2.789211616980154,2.409698839712241,0.30808749471490837,-1.758897673316294,0.08034204245370187,-2.8141091754059047,-2.3459943572024127,0.02461444285506865,0.6066900976698688,0.05328064374646578,-1.8209233297704,1.0680093116209837,-1.2850473579282666,0.0982266700320627
77,1.4224198894995457,1.4721041446219578,-0.7104931228870628,-2.5150563239621953,-0.2732077569434704,-2.910838625358228,-2.422236750948914,0.02519604466800866,1.4065098522389328,-0.10815991058949574,-2.4829921628909344,0.42250663143156936,-2.438249060481257,-0.2126617360694108
78,-0.19871237688443374,0.2168646494331611,-1.7322440232957115,-3.0846585942598215,-0.6904862747189194,-2.760654358991652,-2.244106847853082,0.03295154834638837,1.985190515451933,-0.28373732150059955,-2.9389096697233663,-0.2940709834110941,-3.4446288438599506,-0.6217755104003122
79,-1.928386741989925,-1.2277717529465346,-2.671891937943697,-3.4227120683878414,-1.1393769738738988,-2.408879225875564,-1.8483977168950336,0.048525105798558746,2.3302387241996905,-0.44445391179293936,-3.148040396231691,-1.015348890886604,-4.213310075888639,-1.1205699228751005
80,-3.6016457839710765,-2.702501397206164,-3.4493200965845108,-3.504704473577938,-1.578922344962997,-1.9187078910328916,-1.2954973655982565,0.07127188501320476,2.4576686082638397,-0.5612003678137373,-3.0920517968069374,-1.671075068892322,-4.672455089747589,-1.6744962044557068
81,-5.052566922973,-4.03683543373962,-3.997581144278002,-3.3292434043234906,-1.9650222837207925,-1.3624787562354628,-0.6601479915875264,0.09898474545198398,2.4044126478627983,-0.6113131063265884,-2.7777975632894534,-2.195390197816757,-4.777079278480084,-2.22461587783586
82,-6.132740717823976,-5.070567247346335,-4.269423691055338,-2.918193208005425,-2.2564440955015046,-0.8119387879059137,-0.02055309980250864,0.12794970312537188,2.219208560555375,-0.5838180792994029,-2.2374116437049865,-2.5346593688302965,-4.5140247156559035,-2.693783650732728
83,-6.7278083169849605,-5.674019960386643,-4.2416509125985415,-2.314292502621925,-2.4202718225012925,-0.32886332335805035,0.5524820305253519,0.15339622767816782,1.9537278066141133,-0.4821969482230882,-1.5253758225832346,-2.6537981187815465,-3.9034745747265887,-2.9968135401293376
84,-6.770111751819082,-5.7644416953806,-3.9169050833449988,-1.576536919598228,-2.436050936746485,0.04262076002618392,1.004728407199872,0.1703179236394631,1.6553531880959853,-0.3240353385719978,-0.7127469742086492,-2.540253228327254,-2.9968308013292786,-3.053369019662672
85,-6.2460290365346065,-5.316446906933834,-3.3227857863976307,-0.773870079574222,-2.2981112623498006,0.2808932964006451,1.304678701456395,0.17453591757273043,1.362419127784432,-0.13758051602619215,0.12083067030569979,-2.2051543965455154,-1.8712432518197446,-2.8017938329608887
86,-5.197249673751101,-4.365207340405611,-2.508522092263258,0.022084028011917993,-2.015839195507651,0.3881882396015535,1.4458135051862884,0.1637827506598626,1.1020472058795594,0.04408402964085449,0.8963187665912273,-1.6815828077249786,-0.6215086532572224,-2.2118217132058935
87,-3.715998373920317,-3.002065968429025,-1.539689080966383,0.7444101598242225,-1.6119761316558603,0.3882802798899822,1.4447715473685676,0.1385271957254966,0.8901047521169579,0.18999288861718938,1.544423794155187,-1.0203310992053847,0.6496124173565603,-1.294122564312975
88,-1.934931445211256,-1.3632469135233387,-0.49165047497083336,1.3375701762913086,-1.1192992507327977,0.3209268321497149,1.335861360571772,0.10226791925544622,0.732428031952449,0.27784607280662876,2.013370674324834,-0.28387382938415007,1.841440514819901,-0.10496017022588985
89,-0.013018094984847654,0.38677484773130544,0.557500846768996,1.762604967969602,-0.5762549141858527,0.23397482894932012,1.1629306589416992,0.06110950515232535,0.6263683519667926,0.2986761208173457,2.2741767665576056,0.46053665021467405,2.864583123077684,1.2551890273430333
90,1.880888588435281,2.0750168643842635,1.5337469606647522,2.0003099951079513,-0.02223610650914475,0.1743852899895606,0.9700251920571864,0.022587646052799427,0.5619414303813266,0.25856532178095615,2.322676816826587,1.147713671964121,3.648303496229026,2.649443129750679
91,3.5849194225674896,3.540262983888989,2.3730390556323777,2.052072807018033,0.5067907889980527,0.17957682454315743,0.7924584941832118,-0.006100280657890096,0.5223064515552444,0.17699883146718562,2.1780775482846177,1.7205220656200517,4.145396269184248,3.9182686323291964
92,4.959679787057477,4.651274315896983,3.025792127977103,1.9383397830609834,0.9816979875347615,0.2704308921898092,0.6498500068595403,-0.02012129039586538,0.48382883164002205,0.08219524613456694,1.8783947397033578,2.1344561840097076,4.334318615545731,4.897834588726692
93,5.900798317290608,5.320674955941677,3.4596886428767433,1.6949580491633593,1.3822203703432188,0.44705615417667083,0.5423814186672815,-0.01882418087369632,0.41642195916966723,0.004438641461620148,1.4736350460858427,2.360550553988248,4.218712716722783,5.4408682392862096
94,6.347372396047003,5.512876211368164,3.6607026753935274,1.3678879018416232,1.6974113969769236,0.6880157516781136,0.451012351690703,-0.006849718154297949,0.2850661952377991,-0.031109484241213053,1.0179283334839784,2.386633112306195,3.8247571106151046,5.4373886422951365
95,6.28564950971429,5.245236337479679,3.6324403102027585,1.0069711573927518,1.9246167705902006,0.9532275687669042,0.34175501734303204,0.005881016803488503,0.05327408466743694,-0.01051580036513671,0.561926162496147,2.217126437187937,3.1969615001762324,4.83248875858439
96,5.747818406107945,4.582573854896029,3.3940403020762515,0.659544262734445,2.067292533898513,1.190207362970042,0.1734217400601828,0.005515805462357734,-0.3111931749436266,0.06527032047414569,0.14664236793219426,1.8716946878099383,2.393063884992106,3.6385022660685182
97,4.806296739062525,3.626033003858326,2.976983981149763,0.364686257791458,2.132170667781415,1.3428029611120544,-0.09236894811990208,-0.023109235113168612,-0.8287492739237008,0.18004535607425254,-0.20043510533717393,1.3830296054359803,1.4786231406248844,1.9394397115041564
98,3.564348151172253,2.498023053987255,2.421227394011795,0.14879326274937743,2.126361973633374,1.3611401698298875,-0.4806106729132853,-0.09295552329773982,-1.49968278124641,0.30538328684595833,-0.46659758590592154,0.7940067768799086,0.5217695277819437,-0.11352869427524831
99,2.1442069168638542,1.3254270876928607,1.771097057221842,0.02299116602547549,2.054973973490325,1.2112417340986175,-0.9936594203717857,-0.2110099766394053,-2.2968538482401053,0.40646663426799207,-0.6526512137654824,0.15437301596813488,-0.41156958495224705,-2.315623139000431
100,0.6741023956109814,0.22344114872248888,1.071384059001869,-0.017337032200711887,1.9197153985868554,0.8827430598337056,-1.6051508586545822,-0.3750401952879809,-3.161355183749845,0.44953341232626326,-0.7696586949876264,-0.4829160046649922,-1.2617743952792442,-4.429869609552836
101,-0.7243662644083929,-0.7177596053787837,0.364023739111859,0.009104853769396168,1.7187744780807566,0.3933312564544026,-2.2585422543211315,-0.5716574287787941,-4.0029180964284965,0.40943260071544485,-0.8344879588116136,-1.0655869567626828,-1.9788590620041904,-6.214042609656485
102,-1.947164467962827,-1.4418025965878951,-0.3143454065625445,0.07306307504713341,1.448023142833718,-0.2110403099381946,-2.8710891946456707,-0.7763016597358828,-4.706219667186733,0.27576245629972246,-0.8650858793150892,-1.5460066709063163,-2.524961185342879,-7.4498870486262705
103,-2.9159918817695214,-1.929334514702456,-0.9337853091429589,0.13967044748488325,1.1033503419917128,-0.8605100663132534,-3.3432298804231837,-0.9554570064075794,-5.143270496562966,0.05633960490032283,-0.876348689986175,-1.8849808878814558,-2.8759581471457754,-7.970876121499257
104,-3.583002431628959,-2.1955098438517315,-1.471426861354508,0.1741248779513212,0.6837042029008905,-1.469889660388073,-3.572437794551558,-1.0710083443215266,-5.190893254819588,-0.22275209696742168,-0.8772705525571802,-2.055107493563802,-3.0221808563586814,-7.684779009811989
105,-3.931845942701187,-2.28245069651681,-1.9109670427581749,0.14735436276994796,0.19425989465095775,-1.9504245597793406,-3.4697559601403336,-1.0862297193824357,-4.751146025026847,-0.520651476775534,-0.8697626637000726,-2.043363639015391,-2.9682040661954483,-6.587861162359776
106,-3.9752655390278,-2.2481267200938557,-2.241591438547018,0.04090335080146992,-0.35094405742319057,-2.2231076612231377,-2.976584209980553,-0.9725272318604382,-3.771621613144208,-0.7882137552050049,-0.8492056530775893,-1.8526146187353187,-2.7317209650184826,-4.768558608817292
107,-3.749893045007577,-2.1536282630228825,-2.456697774210338,-0.14964528566355204,-0.9275258966270028,-2.23155253254309,-2.078976366285704,-0.71581380059813,-2.262068468416741,-0.9764093876497691,-0.8064855335319494,-1.5017895155654994,-2.341566093712343,-2.399821717004971
108,-3.3091843110289965,-2.0510217952639223,-2.5528020112899004,-0.41323399021683277,-1.500920546828573,-1.95235565146339,-0.8168005928884097,-0.3213252031625132,-0.30388368261638427,-1.0451527819049413,-0.7310152770477394,-1.0245720549084412,-1.8350262626289782,0.2791750743580518
109,-2.715587610376174,-1.9738401115261666,-2.5289350717429286,-0.7241594752275549,-2.028425423239526,-1.4011262490077678,0.7143442821141653,0.1841735712168742,1.950211676257997,-0.9709649306386844,-0.6140924943142233,-0.4665959734178357,-1.2546533973179634,2.989828793786274
110,-2.0330225029458346,-1.9317799588598452,-2.3866943793467015,-1.0451446923932477,-2.4630737124982924,-0.6329272370474675,2.3696125982980933,0.7534966298614902,4.287643162699385,-0.7520381827466389,-0.45190654343328707,0.11870072779457232,-0.6448456729467725,5.446125449293128
111,-1.320573475572239,-1.9104262766490696,-2.130927319625091,-1.332304421499875,-2.758948589119725,0.2633121228720849,3.969694887773291,1.3236510090709408,6.458143456625527,-0.4097033904871915,-0.24759139925252713,0.67523478616898,-0.04848421810299655,7.387882857259535
112,-0.6280101204710395,-1.875921658341887,-1.7708357249629811,-1.5413535131010574,-2.8772573736695826,1.1758957522424631,5.3224150872971965,1.823540858534358,8.204227531846632,0.014066503187703446,-0.01191388605989751,1.1499595938221032,0.4960969441585976,8.611043722152923
113,0.006609269965691939,-1.7836125026204281,-1.3211471030980348,-1.634186651310606,-2.7922826788774024,1.985516794736241,6.248379601688186,2.1837556292656815,9.295909649829053,0.46275964137820047,0.23754337776046056,1.4984544171042213,0.9575668454353718,8.991218688975442
114,0.5573474526994079,-1.5889909130561855,-0.8029341979688164,-1.5848632346933986,-2.4962615312207546,2.5822615931848496,6.606992797087213,2.3469778802531422,9.564471822220165,0.8740105689401181,0.47855460599929045,1.689748573952927,1.313300972729584,8.497553186388028
115,1.0092016890339521,-1.2588437748797838,-0.2436954222059029,-1.3840822458879831,-2.002331586193968,2.881839491952509,6.318790452582451,2.2773242707421653,8.929831653260475,1.1893695771186545,0.6873785589332877,1.709745788223504,1.550237490465336,7.195246327775382
116,1.355900562299135,-0.7804918499821338,0.3235699349405638,-1.0414280933161608,-1.3449195723291334,2.838438288429387,5.380351836850431,1.9670084304768107,7.41676802404371,1.3634732197062185,0.8422758214980699,1.5627535636265943,1.6648854167949274,5.236515502008869
117,1.5973269822472824,-0.16735601360908822,0.8623696623338599,-0.5849843703696643,-0.5773025990880716,2.4520778115084805,3.8690215252128635,1.4390885684280985,5.156864636362966,1.3710640092682558,0.9267957228395985,1.270850056005194,1.6625718702059453,2.841280253641901
118,1.7371504358760235,0.5402425589044235,1.3356707143056055,-0.0583013849292312,0.23350223830245348,1.7691874903151292,1.9361692704759548,0.7456759184676697,2.3752580716159244,1.2107162184160782,0.9322730953142018,0.8711058502106579,1.5560842998313464,0.27013811969808726
119,1.7810935390921758,1.2792809393002595,1.7094549870575586,0.48489653626735285,1.0139393160825922,0.8762250558987487,-0.2104953608322796,-0.03827550837557555,-0.636265558800053,0.904725702137925,0.8591337305390044,0.4109792504023389,1.3639060960210145,-2.206845672096822
120,1.736040951864437,1.9725694718639586,1.956393237449298,0.9875309023117365,1.6922767321333871,-0.11270762914238064,-2.333255501412782,-0.824735073823703,-3.5560382206170678,0.4952974677593191,0.7168303872447059,-0.05752623138267058,1.1082578911697865,-4.341535980973928
121,1.6099683353404501,2.5401900141150646,2.0590905759886664,1.3965442143879323,2.2069899762262613,-1.072311419663998,-4.195605639515272,-1.5244492892478758,-6.073738232270889,0.037786198396215484,0.5224709684437195,-0.48416316872637283,0.813141368284346,-5.935372936677773
122,1.4124694250904515,2.911890346291354,2.0123901913881053,1.669766271204516,2.513997414896382,-1.8840041786646844,-5.593718584515797,-2.059058573633787,-7.929980563147105,-0.40780220155551916,0.29840823273971984,-0.8263495296245518,0.502539674676709,-6.859910230889406
123,1.1555272250007758,3.03831904998489,1.8243436457528939,1.7812784854820922,2.5917322900437223,-2.4524939800510923,-6.3834015802563195,-2.37161078214068,-8.94850499760567,-0.7856269456563294,0.06920214566466149,-1.0538978476842955,0.1988695901353578,-7.067919108554354
124,0.8541344612491316,2.899189547088844,1.51564732366431,1.7245096032622336,2.4433495053499112,-2.718462139397731,-6.498451719117238,-2.4338818372223985,-9.056461844595074,-1.0517664740796058,-0.14157040488530762,-1.1519604144390994,-0.07827586011496408,-6.594044735947719
125,0.5264231435051577,2.5069996646791424,1.1175734406359341,1.5126440174216635,2.095786610660134,-2.6654866797688452,-5.957674267348602,-2.2494501372480395,-8.290219335009267,-1.1797894999012328,-0.31419517999218916,-1.1218579994481368,-0.3130936674317754,-5.545411395918653
126,0.19309547003754987,1.9057021342383467,0.6686477565342479,1.1763351427058704,1.5958560497974976,-2.3203134541439274,-4.85963722134555,-1.8521642642564147,-6.786344452528622,-1.163433513428835,-0.43500298435090023,-0.9797721154145245,-0.494259244017039,-4.083882940460231
127,-0.12387698806950384,1.1645790928426112,0.21050264378262354,0.7591209585631186,1.003963354659913,-1.746683918112791,-3.36619289623431,-1.3003695866075284,-4.759575286861862,-1.0161667720288015,-0.497595475402656,-0.7535853256175362,-0.6153431052748718,-2.402718855747815
