,AF3,F7,F3,FC5,T7,P7,O1,O2,P8,T8,FC6,F4,F8,AF4
0,0.5393864551279494,0.3526762351798894,0.28506908434184824,0.09259880260363508,-0.1385533047800603,0.06225628637953986,0.4195705747663412,0.2628358244442464,1.256985994994777,0.5655312152188656,0.9695659105040373,1.050286437982745,0.681439608228466,0.9640673636088479
1,0.2220357150407061,0.13983963607165834,-0.11516262818456248,-0.4571852621283984,-0.5574524675797621,-0.39662784757203506,0.47015274283001995,-0.22477328484150114,-1.7262525317674475,-2.619836903731333,-2.8446236340793893,-1.0478651742908396,-3.718681877296911,-1.250178837335459
2,-0.14505627253292075,-0.09451173564176626,-0.5652507416457154,-0.9712175213303905,-0.9113725887585217,-0.7924686581891028,0.49470525975831914,-0.6688985021008212,-4.507021754894837,-5.6289682404294465,-6.411223293869034,-3.0647419758393752,-7.764597803058398,-3.3634916814266953
3,-0.5414902093536589,-0.31370425659042933,-1.0572018567514028,-1.3859830772439121,-1.1458506892372637,-1.0777975449178074,0.4960792546334299,-1.0353909389531228,-6.849498249237962,-8.252885378010765,-9.434599012581584,-4.8553498248414435,-11.086034937872334,-5.209159680264224
4,-0.9439228289518459,-0.4827973801870448,-1.5723047137061255,-1.6496631475521604,-1.222331612809721,-1.2211887010029163,0.4737380208726218,-1.3010286004585192,-8.571808784544183,-10.317453775024587,-11.678447944068543,-6.301264304836488,-13.395303710549266,-6.653423837741794
5,-1.32730255982847,-0.5728545438020478,-2.0802257304950027,-1.7283355942743128,-1.1235838495595405,-1.2108264776343134,0.4241776384971779,-1.4552543649738272,-9.561861741781575,-11.69599716426928,-12.987297853035487,-7.319206781347381,-14.516324764872488,-7.607019476811997
6,-1.665981865359841,-0.5643830921991558,-2.5401479648880705,-1.6098237146036753,-0.8562194800426581,-1.0553838661066695,0.3423683754487788,-1.5001694664189333,-9.78412731750429,-12.316714034461286,-13.298057745415814,-7.864915902408908,-14.399599865843557,-8.030462254747563
7,-1.9347640637107033,-0.44961678090275314,-2.904068529110764,-1.3047960001117411,-0.44997959634941986,-0.7821446874944508,0.22390392215937865,-1.4488639325048862,-9.277133480611894,-12.164599599832892,-12.640746681444032,-7.932353621716564,-13.121739884222052,-7.932861060771153
8,-2.1099998765585846,-0.23347768540537284,-3.122011092599154,-0.8450943788881927,0.04610870312672188,-0.43266869264073693,0.06741322101143009,-1.3223953520617773,-8.142695799171456,-11.278264125740945,-11.128957047407656,-7.548944454737847,-10.87023478853266,-7.365000533509713
9,-2.1708665921596006,0.06678909981928068,-3.148566835912539,-0.2796228840515609,0.570172963614571,-0.05662572528829991,-0.1232680145472992,-1.1459094990434437,-6.5289240952733465,-9.742598269754103,-8.941892628355824,-6.7680473120172575,-7.916059819712749,-6.4082340731801155
10,-2.100933195787107,0.42318509957250017,-2.949907718486249,0.3315831116080427,1.0556555529485092,0.29533065650131085,-0.3376465460894578,-0.9445064473807513,-4.609711764329684,-7.678597638178852,-6.300785179733116,-5.660133954676637,-4.5781923922277805,-5.161244092567288
11,-1.890036519739685,0.7995194217918145,-2.5102660213912547,0.9242985774401284,1.4400913553918386,0.5786524948462389,-0.5582226875580513,-0.7394791205521959,-2.5636473115222707,-5.231789164817284,-3.4430160101581118,-4.304167110931705,-1.184973233223252,-3.7268854754593876
12,-1.5363729771253267,1.1546991289348998,-1.8368692743708883,1.4371831528623271,1.6733285936033349,0.7609607852593651,-0.7614600118103411,-0.5454844199044557,-0.5550957578059904,-2.5606079366398067,-0.5973017400248241,-2.780442857020212,1.9626127859950016,-2.201115653346596
13,-1.0485653573054823,1.4464720597468952,-0.9624623495715638,1.8181605492833952,1.7241040837538482,0.8262387077338331,-0.920082149207953,-0.36905852421486995,1.280358355250895,0.17420321145567721,2.037131255718057,-1.165731471640155,4.62122601895397,-0.6654772274679491
14,-0.44732454131941646,1.6353515349633019,0.05517962338767375,2.0294309344388357,1.5841135030645366,0.7765738923876481,-1.006480055566839,-0.2086770250847368,2.844732815803212,2.8184897648279157,4.30527257713722,0.46900232591399854,6.625682278377431,0.8161621181184381
15,0.2337678644545527,1.6884666864513407,1.1369765105745735,2.0506737682259937,1.2690576610911593,0.6312182307797921,-0.9968027801951473,-0.05631668998072412,4.080313514967832,5.2316206174812345,6.10389351101604,2.058592017941652,7.897893559872015,2.1967532609585603
16,0.9488369190779269,1.583092799819075,2.1893171452366724,1.880261393826664,0.8165509706793924,0.42312327475785216,-0.8751426676023661,0.09976463952279632,4.9666877577994555,7.291585463826337,7.382007612913106,3.5421507335537927,8.444156515914646,3.442010519792846
17,1.6420251819380238,1.309616554338556,3.11327491992638,1.5345559942041074,0.28119333485290077,0.19348265639376055,-0.6371430041886648,0.27151257871525675,5.513463193485527,8.898645796108918,8.135282604554703,4.8611181300366955,8.34230425630213,4.524644000573716
18,2.2516858369026127,0.8736827786790667,3.8152950356981297,1.04556666771638,-0.27252442889194267,-0.014889108489626955,-0.29237390783438777,0.4674340380656477,5.750515528060882,9.978041855089371,8.396198159537942,5.958008973779055,7.721501199822733,5.418623749064471
19,2.716290796964692,0.2972622386351448,4.218123806327666,0.4573760216764626,-0.7785365598006774,-0.1643392290443922,0.1350521949442196,0.689470555598517,5.7177912758673735,10.482197579643746,8.22212214071574,6.77680600718148,6.738229095506158,6.095119821731456
20,2.9815291639682284,-0.38160974881613385,4.27063134550943,-0.17819907854638334,-1.1776468787004488,-0.22829847350473956,0.6079296345166578,0.9309627410434981,5.456521174826176,10.392656904126468,7.68346460297797,7.265528087599235,5.55220494358243,6.521321799683962
21,3.007741057487469,-1.110627836424896,3.955223907401449,-0.8062606951771552,-1.4250047365518992,-0.19545425541488598,1.079477668262606,1.176121895028497,5.00322357139889,9.721687910610228,6.8537002941224845,7.380952868585051,4.305599037994522,6.662647429562512
22,2.776601591747726,-1.826650392286572,3.2917571967603005,-1.373406014517943,-1.495653460349344,-0.07155334195735391,1.4985958806308777,1.4011929340006313,4.3871915647416815,8.513190940115821,5.80242167143836,7.094889420249635,3.1080816168277203,6.488045603812368
23,2.295901414058551,-2.460722936581993,2.3372321667900406,-1.8319209653778215,-1.387454311106139,0.1214288598277691,1.8162025121390681,1.577221313388602,3.631391526873387,6.8423278233895575,4.591831328716445,6.400898859570232,2.029084812375043,5.977350132151208
24,1.601400534850323,-2.9444367262995774,1.1810443161140618,-2.1433724926223663,-1.1210393021146658,0.348617182575925,1.9917525179365643,1.6740669840555202,2.755993940436038,4.813217368156149,3.2763542456206296,5.320057868779989,1.0974247275534754,5.129101076160669
25,0.7550662515764311,-3.2171365859066587,-0.06388662546120817,-2.281450966390717,-0.7368374440999829,0.5675501378812523,1.9989159222409514,1.665084482200472,1.7832398750520226,2.554155084560475,1.9044806664921776,3.9043283374382947,0.30729251125363627,3.9670324671098522
26,-0.16048675962879363,-3.2332690434955,-1.273223366042739,-2.233957458226356,-0.2895981452570551,0.73466516301905,1.8294575353294698,1.5317496399145527,0.7421154096319668,0.21011742119935933,0.521635151608741,2.236366849611567,-0.371231116229004,2.543581774095041
27,-1.050925107161452,-2.968989983282355,-2.325188429953613,-2.003846325031627,0.15884817517670918,0.8119718385185494,1.4946088086484612,1.267487794356282,-0.328592266564587,-2.067235811355978,-0.8271535511151272,0.4251503049423258,-0.9794431778578957,0.9392857773497967
28,-1.8214548215472954,-2.427076496159452,-3.1147130685625277,-1.6092325413473114,0.5476395780600533,0.7729144976752642,1.0236312712555604,0.8800550609434298,-1.3798695511356962,-4.131325772119992,-2.0957555947627653,-1.4024840299068662,-1.5574060935437053,-0.7423095443275137
29,-2.3888820509618616,-1.6392510332588257,-3.5659372589371485,-1.0822769922813775,0.8247054716225343,0.6065683406627865,0.45976608485526055,0.3920308870739355,-2.3550562364004883,-5.8529746984293975,-3.2371457084191655,-3.113523219059217,-2.1334501675519992,-2.3837387926818177
30,-2.6926949636814346,-0.6652505967067699,-3.6413708188501097,-0.46689748204117526,0.9533769711786573,0.31958661196947996,-0.14575497318641206,-0.16073601637512955,-3.195084043866224,-7.1317580098286655,-4.205326147738418,-4.582180611994546,-2.717177565592654,-3.865446569106132
31,-2.703434839916847,0.4116467888246325,-3.3464120390570353,0.18466316760158022,0.9169731248841902,-0.0643284066520757,-0.7405995203499591,-0.7325727236636334,-3.845389775504942,-7.904807294663383,-4.958528015066555,-5.703116583812636,-3.2966288791335217,-5.07856923822523
32,-2.426986776003824,1.4924354028214268,-2.7285224056991844,0.816249558924313,0.7208225139280859,-0.5072824837824161,-1.277924597276232,-1.2728727632632282,-4.263112226620703,-8.151722392931784,-5.462962827277608,-6.402532336505469,-3.8395709416239607,-5.936704496797972
33,-1.9040374396107316,2.4728077951482486,-1.8710888081353458,1.3728703323936138,0.39151039082940986,-0.9618939726393059,-1.72153835169418,-1.7317698457016726,-4.423097281522785,-7.894762393133898,-5.696317516044646,-6.645498605508409,-4.298290014627184,-6.384899306161922
34,-1.204705313654761,3.2550028228119,-0.8827515726715609,1.8059818656152102,-0.026511329506705362,-1.3771290897000523,-2.0488009070842534,-2.065821315750444,-4.321483559506108,-7.194182292339589,-5.650302458336088,-6.438477595950616,-4.616883049823093,-6.404596346738543
35,-0.4191083390598952,3.759570826844664,0.11638409752429366,2.0784272718344594,-0.4764936625480004,-1.7044452742572453,-2.250892615512945,-2.2429372265125025,-3.9761527490584814,-6.139336046694464,-5.331812223181509,-5.826762558522868,-4.7398420561087224,-6.013987552792887
36,0.354737715226301,3.935449127263103,1.0098040145012275,2.1684514141270164,-0.8964273516211445,-1.9034489670600432,-2.3306113281306446,-2.245914215928684,-3.42397985095864,-4.836839878848147,-4.762562721475578,-4.8873537006424375,-4.620704946904873,-5.2639878671784865
37,1.0239008691119265,3.766879507078856,1.698895558962372,2.072262193733451,-1.2266741417502431,-1.9464135906954705,-2.29835981877993,-2.0741497278176055,-2.7154636470471964,-3.397562105375958,-3.977355406050837,-3.718475074326931,-4.22967015735954,-4.230722615801854
38,1.5124996615124566,3.276067391011483,2.114622571430383,1.8047348552542037,-1.4172701145731625,-1.8212102376208978,-2.167349399480112,-1.7433885000192406,-1.907822384363656,-1.9243916829317755,-3.0213391547056236,-2.4274028948734974,-3.559304348710835,-3.0059014711963044
39,1.7709544698515858,2.521033465736389,2.2250601127774945,1.398049504169117,-1.434041024939313,-1.5324318673812367,-1.9491991736125398,-1.2836446204330965,-1.0579034854356022,-0.5025960283761248,-1.9467619197090569,-1.1184483339839222,-2.62776784298403,-1.686655051552742
40,1.7812787434103488,1.5887672944366602,2.0378771176775126,0.8982932686810637,-1.2628311281906326,-1.100706446423869,-1.6510140608329884,-0.7356951744570088,-0.2162289794056505,0.8058779549826112,-0.8097109390924648,0.11720685379370321,-1.4792927368415403,-0.3663151722270985
41,1.5578034063274995,0.5844647264559207,1.5975692681506932,0.360320517197074,-0.9113847339674251,-0.5603765548147827,-1.2746904366791545,-0.14670583954262345,0.5768098632762796,1.9635074533892263,0.33276443279803386,1.208553907471443,-0.1819321518597173,0.8727354876792864
42,1.1434410630843777,-0.381783619497696,0.9779783817534637,-0.15858612467330166,-0.40870480087612054,0.04413207678904576,-0.8186888426714033,0.4344036539103095,1.2921146578682168,2.9538773895306503,1.4249418858942202,2.108042822624671,1.1771701299404043,1.9635466666071646
43,0.6022690176758843,-1.2090772795183669,0.2712822876076519,-0.6055114574567614,0.19798856394109396,0.662822157717086,-0.28193035285926665,0.9613124070723882,1.9105184034470384,3.774925463719474,2.4141453234948806,2.7911806456429225,2.49856894676673,2.8564037662038353
44,0.009733341468761154,-1.8186245322370218,-0.4248952171626901,-0.938302851413499,0.8483030485393459,1.2450173266609108,0.3310634425830211,1.3939765500967787,2.419590114035439,4.430366233622113,3.252110432975625,3.2531579669730855,3.6788233701267483,3.5184559816213583
45,-0.5579326838554828,-2.1636683552950715,-1.0203924571426992,-1.1307052534472604,1.4751133669621759,1.744117760067156,1.0050416694111306,1.7014239584520578,2.8096966373648615,4.921257931337641,3.896331676154385,3.50367777800739,4.619685344516747,3.9320180687920288
46,-1.033467225668555,-2.23497957589602,-1.443648079207952,-1.1754990654886617,2.0116589179036835,2.121739368890929,1.7102849875825348,1.8636262065897344,3.0705590923629456,5.239657968380187,4.311728397922567,3.5613468354577136,5.237460752462744,4.0924961984233565
47,-1.3661625967166657,-2.0610891968187373,-1.649626530787978,-1.0851439618286371,2.39852948784157,2.3508486445623182,2.4014634835123054,1.872521754573888,3.189400664790013,5.365918770260386,4.472844016061697,3.4488753795809037,5.471759606173813,4.006735616038051
48,-1.5263880327616075,-1.7031835235084465,-1.6236409320578118,-0.8897599258220071,2.5898180259469736,2.4176362356144816,3.019849950057098,1.7322994807033942,3.151381117537359,5.270459538440492,4.366561024069342,3.189954528083562,5.29279195285933,3.69222859262004
49,-1.5067521028299866,-1.2453619220889645,-1.3808443811785063,-0.6326463647836688,2.5578382562288273,2.3220233568472497,3.498996041258749,1.4590144304442019,2.94243372419833,4.9199320295973825,3.9950266354278856,2.8081385129184215,4.70634817834236,3.1771554869567864
50,-1.3201841337240263,-0.7816366692883195,-0.9618150253181564,-0.36389673137755535,2.2959759457228626,2.076845742470791,3.7732514859203943,1.0795317967320825,2.553989286476404,4.286749904250514,3.3782164091210287,2.3274836323610315,3.755671470600041,2.500789436294339
51,-0.9956823873067578,-0.4015349085246894,-0.4252025594258427,-0.13295842110811432,1.8194454914115588,1.705892308790624,3.7878518650202038,0.6297303725883097,1.98853619300792,3.3601596730036536,2.555398607111129,1.7742231548088356,2.5196267014826126,1.713500583613317
52,-0.5727582176256888,-0.17637707645808148,0.16124420885902635,0.018825915927580403,1.1639343156705033,1.2410772188949615,3.5088584568290795,0.15188790782036513,1.2646551376932103,2.1565590010113875,1.5847604231807357,1.178493524672013,1.1069085720164384,0.875532452710094
53,-0.09566659620231076,-0.14822696774084795,0.7298298975374911,0.06461014842180517,0.382313538343066,0.7190869280029425,2.9311046800064804,-0.3087598415897162,0.4201583916632826,0.7267161019710129,0.540639156896758,0.5751254229584988,-0.3535094913816247,0.0539135084150706
54,0.3916370521386666,-0.3231453242643318,1.2209238585402946,-0.0036093936316042518,-0.4602420004604979,0.17786527946055342,2.08252886582353,-0.7081533849321576,-0.4877404980298033,-0.8420631339768434,-0.49185193501942653,0.0027668133437897726,-1.7249617269019057,-0.6827281311631231
55,0.8491889086961661,-0.6697757155129309,1.5888298869069166,-0.1734102830690494,-1.292255619479601,-0.3467169775942532,1.0238254644007374,-1.0079216009443963,-1.3857645754645729,-2.429987975708094,-1.4245528916168904,-0.498946987863844,-2.8774814037943535,-1.2711464509589143
56,1.243135181097886,-1.1235277946933597,1.8049722094898544,-0.4134489142609581,-2.0425180710300306,-0.8237079753456428,-0.1568685304915058,-1.1797793543710504,-2.191292496898816,-3.8951696202734856,-2.1755960152698943,-0.8939213571860011,-3.7023678589178086,-1.6614125675920637
57,1.5464494587487605,-1.595808047889022,1.8583610051121837,-0.6779188607634611,-2.6466242424697817,-1.229200368017686,-1.3536661849346479,-1.2092008571607007,-2.8216749761874795,-5.089317013062059,-2.6791814717918165,-1.1550665862845955,-4.12509614429203,-1.8245348438289228
58,1.7387196644954637,-1.9870055301817255,1.7537564446792917,-0.9133691999609779,-3.0528758845733495,-1.5475773352046658,-2.455633159455546,-1.097747764631627,-3.2048462761453678,-5.876700696665732,-2.8943609329867357,-1.2695823985086683,-4.114792425612286,-1.7583013835477643
59,1.8056133442637932,-2.201384954292555,1.5082756035313363,-1.0669096220429526,-3.2269969641137783,-1.7718038889111296,-3.36058596001897,-0.8635501087969808,-3.289645605474084,-6.153636886445421,-2.8113904184563245,-1.2428325449205417,-3.68883415395443,-1.4899832258959091
60,1.73858799968874,-2.1617560790651122,1.1473341790574392,-1.094591026026647,-3.1552077946973096,-1.902780285151758,-3.987866134385188,-0.5396780508512624,-3.05425612253859,-5.865472967753523,-2.454464577441381,-1.099735102091362,-2.9117128393952054,-1.0749315354018476
61,1.5352172621714955,-1.821815553324802,0.7007760825855519,-0.9686939291613375,-2.845350539543751,-1.9478694766077103,-4.28813584128455,-0.17046011575665784,-2.5114165958451204,-5.018267235187341,-1.8801163946664854,-0.8829896132471142,-1.888033871020517,-0.5907271203394184
62,1.200215435886402,-1.174386686438543,0.19984509480186208,-0.6827943285048466,-2.3259405890059206,-1.9188007893172052,-4.248736166886079,0.1938646903431822,-1.7094971141666686,-3.6830163118018295,-1.1711796880886853,-0.6480179472975427,-0.7503115364912835,-0.1272880980884358
63,0.7469383282732995,-0.2543641261781071,-0.3246529868747212,-0.2537903345020478,-1.6432201654320249,-1.8292276103608875,-3.89387812274165,0.5034933752046712,-0.7290713804643885,-1.991291615043852,-0.4268699044041976,-0.45510564996467257,0.35706452968946906,0.2259184184200877
64,0.1988880753087258,0.8640791530489778,-0.8429937227816374,0.2794814863926052,-0.8564947758524633,-1.6922677514864022,-3.279763306910017,0.7155592022088164,0.324814078927892,-0.12235368169368806,0.24985737425784227,-0.35978593739760284,1.2957612392110354,0.3938122867743174
65,-0.4093923512240297,2.075652621797026,-1.3262915959788026,0.8608995774650077,-0.03222007414910623,-1.518370547216404,-2.485513578979409,0.7998941196634103,1.3339365503047482,1.716949108890457,0.7660504981542511,-0.4029151599882742,1.9510868185370334,0.32868020666177866
66,-1.0326509687970145,3.256349699759867,-1.7459000322920089,1.4243410517421125,0.7625460547902525,-1.3138255161676695,-1.60140093665135,0.7432497841032398,2.180556140652972,3.3170936061026564,1.0517424102298083,-0.6020751734093164,2.2469518963390076,0.020059887734686734
67,-1.6169550704467726,4.278374703551253,-2.073066721623689,1.9025479451500134,1.4666257559200402,-1.0801518949297153,-0.71622206923492,0.5513794084857452,2.761874915738687,4.492402950066961,1.0703128433937479,-0.9458627600538554,2.1561952451516473,-0.5003023923569924
68,-2.1036135943697767,5.02555180003917,-2.2793922282837484,2.2362777578078967,2.030429271695445,-0.8144954647413075,0.09428203970095081,0.24867296669760586,3.0035258885948286,5.105594597452664,0.8246540497689369,-1.3922867994781427,1.704797990221785,-1.1596269339624639
69,-2.4348398407156546,5.407153981102858,-2.338441291489671,2.3823884253487417,2.4202558200752384,-0.511023788893911,0.7762922345952923,-0.12463140457563278,2.8703087568140764,5.086893646213945,0.358076451624222,-1.8719333343536726,0.9692536309763699,-1.8517542901837047
70,-2.5606347688745688,5.368376853859089,-2.228564744656759,2.319665613684768,2.620709304239978,-0.16316786509260106,1.3028616611657073,-0.5173150617317867,2.37260277180751,4.444871171482471,-0.2504217189378596,-2.2958580624243097,0.06722123859387856,-2.4506492835916656
71,-2.446056341783809,4.896218402686837,-1.9366622029836977,2.0515439499186807,2.634971016142513,0.23357823373531122,1.674375031753574,-0.8735125636543072,1.5673285200848404,3.2672205494705775,-0.8961264835137666,-2.5674280703505192,-0.8575403627008037,-2.8281836470503205
72,-2.07783351468539,4.020217197654654,-1.4623140809942177,1.6053499400063098,2.482932666222571,0.6786997525100747,1.914628916971202,-1.1397202201403849,0.552961181867272,1.7110293593848953,-1.4626804130260105,-2.5966693485295385,-1.654185927361218,-2.8738588351087726
73,-1.4692257178503547,2.8082318073360595,-0.821495034177573,1.0282269895538643,2.1974635224277126,1.1640124003067058,2.0632955955103784,-1.2716221453761105,-0.5411568718089288,-0.01645012682341914,-1.838496738206486,-2.3151866788527244,-2.1853962506872415,-2.513669118812263
74,-0.6621413962517361,1.3580978238002142,-0.04899580703095163,0.38040649073083993,1.8193290967965217,1.6717956667226384,2.166057982650158,-1.239923986895901,-1.5701897307397124,-1.684189704169781,-1.9333612843737427,-1.689489282378756,-2.3469447643985615,-1.7252383646705753
75,0.27419036316085,-0.21351714897265503,0.8012471982654008,-0.2731166402994598,1.3914601604545893,2.174123026771144,2.2640370578995714,-1.0345251373199937,-2.3921603640796083,-3.0675473479651716,-1.6929515664568466,-0.7306244134283423,-2.0836078745045974,-0.546722012314543
76,1.2482814273579634,-1.7834823885526532,1.6584843921686903,-0.8712212845895867,0.9533619227748612,2.6336841735975036,2.3842364685243167,-0.6665603316436817,-2.8870455368264336,-3.978215701594279,-1.1091818000508376,0.5016063612453981,-1.3991801764791667,0.9222888165056367
77,2.15495836328222,-3.2342037233422025,2.440353036501907,-1.3643072889002297,0.5364384497797526,3.0062259345648252,2.5325896436095094,-0.16806867364338232,-2.974096483921012,-4.289902181231976,-0.22474038712746033,1.9009360075067325,-0.3590261358764329,2.5285866281853857
78,2.8866992424608124,-4.463869427859818,3.060701741894842,-1.7198354075204645,0.1608832845076403,3.2445366242983558,2.6908282834315473,0.4107198896558104,-2.624902757916504,-3.9561741084626267,0.8691235084795003,3.3236827495068284,0.9155019014538793,4.081419633510263
79,3.3465098705456082,-5.393940986382137,3.4393290967776453,-1.9250037642554065,-0.16543779801161848,3.3036797645228173,2.8178392175729305,1.006266040713015,-1.8700989880223842,-3.0178946147819197,2.041657638291891,4.603891377162746,2.2604205979175664,5.375146187727708
80,3.460768287543568,-5.973374567265273,3.512514863518727,-1.9862789201978297,-0.44598637760437004,3.1469677013595216,2.8555068886774624,1.548345983482098,-0.7983334509804778,-1.5990483486089706,3.137688261621269,5.572985292734491,3.4888500311617987,6.215762866686639
81,3.1903114275444207,-6.179566672612921,3.2429407688206457,-1.9260073429437732,-0.692638641759333,2.751982655380186,2.7383416592213874,1.967808164265203,0.45289196334038456,0.10867302227326268,3.9970434720032904,6.081589163562896,4.414817611638197,6.447879909497092
82,2.5381218621664727,-6.01646195155989,2.6275070442692665,-1.7767907904406712,-0.9213714279429015,2.115837655109566,2.4055714327549516,2.2046988491012933,1.7137599153969858,1.870608665130208,4.475949435707328,6.020695602613537,4.87817668334346,5.978449366537486
83,1.5523074243935397,-5.510577188352755,1.7016842772391534,-1.57464567706851,-1.147287262433306,1.258854530661675,1.8139194056073427,2.2158941990202603,2.8041749691237543,3.4399745051473802,4.467629499538263,5.3392345820289435,4.767408904628506,4.793799576957159
84,0.32361851716676104,-4.705850014587366,0.5393953131564054,-1.3521342245202335,-1.379833521965004,0.2259389686438783,0.9490742264441044,1.9813458355331133,3.5584806872435517,4.590738071181519,3.919293300516871,4.055406253142282,4.0372287818494135,2.9672821924800656
85,-1.0225579965526377,-3.6582146426956426,-0.7520405149419058,-1.1326346448835642,-1.619053632741664,-0.9148464341725712,-0.1660799856490085,1.5081024537053835,3.8494455167533466,5.1481343698266535,2.8430408153667734,2.2598358795300766,2.7184760290312813,0.656003340752445
86,-2.3390522140427565,-2.4306647719006893,-2.041718326865403,-0.9267165213727205,-1.8535616804271549,-2.0766902855811034,-1.4680616645552074,0.8314301402015613,3.6079895967736033,5.012724527548477,1.318896352313016,0.10962086017058238,0.9187010243154733,-1.9134659684194297
87,-3.4732589324098098,-1.089323597547265,-3.188856757266392,-0.7312371625106339,-2.060676135234526,-3.1612185950182212,-2.855208397320333,0.012629250257848083,2.835549627292568,4.174748958115496,-0.5108446489225361,-2.1864678220581393,-1.1869933530397523,-4.4690176136933735
88,-4.285102751022213,0.29925435882450946,-4.058942058545731,-0.531324378049124,-2.2088165310978742,-4.06786060577262,-4.196119028747735,-0.8664755044225686,1.6069286407228802,2.7168213859563415,-2.4556442029190713,-4.390156489106997,-3.3740412113218268,-6.723844588879921
89,-4.664443161782216,1.6696297211024678,-4.540391409288416,-0.3049226449900435,-2.2619033217543687,-4.704443197089815,-5.343455162088953,-1.7119533631771453,0.06283372483099434,0.8045707169840213,-4.297673448435359,-6.2606781741945765,-5.393444116689217,-8.410449311997125
90,-4.545708221349114,2.9582201051666854,-4.559589890219138,-0.029122918695038705,-2.1851609655698563,-4.997809274837276,-6.151592476193061,-2.428235723802414,-1.6071434980077208,-1.3335525879978234,-5.8172450541188265,-7.583328744151205,-7.0008017182646105,-9.313549385751433
91,-3.917791374891019,4.103766110586093,-4.092199344185505,0.3128547001327511,-1.9514659743280314,-4.903148906546361,-6.4959262244480405,-2.929413532171689,-3.1888680556546367,-3.434656864906494,-6.819593064052794,-8.195940555128617,-7.985812056765871,-9.29764047461693
92,-2.8277546955569814,5.048107756704193,-3.1689772537514593,0.7253333065070164,-1.5472525569501687,-4.410798684912357,-6.291222222232824,-3.1499317619647957,-4.471942004781526,-5.234273880832462,-7.159586381175659,-8.009794336452853,-8.198573477694904,-8.325579437142768
93,-1.3776027509255344,5.737772174932702,-1.8749629766239098,1.1957713260107465,-0.9770124128840997,-3.5495021571627277,-5.506345656497291,-3.0532413648656473,-5.277926582984107,-6.499469654321284,-6.761146419656353,-7.022126231476964,-7.569364547215303,-6.465652776730675
94,0.2857565001942767,6.126654398158725,-0.3417235934437921,1.693267375128902,-0.26559876561157975,-2.385503709719527,-4.173028246716502,-2.637183302015807,-5.484520829430641,-7.058002231357081,-5.628773943188362,-5.3184357204678,-6.119364407199566,-3.8860547689250167
95,1.9863666890397031,6.1797595977383795,1.2667039430019122,2.1705047477368877,0.542158762040679,-1.0173262025350318,-2.3870291354102653,-1.9352909090149895,-5.042334881791465,-6.819913083981317,-3.849590937018694,-3.0641238751296727,-3.960899235342773,-0.8373246934587257
96,3.539102117067157,5.8776293967775795,2.77261865807093,2.5690753657342746,1.384646056752615,0.4333938781408985,-0.30102892636484213,-1.0137437744089164,-3.982014037561572,-5.788971619106871,-1.5855290055292173,-0.48640546170215054,-1.2871084015343257,2.375139025642811
97,4.771185952082277,5.220771096039314,4.005904527856738,2.8275147654088824,2.189180964788539,1.8341308456155625,1.890261917574271,0.035697915116488003,-2.410884672863347,-4.062715720411019,0.9434329211255892,2.151265069754931,1.6477650832413564,5.425084759556568
98,5.542669686450008,4.233218182278212,4.824968333277292,2.8908591949801976,2.879607252681163,3.055439739174207,3.9711676367067845,1.105899401870079,-0.4997674767499751,-1.8212578183528163,3.4829488796966768,4.579030930433392,4.555124218099144,8.001719211665028
99,5.763262243969826,2.9643262219265787,5.134551378043095,2.72020084420776,3.3848419587170597,3.985064898334382,5.729726734948883,2.0864006358096687,1.5380899013476128,0.6936296259610181,5.772041315710428,6.5509867962904655,7.142670981550254,9.843885837570244
100,5.403325058100373,1.4880703277108294,4.8979542796781095,2.3006352954120763,3.6473000145996304,4.540475443105635,6.982822660309414,2.8757896098902287,3.473045837298786,3.2065277137972026,7.571598194639534,7.8723031073143925,9.145445129709719,10.76804958170422
101,4.497585730805834,-0.10056137602850358,4.141940837680314,1.646190242873156,3.6301129330575974,4.678229481268295,7.598439522762956,3.3928816501533308,5.086635203033724,5.440101760673731,8.69033767943144,8.419882958032385,10.353794201183502,10.686929577751844
102,3.141068962900063,-1.692046215408725,2.9535831042257628,0.8007692840873994,3.3221980002170937,4.398904013275041,7.512034847969482,3.5853969570155897,6.1972171161113865,7.146817522571936,9.005344462941608,8.154236928481446,10.635286383841194,9.616896762813782
103,1.4777682950031665,-3.1711775603751646,1.4694278678885955,-0.16523557324982885,2.7405019423932164,3.746853579385143,6.734780103451198,3.4352007457031837,6.680651061807533,8.136991622940192,8.47500159431137,7.121452484834887,9.94835673179413,7.673705960488601
104,-0.3164615942921442,-4.427374506721997,-0.14156437737908542,-1.1623221480013672,1.9290996257889261,2.8047139394594907,5.352508406072933,2.959636324394815,6.483713452740426,8.300009252962315,7.143074855419354,5.4454163343408055,8.346447624088258,5.057553946141105
105,-2.0545656192392605,-5.365253003433665,-1.6989971888471294,-2.09227190161444,0.9552228277349625,1.6832602112332586,3.515465687292718,2.2089669432385164,5.628947636990662,7.616365805174762,5.1337283897763815,3.3116399546729967,5.9724389410090275,2.029659212431855
106,-3.5598474668404014,-5.914156215287734,-3.0331037757083243,-2.860108517782336,-0.09732762370484596,0.5078653863063382,1.4202041128776104,1.2603793651901039,4.210699825699645,6.159254879169972,2.638234308631413,0.9449835657711052,3.0441477768212204,-1.1165948879186873
107,-4.685719996210775,-6.0354366735845355,-4.004969219141967,-3.385928287997452,-1.1366205493919195,-0.5967072148732051,-0.7139898088026154,0.20934276257285248,2.3831020912345062,4.085616390749642,-0.10502325213221834,-1.4158381614481943,-0.1674780965439534,-4.086502448504809
108,-5.331258206227576,-5.726558885058888,-4.522297428006296,-3.6149324432273384,-2.0719095038074444,-1.521181516506541,-2.6710210140754875,-0.8406610280085579,0.3416212834350971,1.6177511696920805,-2.8350328991327713,-3.54390191554655,-3.365204124375326,-6.613447096798953
109,-5.450793903517861,-5.021496837700847,-4.548791682509291,-3.5242675680932867,-2.822766466477402,-2.184332635374596,-4.2628708349586555,-1.7889159021746979,-1.6995658241580414,-0.9823193875605202,-5.294552600062402,-5.247009681693174,-6.25470705802678,-8.48389103680514
110,-5.056623874760723,-3.9873661205257087,-4.106147186046729,-3.1257583304259864,-3.3270222037575095,-2.5415542492532985,-5.350240682647667,-2.5476426179218916,-3.531721991762169,-3.4427311091113113,-7.255736667414465,-6.385567637443047,-8.57326982562331,-9.555654676625824
111,-4.21481585179331,-2.717686021548962,-3.2686888919214,-2.4642174852756877,-3.5466642611451493,-2.588306074509157,-5.856399236088571,-3.0505459935850836,-4.974459345793285,-5.512368114820876,-8.54244495608205,-6.88380481255697,-10.11518186055691,-9.768071964567202
112,-3.0349634801826104,-1.3230564533031595,-2.151677086800782,-1.6116461912849327,-3.4710983446807995,-2.358062626031693,-5.772678131235125,-3.2589041210074043,-5.894818485974137,-6.98854575714417,-9.047037426368021,-6.733575357681857,-10.751357083786441,-9.143533791342694
113,-1.655453119532736,0.07968386512561178,-0.8951099055981439,-0.6581977938830378,-3.1174911397019267,-1.9152008160321892,-5.1552627877843795,-3.164620957506695,-6.220387386694264,-7.738514461725244,-8.740005509947691,-5.9908469354690075,-10.441212390973108,-7.780821861755524
114,-0.22627913963742793,1.3786050724898258,0.3546299586162035,0.2988089549786368,-2.5282432994290884,-1.3440174499900788,-4.114140891006101,-2.7899789026927766,-5.945050000633613,-7.712290292082734,-7.671503974717921,-4.765755500581585,-9.235580921221574,-5.841410604217911
115,1.1083670900415956,2.476927299770438,1.4627698351143261,1.166327830070859,-1.7659519711355443,-0.7356287773203181,-2.7961137475348936,-2.1841806221252837,-5.126859342455004,-6.945430406543348,-5.964669547931204,-3.2077288071189507,-7.2703181346323476,-3.5305147725910437
116,2.2256154544229747,3.301286370965324,2.321461215883458,1.8659808233808581,-0.9064801286928876,-0.17477771908776504,-1.3644919283012407,-1.4171239855208617,-3.8785108095779535,-5.551668422972994,-3.8014711015376506,-1.487594758378277,-4.751221558101971,-1.0750472356536307
117,3.0357962786983226,3.807221558692911,2.8605989324138563,2.342131348474052,-0.030930890034076123,0.2714807686935666,0.021607189164336814,-0.5711668769321276,-2.3518189148141926,-3.706621273431423,-1.4026413275360943,0.2212296012308424,-1.9318292900613918,1.2991909871708842
118,3.4895114154628906,3.9814364348265463,3.0530607691673657,2.56673334886417,0.7825862605050269,0.5616120160767412,1.225588375578587,0.2681333238761034,-0.7183455741839974,-1.6248910215700798,0.9961030886551616,1.7604261147714506,0.9135257191871082,3.3888355327290314
119,3.5794210281259025,3.8407761357964323,2.9141153845715975,2.540535611444472,1.4665188496899486,0.6829580565991078,2.1471035056787717,1.021213163749288,0.8512197339431548,0.46634138727328156,3.1689223083158313,3.001561531553009,3.518459555426808,5.03082161845101
120,3.336975644437309,3.4282421176677977,2.4955541171896267,2.2907301200731127,1.9699863341065447,0.650377610130307,2.729772691449158,1.622570565267576,2.2062457926339016,2.353800601412096,4.923036194897352,3.8566251643842326,5.651892429737907,6.115254246490501
121,2.8249433580977406,2.8066805259398384,1.8757706395805358,1.8655982289749096,2.2628490995315382,0.5007014945879298,2.9624755686797006,2.026820029440348,3.2315446472417424,3.8613944496241714,6.1176623581684835,4.283519334380451,7.140959771765921,6.592318254325728
122,2.127038828562526,2.05099694924329,1.147455606476814,1.327065823674096,2.3373783256077325,0.2841982026403028,2.8747407732072703,2.2121338667108414,3.857257038683901,4.867585781070173,6.676640413545298,4.286300801024685,7.886925975681011,6.472882484334376
123,1.3362061772787786,1.2398492393118672,0.4047454978064814,0.7422849053877044,2.207456739779,0.05468339881620158,2.527545959498959,2.18081911339585,4.062438392695894,5.3150823034044805,6.593423575451201,3.9105497609120814,7.872369500926912,5.823074568368991
124,0.5431277470395718,0.44774948228826394,-0.2684351612365461,0.1753962439431877,1.9055275307494308,-0.13995510391133706,2.0013453150438685,1.9571452321455145,3.872499229333095,5.212172924094602,5.928035785094836,3.234741610463225,7.158957950907322,4.753674507950833
125,-0.17365722449591336,-0.26162014318445526,-0.8074307727360949,-0.3194958787617627,1.477760746693387,-0.26523017319619824,1.3833144165169944,1.582865807456767,3.3514812100101445,4.6261548899200315,4.79656754237878,2.3588681473729207,5.876283532321516,3.4056536157087205
126,-0.754990884976238,-0.8402804078100664,-1.1723968719213425,-0.7033599813461415,0.9780901909069312,-0.3044037008262357,0.755654704114502,1.1111265033507904,2.5907176771476728,3.6702682312427974,3.354694536207845,1.3917683008160227,4.203336413536602,1.9335341977535794
127,-1.1651093664527659,-1.2586777043330375,-1.3499834321215631,-0.9548462957706552,0.4618687990557799,-0.25923249894654443,0.1863976666861896,0.5995958958790053,1.6956831779546826,2.486267897880938,1.77743046310725,0.4386704201657955,2.3451074710910427,0.48843187993378406
