,AF3,F7,F3,FC5,T7,P7,O1,O2,P8,T8,FC6,F4,F8,AF4
0,0.3391588254346629,0.14137367128958012,0.3784410355751163,0.25960506982221976,0.09869373997460684,0.19990658249942925,-0.0801076066581135,0.05387298501487607,0.07439768571166978,-0.003043653943610705,0.12737189642816255,0.0752121474313543,0.058810688289253524,0.2663321956056296
1,2.952461645491505,-0.5516969369521295,2.6327650329279404,0.5742370795543315,0.44234837710030156,0.5625448662561777,2.0288072660440615,1.2281897955976695,0.9641608831575187,-0.022590491273613407,1.0423761357281793,1.7503338260233194,0.12064866950245469,2.356985562619102
2,5.2030976878953235,-1.2686047407442167,4.5488833937494215,0.8104615614830131,0.7379044342397363,0.8908168596357832,3.8670286435528465,2.2585128125051606,1.7824865462841115,-0.026606119884036647,1.8391641195336825,3.210334723473867,0.15120335420593536,4.182857539409082
3,6.8264943092539685,-1.9916487238669027,5.8969380520925805,0.9269878121456142,0.937416992630254,1.1517361002903157,5.199212119216677,3.018742174047692,2.445622868293921,-0.029218251027164542,2.4379591219413324,4.30285581689728,0.14033556972302186,5.564897883818828
4,7.6419942074570155,-2.6866100163951825,6.522157736037748,0.901004086218488,1.0049528496855058,1.3128729946898892,5.8507822493862784,3.413696526329053,2.880182572474564,-0.046393138239049204,2.782566384145032,4.921979373807666,0.08604388743911628,6.380496746828774
5,7.574840860986143,-3.302817577722091,6.364010220942496,0.7322692109630327,0.9216266644681236,1.34551865330689,5.729881483706681,3.3906063801419486,3.031190208266984,-0.09325527349798939,2.8462658264789953,5.020246541107608,-0.005067633609528128,6.5764630532209996
6,6.663761468694001,-3.777254064778475,5.46278571687974,0.4437266295110024,0.6885176313621731,1.228530594887563,4.839516809708582,2.945882517103438,2.8690491752922984,-0.1812208676660186,2.63400344843516,4.61306069711518,-0.11878423278702392,6.17264105416016
7,5.053221621081363,-4.042405923618638,3.9527556458637925,0.0784495199015483,0.32704550472503874,0.9523978258770334,3.278298596977279,2.1262766496864094,2.394560019589699,-0.31535702649908454,2.1806717077389686,3.774944838086865,-0.2356099132690658,5.255866462809327
8,2.971520805631193,-4.036867073368554,2.0428503232256583,-0.30671937768342844,-0.1233090009540482,0.5228814881049721,1.2295152152177988,1.0241483469851171,1.6412045803383524,-0.4924081594006957,1.5457719816403201,2.628199597006307,-0.33410410959275816,3.9652970375197643
9,0.6978531799916484,-3.7171195185332095,-0.012505819143295935,-0.6499488652986264,-0.6097195836289344,-0.03650515704283326,-1.0603000777500111,-0.2327832784551164,0.6741094678084891,-0.6998923955836212,0.8052213030641947,1.3255320017971042,-0.3947284726667812,2.4713458913243107
10,-1.476995123240922,-3.068534946385642,-1.948399790366145,-0.8943271806296225,-1.0726191737640733,-0.6838809575082401,-3.3108456919708593,-1.4961582185167344,-0.4145823077675632,-0.9165529048668065,0.04144161328935515,0.029055993495611315,-0.40358945853587525,0.9513336921593225
11,-3.2907298360436137,-2.1135495617604008,-3.525438137900546,-0.9973697813834529,-1.453371810580434,-1.3607730797845579,-5.242069544092699,-2.6145298908618604,-1.5137951260906444,-1.1142608296007361,-0.6669014392697299,-1.1114170639952303,-0.3554228434537525,-0.4345733873492612
12,-4.544705118780045,-0.915205846565012,-4.5617413205627155,-0.9385896156441239,-1.7020066333084947,-1.996504314298452,-6.608595369004078,-3.4516909483763136,-2.504472293058642,-1.2612379750261578,-1.2541029361579765,-1.977762300837893,-0.255226305296112,-1.5636361808012447
13,-5.12914596193734,0.4251731223637615,-4.956435139024364,-0.7238209340084062,-1.783957392967952,-2.5150104938661118,-7.230292855552407,-3.903513171774609,-3.2723764563755693,-1.3262415261820704,-1.6743269209809064,-2.497882861278676,-0.11811743591932963,-2.364107702232391
14,-5.034879951400531,1.7765673644982278,-4.701330380831894,-0.38543744035735605,-1.6848515587621542,-2.8434795064012377,-7.015127500335228,-3.9111388032129724,-3.721373587995214,-1.2831727803157116,-1.9053412418590432,-2.653019861924117,0.03273101995472818,-2.82021650151979
15,-4.350023324220972,2.9924909481713917,-3.8791656264068823,0.021778194618197234,-1.4126419073423324,-2.921821033983663,-5.971327508348754,-3.468753755247308,-3.785629330770544,-1.1154688145879297,-1.948705821743473,-2.4770815432845676,0.1698846730118807,-2.968051878712588
16,-3.2423250609885965,3.929257750246889,-2.648742171765563,0.4286614694743017,-0.9967385924315536,-2.7117091744534014,-4.207210511921393,-2.624825850638777,-3.4391253326064772,-0.8196267756376084,-1.8266028855782142,-2.0482402193890845,0.2666255922488108,-2.8833011724603184
17,-1.9300428843170088,4.465842618252109,-1.2192177812551712,0.7624743807904005,-0.4842273365190686,-2.2038466195256756,-1.9185667208510233,-1.4765220631914795,-2.701094761064248,-0.40729753970107174,-1.5760212333027221,-1.4742159263838404,0.3022841028155432,-2.663124579507929
18,-0.6459631110759059,4.522408361737182,0.18255008215951762,0.9588643674750611,0.06631727607658433,-1.4222134230214236,0.6349020678470512,-0.15791718547899897,-1.6363809581124973,0.09444336434727205,-1.2414032279121407,-0.8736226424981653,0.2669370332468325,-2.405425011664344
19,0.39979980494331574,4.074530693914426,1.3466706758591969,0.9730768805227921,0.5925639242484144,-0.4243863076515992,3.1611534640863685,1.176551716494787,-0.3503052078196832,0.6448105621487832,-0.8670653398424827,-0.35634130622328963,0.1645067111582552,-2.189198803735534
20,1.0524482889540632,3.1606060771908475,2.1116539232308837,0.7885652288431074,1.036620976087114,0.7024898726262778,5.3713856811666645,2.3712669774823163,1.0216809271920984,1.1929186207527533,-0.4906772152192468,-0.006006307037092463,0.01350834361534327,-2.059447428597398
21,1.235584485299247,1.8808229224902393,2.38787400087698,0.42149048160516844,1.3525557503090817,1.8498961613640275,7.0150863810773805,3.288746221096289,2.3285794813368357,1.6829504085542963,-0.1388375491794394,0.13267310923031014,-0.1549281619586715,-2.019314148274364
22,0.961276267520087,0.38728634070436296,2.1695599198684103,-0.07979180498185875,1.512201530259279,2.899499666568951,7.910071167950518,3.8265518464385813,3.4210720250116413,2.060338920196764,0.17463672911304556,0.059830132874315746,-0.30165511848147625,-2.0308189454005143
23,0.32573211645324646,-1.1337765573681429,1.5335837087183912,-0.6403983006494598,1.5084703606619756,3.7367424600880947,7.963705468619206,3.9295750737891346,4.169362495637353,2.278269284802922,0.4476126498533968,-0.18123417497104718,-0.3861185590780792,-2.0240256094293474
24,-0.5085194201395812,-2.4855547120771906,0.6253503314066708,-1.1690770140292437,1.3557477981563264,4.264749298914195,7.182692576750369,3.5961146911094715,4.47943170098683,2.303735245488811,0.6861657463572884,-0.5129304016774817,-0.3739592545191993,-1.9129605808227388
25,-1.340954216522887,-3.4868009619192195,-0.36592840307102903,-1.5714835912238503,1.0873530121913428,4.416702554993903,5.67034818377171,2.8770316130813147,4.305597451137114,2.1223930198750827,0.8995922184631114,-0.8379367528913542,-0.24431754252480897,-1.6153844007272957
26,-1.9672969234891127,-3.9969486009041133,-1.2386751324174703,-1.7646832905048349,0.7504446339816343,4.164955621603108,3.6119470836484986,1.8682123440384977,3.6576460736016414,1.7415437721814022,1.0950368363435188,-1.0570182197994709,0.00448629373559223,-1.0728069283054633
27,-2.214252584981449,-3.9365868438215377,-1.812191739439684,-1.6907485817918748,0.39908716024514085,3.525538859240691,1.2502837249113339,0.6974754263361648,2.601411885044786,1.190741280427553,1.2729119377843452,-1.087202729115788,0.3520308236707455,-0.26705576050363283
28,-1.9693036921941525,-3.300260463093963,-1.9565469185158435,-1.3273981312819096,0.08642567936458245,2.5573091790204323,-1.1451818864112095,-0.49222544960463477,1.2524697097720685,0.5197604727552281,1.424113013439053,-0.8773760041205818,0.756363831025404,0.7697383874634555
29,-1.2009951430643642,-2.159593972507915,-1.6144916302640147,-0.6939998593067416,-0.1429747426010695,1.3557219239908154,-3.3114804011095047,-1.5610077875034098,-0.23652123028088237,-0.2060357309758766,1.5296864592776143,-0.4187809217943459,1.1582520452580023,1.9537853571620873
30,0.03334864223440272,-0.6560765214514557,-0.8120338184904555,0.1481200494393528,-0.2595920932597301,0.041950916428750706,-5.0233120817013,-2.389271896741156,-1.6934432373704877,-0.9125567623405216,1.5631395891934692,0.25128724693398596,1.488702196709733,3.157516776327438
31,1.593585036119769,1.0157227675996707,0.3439521508168779,1.1013488734921733,-0.25332933078242365,-1.2512678695372135,-6.1183774373847175,-2.891732530491967,-2.9472505232712436,-1.525369131763793,1.4950817123547897,1.0532407206422036,1.6787960077079624,4.22577056221785
32,3.2754427645321953,2.632416285020384,1.680737257999465,2.0429077057032403,-0.1351890830657055,-2.395240127723549,-6.513893745056254,-3.0265874503081243,-3.8489065107547713,-1.9786353554151674,1.299432143396909,1.875918619536664,1.6704674379243096,4.997950151164688
33,4.839125132742073,3.970414454973463,2.985133648411942,2.840129182627358,0.06404776032644054,-3.280340724667199,-6.212589380985507,-2.798843389136836,-4.290113789318909,-2.2234786551678867,0.9601039046817152,2.5927072188885076,1.4266373089286868,5.332808699802468
34,6.0436118946944,4.835176939487437,4.035500653518739,3.3679999951577555,0.2980477331248048,-3.8285260222946094,-5.297890372253753,-2.2576196577746424,-4.217436462579915,-2.234630216779409,0.47692845368365167,3.080680111165989,0.9391421715594754,5.132019099224788
35,6.681692574396191,5.087282216445162,4.6356260319108085,3.526709636741126,0.5115799819306978,-4.001739894075219,-3.9194024044287956,-1.4880330296705218,-3.639932233055948,-2.0143592681446827,-0.13034652908497046,3.2399142413604807,0.23314842190534435,4.358801860197185
36,6.610740378966581,4.66190450004037,4.645489305458436,3.2568642349477255,0.6487843628659725,-3.8051816417729833,-2.270968105455305,-0.5989318531496859,-2.62917116044588,-1.5929820994146426,-0.8208869558979146,3.010095403391154,-0.6328068950996795,3.0485685215823843
37,5.774914452001302,3.57912525168642,4.004381310566765,2.5502390430162882,0.6619778980651156,-3.285096349776916,-0.5644056084117625,0.29178646475059833,-1.311432495271427,-1.0256681291834953,-1.5349046387284764,2.3819041145242683,-1.571422881216617,1.3096864867590938
38,4.215737461338962,1.9436606130169523,2.7429653623382917,1.4544353373503425,0.5197895435576078,-2.5214784749607717,0.9975744651791585,1.0723196742740417,0.14716215062504276,-0.3857628950738007,-2.1990503913591977,1.40141056303054,-2.4755254491823124,-0.6860958211012849
39,2.0696396089849807,-0.06609158816575568,0.9824506366752216,0.07052544349768822,0.213428658232655,-1.6167492554261522,2.2458439560528074,1.650648886180058,1.560911155169852,0.24463532059352056,-2.734502130577421,0.16669722824506433,-3.2302737519212417,-2.72252215985848
40,-0.4471508862297683,-2.2184522433320324,-1.079123913979502,-1.4563663021545112,-0.23992963470979461,-0.6819884565017257,3.063784582249395,1.9651274863832757,2.74777991331019,0.7856547337471654,-3.066735277955749,-1.1829744112496985,-3.7272267910363333,-4.564606692494397
41,-3.064305620013312,-4.255896871927515,-3.1916855207050765,-2.9526900743537308,-0.7973288349368124,0.17739878902633155,3.3985568898492553,1.990790490012302,3.552748512772049,1.1706842150047534,-3.1356640787888965,-2.484090617532679,-3.878513402260323,-5.987918118573766
42,-5.490257073131276,-5.926224474297379,-5.085650517788559,-4.2366072915826205,-1.394020253206425,0.8746601054714914,3.2636496775597785,1.7407880660406985,3.868252165744258,1.3558591726199511,-2.9047379245230442,-3.5696969947279626,-3.62927997209682,-6.807456233663316
43,-7.4479282365665815,-7.013659641107214,-6.507755618923411,-5.140277959328443,-1.9509681356674702,1.3516265945785737,2.7327853127320116,1.2629755412715904,3.6489717914274524,1.3265349742369321,-2.367680650711949,-4.291351443986224,-2.9667656377071863,-6.9022531696606695
44,-8.70874784328552,-7.366046804959146,-7.255329843093016,-5.531548373779434,-2.3850507658262874,1.584364764683718,1.9263407381913125,0.6322888652620391,2.9188734494172843,1.0996573629632742,-1.5518542007414138,-4.539311831804854,-1.9247467356276753,-6.23241621239464
45,-9.120674045252676,-6.914721231117451,-7.204358661910181,-5.332234472098121,-2.620676546202812,1.5839435381498705,0.9923473427429302,-0.05997002215948995,1.7693448728700323,0.7215024259900089,-0.5176634582688436,-4.258269628954593,-0.5826423965071186,-4.846350756911732
46,-8.626788620589961,-5.6844928283519724,-6.3275407407611555,-4.530504909197523,-2.601222108440725,1.3924057479834182,0.08475026200456605,-0.7184746929521003,0.3484230757019091,0.26093473350367247,0.6460704132280441,-3.456502987719239,0.9407918344408823,-2.8772022189621946
47,-7.272273371668617,-3.7923641463236866,-4.69989258857157,-3.1855218378576677,-2.2986025588950416,1.0746965971583866,-0.6581294962714296,-1.2562325974591628,-1.1576930545866244,-0.2009741651353134,1.83032947116867,-2.207152967423775,2.4986129827942576,-0.5289468848705224
48,-5.199069140619396,-1.4349855435439662,-2.491126170761779,-1.4234271851809301,-1.719440140612792,0.7078375662273227,-1.132102443829028,-1.6054064411915687,-2.5485566643411866,-0.5835154613418291,2.9168298233861356,-0.6413180364448503,3.9305394117999937,1.9461453590835371
49,-2.6290478450103447,1.1337422569238844,0.054222778973146875,0.575148775892068,-0.9067049770569767,0.36897110666156574,-1.280231199588396,-1.7252897984274433,-3.635698497673121,-0.8192240223956259,3.79046106945591,1.066309532348597,5.079919817394981,4.275921823064183
50,0.16209598383070978,3.632257149665209,2.64634081523635,2.5947784052017018,0.0636877733969473,0.1239981925644076,-1.098969215501511,-1.6065265915705178,-4.267634878330737,-0.8650377249907304,4.351862867392971,2.7176019283387327,5.810989863944259,6.199223018516041
51,2.8769677203432815,5.7845272555081095,4.985550740388381,4.409886143612185,1.091113817154673,0.01838007985779375,-0.6366753111105187,-1.271164010433739,-4.350219897979619,-0.7098705817845591,4.528758118668632,4.114546844244833,6.024533689331857,7.495599774778948
52,5.230709442087217,7.352777206380533,6.799073125147065,5.811420517531105,2.062366202565863,0.07130379966179418,0.015113714317643667,-0.7686678536052185,-3.8595129305980893,-0.37722930592954224,4.284799291101455,5.083340216575113,5.6702132192910994,8.010469305724847
53,6.98329655579043,8.165715110677734,7.874494260882754,6.632277562640151,2.8661044870431125,0.2738783774634212,0.7363041459904984,-0.16854149350700628,-2.845377042252479,0.07773763587943755,3.624938192113666,5.496063725841209,4.754143801024834,7.672910428499808
54,7.9661579378986485,8.13876711518796,8.08576706619525,6.768275156281887,3.4076398058828263,0.5914241920472171,1.3966336008265432,0.44939006082878774,-1.4253353222459941,0.5764644210927446,2.5966649505574697,5.287242292690979,3.34074466493894,6.504182565517325
55,8.100117447698391,7.283805589268047,7.408551268149279,6.191954322800285,3.621931724849372,0.9693397327354786,1.8752178083887185,1.0056957101438508,0.2304256406296228,1.0292797479399285,1.2868490027206319,4.463161659081398,1.5484416729994912,4.616104608700765
56,7.402709385483553,5.707156656250206,5.92305801108418,4.9573195869599855,3.482853461330054,1.34156278981296,2.0785267841656876,1.4316258323278301,1.9208178818572628,1.3499054577082377,-0.1856679585402574,3.102680949212996,-0.4605866812433436,2.1995339146854564
57,5.984173357398705,3.5961362193397655,3.8041291399359043,3.1947323262119482,3.0072682562266606,1.6403426747666656,1.954312492587756,1.6776427342808613,3.4394275763812567,1.4698345538876871,-1.6811500723512312,1.3493028896998915,-2.495793510167227,-0.49576545855689264
58,4.032746018895806,1.195806037770868,1.2998591659222671,1.096404143437689,2.2531885840450037,1.8059310938769881,1.4995900415908243,1.7191363167019462,4.600518356643996,1.3502544125065172,-3.0527324843715036,-0.6046601132806864,-4.357352037224348,-3.1876812908079732
59,1.7910945910157763,-1.2211258971179761,-1.2985343241040934,-1.1058574999056126,1.3121568076944807,1.7948791679828981,0.7615989325365562,1.5586706104974775,5.262102711375901,0.9895386783424378,-4.161545796604884,-2.5400011211542592,-5.857028213368998,-5.591895260048668
60,-0.4732543265218746,-3.3874749601766627,-3.691837005703927,-3.167981863576151,0.29685939094924824,1.585873799128041,-0.16837167851159054,1.22458405686985,5.343176641480992,0.4250158996234238,-4.891639282363357,-4.236027437912668,-6.838597563114749,-7.452399028252507
61,-2.499958518590719,-5.07365388525717,-5.608630653723972,-4.8626856252740085,-0.6742718479189989,1.182421774667299,-1.1674446076258935,0.766251449787529,4.833021875555398,-0.27137614993141396,-5.16306180262402,-5.496429855959518,-7.195480974112025,-8.569132678991322
62,-4.066572392015638,-6.114635183695585,-6.837386870751561,-6.006616823984234,-1.4932325402351154,0.6121477295307648,-2.0982049538665697,0.24674399655146606,3.791534001348467,-1.002971076114981,-4.941557336086018,-6.17250837224908,-6.883463675623187,-8.819780706217381
63,-5.014290841051867,-6.42844727652671,-7.2509990439470275,-6.482172233019187,-2.0770095250167344,-0.07704563294576643,-2.8280147036872645,-0.2660578153744999,2.340699943330479,-1.6623287407095746,-4.243616952216681,-6.180960361000613,-5.926833333275655,-8.173353415623856
64,-5.265677964960083,-6.023941675924078,-6.820859584774381,-6.251222596039987,-2.3783771333904657,-0.8232671688461601,-3.2479417769471244,-0.7086728357469301,0.6484779495900338,-2.147155155143435,-3.136086930001109,-5.514085515633602,-4.41698869010462,-6.694025570364329
65,-4.832282576338654,-4.996955681848742,-5.618896246685623,-5.358999853822533,-2.3913263174331645,-1.5583615510291178,-3.288671540887553,-1.0303164432659095,-1.0927152037471939,-2.3757666080657653,-1.7301234425756333,-4.241165470079623,-2.5034464986311193,-4.534717840702549
66,-3.8112451773601976,-3.515499872261373,-3.8074585733740514,-3.927652035696529,-2.1503329171397323,-2.215895204829285,-2.931135971352382,-1.1992054789338473,-2.6900510146994905,-2.2997499013601885,-0.16994402045897913,-2.500823942755463,-0.3780995200997823,-1.920992422795252
67,-2.371323732476397,-1.7960228675373453,-1.6184131541576958,-2.1402915360021915,-1.7236024063380109,-2.738271530183968,-2.2102789513782928,-1.2060772907683173,-3.9737321248700908,-1.9119077073323416,1.3825247926699697,-0.4852404951983949,1.7455695341555963,0.8731135903624486
68,-0.7300574941336204,-0.07395475596886002,0.675908425748894,-0.21758028843735666,-1.2013443005519802,-3.0820720284377563,-1.21129939039793,-1.0645120647344666,-4.816817405313851,-1.2482980305690605,2.7654516781251695,1.5819474412550911,3.6559496839894554,3.554783501793374
69,0.8751025849329656,1.427549372823281,2.79630877491041,1.6101454957581427,-0.6808908488130662,-3.2210905211560195,-0.058759463056643646,-0.808077307323325,-5.148926241446792,-0.3840570799665528,3.835329266723579,3.4714737715049337,5.166689647242842,5.844444943033606
70,2.2180785799400167,2.526546286536907,4.490749389463851,3.131631650274536,-0.25096436552298623,-3.14696435781725,1.1000314115892114,-0.48473786662890767,-4.962160355526331,0.5763993978874966,4.483461424259052,4.974975960879124,6.137221165446087,7.506580805775641
71,3.1138844973217674,3.1051483320059323,5.564650007735578,4.180647839735901,0.02246189872708674,-2.867720110996104,2.1150950381132643,-0.14934301800216498,-4.3086570289118225,1.513395571854288,4.648671419358752,5.929101654591388,6.487936067712051,8.375822780780037
72,3.442928117292367,3.1233416029062773,5.90378037002746,4.655786318786186,0.10649910228801662,-2.404860224113029,2.854516075880445,0.1447328482977084,-3.2903609486538508,2.3082347503800382,4.324585420535875,6.234323226266537,6.208164297468482,8.37526033499624
73,3.166675970851721,2.6220692998634414,5.486979728605538,4.531600468022149,0.006244185058644665,-1.7897673866046862,3.222866489317481,0.3535950726951184,-2.0427075910026793,2.8593414742821897,3.5604653274176656,5.866197310194841,5.355976655004857,7.524713280710189
74,2.332536533079576,1.7153130521903455,4.387202944280177,3.8597192127769673,-0.23654025436928586,-1.0601775764632395,3.174645730086421,0.4493171612878231,-0.7147786002163506,3.0960023762813136,2.455342183151351,4.877690082364247,4.049850426744193,5.937837744176473
75,1.0672094703159773,0.5723743187043984,2.760850899657319,2.759913902826622,-0.5507769587815057,-0.2572898667614908,2.720750673187107,0.42395508179049385,0.5510256164546231,2.987745575807527,1.1460413195747834,3.392255345621437,2.4532542324495132,3.808245355271671
76,-0.44071872808433166,-0.6071399032391246,0.8268160045897792,1.4024371100599367,-0.8483074492383484,0.5762077096530631,1.9269955108524488,0.290477413115891,1.6367405970994513,2.548030777471846,-0.2095136798858353,1.5884784982994455,0.7540963211118374,1.3861607390022337
77,-1.9666864737565821,-1.6221609884521306,-1.162027847184022,-0.01588842214516774,-1.0390804489652223,1.3972386087834603,0.9048725057304304,0.08044786604819816,2.4614485824604713,1.8317570288374128,-1.4516860448064732,-0.3218507391468134,-0.8583745986533999,-1.0516491546774964
78,-3.28113651318928,-2.298873820634921,-2.951208350270824,-1.2985395127748822,-1.046896393016529,2.1628816013839938,-0.2041058802839683,-0.16121986931705176,2.9870895908188437,0.927010443469447,-2.438768796082154,-2.1195361802353334,-2.216306240037582,-3.2350355325679976
79,-4.181378696507661,-2.5153894169280724,-4.316750211873233,-2.2754762571559954,-0.8232185067047788,2.8308354764192347,-1.2481996140106983,-0.3836648801600458,3.2170166970655742,-0.05766988464409792,-3.0643680110437765,-3.6044333589797755,-3.1927545565508564,-4.932612432801079
80,-4.519974086270944,-2.219037750508867,-5.092887084151655,-2.825147100627874,-0.3568595805529413,3.360292289601288,-2.0864950159669804,-0.5385213350789204,3.18811039572575,-1.0085670413239591,-3.2702575385011987,-4.619251999792061,-3.7155218522027287,-5.978830773859736
81,-4.225707008171178,-1.4339719321139521,-5.19189602801179,-2.8894508108577983,0.32201086883261865,3.713571345303585,-2.6081951721223806,-0.5880939281277323,2.958371492272674,-1.8222968901802818,-3.052995885964674,-5.0677071794033495,-3.7736063582669517,-6.292512445519665
82,-3.3141969838343073,-0.2581099450283408,-4.613619058436861,-2.4797972507796255,1.1442244894474274,3.858625731155785,-2.747421944798357,-0.511967885544391,2.592639380477439,-2.4192383508171496,-2.463397954501189,-4.924737315864253,-3.4155117941082334,-5.884441736658888
83,-1.8866136100570474,1.1501071555233524,-3.44360865422747,-1.673646653491368,2.0100555055239595,3.7722510731192576,-2.49150123626895,-0.31096660067822784,2.149296359896727,-2.7529149016835315,-1.5988950201809555,-4.237530160132328,-2.739737065170277,-4.853034620220637
84,-0.11660205922164346,2.593291763750913,-1.8403362582173513,-0.6022036239629465,2.8025497500670307,3.443570851093766,-1.8816851404312485,-0.007760723412547379,1.6704847446996012,-2.8140128955383545,-0.5897721266124921,-3.1173049516832223,-1.8788100821315894,-3.368703415551007
85,1.7728224587121015,3.862065811405323,-0.013334758743029768,0.5688786329787716,3.4038210436060594,2.8772024713918274,-1.0063814110743723,0.35605214545498215,1.1775540049714082,-2.628585829884335,0.41888405840424237,-1.723035623968771,-0.979110627548782,-1.6490886000233143
86,3.5392305650852287,4.763738438273178,1.8046841391119126,1.6630234057903441,3.7119649775870642,2.0954603592383534,0.011956929467312324,0.7260156768168574,0.6723318285459541,-2.2509336307853385,1.2870797658677053,-0.2393969918954194,-0.1793236485996216,0.07138360740617655
87,4.95342116398231,5.148836604064857,3.3879495346431447,2.5172120947184418,3.656163419094778,1.1390363201288514,1.0342455597184927,1.0431306639984754,0.14359676188776155,-1.7525088686653156,1.8989168519304012,1.1479922530212985,0.40941939468323757,1.573344952151429
88,5.8301973386193,4.931929905900267,4.545980299286867,3.0040932344521902,3.2078321691884657,0.06579373539407948,1.9238984547012525,1.253132128427652,-0.4229401941118584,-1.2088380274784911,2.178067398453121,2.276600676946488,0.7188691977916928,2.6812613006377175
89,6.052992867694285,4.103978692306371,5.146491420728707,3.048787431968458,2.3862456874756584,-1.0524234007287743,2.5649396243069975,1.3152583246444722,-1.0335533944759134,-0.6867413152385096,2.0975644738164037,3.027006150612981,0.7322511789578701,3.2851406199949738
90,5.588958558106017,2.734587293113442,5.130019486145382,2.638241410102655,1.257858210180248,-2.1347880034733406,2.87662678004694,1.2090991385940557,-1.6769545045660428,-0.23403676073260513,1.6825502845068179,3.336252503746181,0.4848900324497521,3.3522367496846788
91,4.492498495671086,0.963900551694592,4.514631963311554,1.8220389225893359,-0.07059130213331372,-3.0978727815492566,2.8227275988038567,0.9384040489132796,-2.3186142458753576,0.1265587347828668,1.0056223806672817,3.202895240527401,0.05680971016025975,2.9273134203546545
92,2.896913709074953,-1.0147375070489155,3.3904803415161395,0.7047540425449779,-1.4642730695520372,-3.8628199824945826,2.4144410264732983,0.531213006827018,-2.9005290564148374,0.39838616520673475,0.17548185846122508,2.6833320590910716,-0.4415403021756188,2.1217468650254614
93,0.9955202445748779,-2.9790169884652142,1.9053453234338449,-0.5689252097692012,-2.77615559284496,-4.362599772002862,1.7069124133212634,0.036265303547462185,-3.3469342164405016,0.6066435771166937,-0.6794350696657355,1.8802983944226188,-0.8882224396468077,1.0934142468948702
94,-0.9848960678603875,-4.705532045078479,0.24350557328564792,-1.8341212964594455,-3.864526236984931,-4.548636508545958,0.7902024990226693,-0.4837630102422042,-3.5752828242199755,0.789940827813658,-1.4299181867416362,0.9255384686391983,-1.1704621284909615,0.020676121196011706
95,-2.8143744933776054,-5.997570105444339,-1.398926858259911,-2.927922337280701,-4.609900198001715,-4.396129022645443,-0.22370322236192414,-0.961147063950244,-3.5107395943005697,0.9892862184697289,-1.9647300258775389,-0.04053851498100324,-1.203772189511125,-0.9254081344677211
96,-4.289463919377502,-6.709158243659825,-2.838730381338627,-3.7107179391754723,-4.929193432729441,-3.9074961613631367,-1.2158203635272429,-1.3327644095436535,-3.101672717554724,1.2366454035800098,-2.2063770358345964,-0.8890639227813252,-0.9465294709694563,-1.606328576990673
97,-5.258157680670313,-6.762268525726692,-3.9270651334287896,-4.083862953351675,-4.785427139970271,-3.113531062841148,-2.0749032507277727,-1.5490546092126973,-2.3332997313966377,1.5452975776057467,-2.1216145432252924,-1.5197850746029264,-0.4076829085861341,-1.9350575005676538
98,-5.636779403845556,-6.155072182478357,-4.5650867686900565,-4.001408240759993,-4.191834792305536,-2.0720352804472033,-2.710098416894189,-1.58096802568471,-1.236812968238837,1.9039017420276523,-1.725216466695111,-1.8726485675304707,0.35365405585820897,-1.8860071095936952
99,-5.416832572770741,-4.960396579195896,-4.712031289933588,-3.4745295120931723,-3.2099706828744097,-0.8639138650512835,-3.0601012515588724,-1.4239189850088143,0.10804668186309117,2.2755261961593036,-1.0765855969740141,-1.9325136409952026,1.2366919300595955,-1.4948754389288135
100,-4.6613889145389225,-3.3148904901911913,-4.385292254244313,-2.5683398171491767,-1.9421734095688228,0.41306809708592135,-3.0980301936165437,-1.0982306273539302,1.5779852892582027,2.6019994846707153,-0.2698844721774821,-1.726781713847556,2.11421003852134,-0.8489111035216543
101,-3.4921474681105362,-1.4006436154038564,-3.6531750030704875,-1.3918307521360933,-0.5194226927676748,1.6524483115925594,-2.831883005775371,-0.6460891621065704,3.0185203569368326,2.8129706545757993,0.580648279161242,-1.3168699796304346,2.852145999424459,-0.06965479154536795
102,-2.06960188994625,0.5780396158013175,-2.621986957833806,-0.08259928855736844,0.9138386427280667,2.748520753264697,-2.30101156603286,-0.1255307455696245,4.262290353911901,2.838197660788017,1.3578287066873551,-0.7853826941878151,3.3304189320195356,0.708653896496068
103,-0.569613355422239,2.4194714443627334,-1.4197693661113957,1.2113453978350606,2.2160233778414455,3.6062627707204253,-1.5694787214881065,0.39760835905211006,5.150852588915105,2.6209708958291524,1.958431712408334,-0.22139409727204581,3.4616876846938465,1.3612630649560118
104,0.8400148961809539,3.9477152276319765,-0.1792174169612156,2.3501212119005586,3.2638859289222473,4.1507735661606855,-0.717411551439279,0.8585922999596365,5.55683768877766,2.130329422756296,2.307327626659387,0.29362734669682045,3.2051015275487362,1.7920478130842432
105,2.019646273841586,5.031132189284058,0.9778330914345905,3.2183902891953964,3.965368230770213,4.335193392288297,0.16846271776490934,1.2022765578866377,5.403129590703737,1.3698814653816496,2.3668473475962646,0.6970490312931787,2.572937298800034,1.9466734242695547
106,2.8720677403420565,5.594255098618492,1.9524904680410007,3.737641113803633,4.2683818948233965,4.1461195938266275,1.0039969804252127,1.3900370880866528,4.676065052494186,0.38157042839137206,2.1402094469945014,0.951936429206617,1.6291869267905275,1.818029009763967
107,3.3494761161044675,5.6219608169888025,2.676347159126166,3.8730358713574655,4.164651788894034,3.6057243133921486,1.7156188991844625,1.4042504635447945,3.4304594252558536,-0.7564585263983382,1.6688257809892335,1.0489169143243093,0.4804585377510383,1.4435895658590039
108,3.4530162095750634,5.156043984073458,3.1141861896458995,3.6343656001661593,3.6883858835672703,2.770108938730546,2.246498097166359,1.2498136641955704,1.7854435252172975,-1.937777266484445,1.0242594247637165,1.003337393856304,-0.7392406312401834,0.8957505973397979
109,3.2258412270135253,4.285316863917311,3.2623228284982546,3.071488432570173,2.9101809001521026,1.7238701117954278,2.5605157761460453,0.9526210494144485,-0.08854689387871846,-3.040321187149505,0.2963848871910316,0.8487905971129671,-1.8873609658656407,0.26729661729640414
110,2.741535633700688,3.1311266423698982,3.1436153114514753,2.2653257208853113,1.9271375063806795,0.5713435122654565,2.6439182199810864,0.5553363416844282,-1.9899703181390211,-3.941935824815671,-0.4202199006201097,0.6285962544123174,-2.8323536051838687,-0.34516960109567596
111,2.0902122369954843,1.830597971321159,2.8004780086795096,1.315967677879429,0.8505713506963428,-0.5745389485848467,2.5047522911247393,0.11115125377039006,-3.7108413623335488,-4.5365296702108555,-1.0394991485610419,0.3869935988262752,-3.4709678502585746,-0.8568875744711607
112,1.3646328462920099,0.5199495078388808,2.287252608258176,0.3296509579565868,-0.20707949317824165,-1.6044741519025627,2.170357001235102,-0.3235367518458682,-5.062476836889406,-4.748451517095419,-1.494845914054149,0.1616310302405316,-3.74086048143479,-1.2071466353661038
113,0.6483534242867932,-0.6800613339515011,1.6630813779233826,-0.5936800982265927,-1.1445510673551857,-2.4245926876558386,1.6833177620508932,-0.6964954435467214,-5.898800632577844,-4.543003881673059,-1.7463341347900578,-0.021504893286109432,-3.626925533277281,-1.3663206467185502
114,0.007273147099401771,-1.6750515112509017,0.9860635146054711,-1.3707853631410742,-1.8818574601324831,-2.966358871892811,1.0963782352408258,-0.966093333050837,-6.1340515188750855,-3.9316108313744773,-1.7835504461492298,-0.15017907937454128,-3.1608001530581147,-1.3370651790911603
115,-0.5147818604662961,-2.4034417456953023,0.30905962185552677,-1.9424894434676527,-2.3671708072624096,-3.193320736363787,0.4668496641426434,-1.1059956772998585,-5.752560007196069,-2.970963315677379,-1.624048407751803,-0.22509652560701138,-2.414058202616092,-1.150085153290325
116,-0.896540848924768,-2.838251276897742,-0.322867128464652,-2.2774593403190067,-2.579915116935113,-3.1038931060289086,-0.14894005165191224,-1.1075963453749895,-4.809407561744305,-1.7563330411785856,-1.3080949688861154,-0.2567953926054291,-1.486497091471837,-0.8557734287770287
117,-1.1365349785579995,-2.9847193078593874,-0.873655389118708,-2.372364208179899,-2.530017219549634,-2.7299068956144166,-0.7006550406130757,-0.9799953059506283,-3.422076967352818,-0.4100487425768444,-0.8908552099612875,-0.26119313821868967,-0.4915293435627572,-0.5135911896812276
118,-1.2481931189408983,-2.8746771221734204,-1.3165140073063488,-2.24882311580053,-2.253733170192934,-2.131241153514484,-1.1479950813615036,-0.7476720878906532,-1.7544463085577362,0.9332397881175927,-0.43341302399626863,-0.25485560738928065,0.4590568597920381,-0.18124440006056203
119,-1.25401694268789,-2.558867029943047,-1.6336808435615657,-1.9478874686048904,-1.8068543309571643,-1.3873768496154317,-1.4634654570261338,-0.4463056393013013,0.004516439572461083,2.1425004932483684,0.0059611622406092355,-0.25096429750558163,1.2688084657891658,0.09448101231923754
120,-1.1799809003345023,-2.098476109315534,-1.8160090653930814,-1.5230157785556309,-1.2563512421622098,-0.5870915895755576,-1.633704443058424,-0.11741229144483244,1.6643735535700557,3.105356111032067,0.3790840685240173,-0.2566920435377568,1.8670419200876334,0.2838544634533828
121,-1.0510376054891502,-1.5570427395944608,-1.8625725773694675,-1.0325672756542397,-0.6716130337470605,0.1822995185821036,-1.6593542566403172,0.19740846815764868,3.055984404240189,3.74031190197614,0.6528196490949876,-0.27233360806345686,2.2148826536934934,0.37661126816393903
122,-0.8882355404879091,-0.99364398084512,-1.7803230937849381,-0.5327733826689512,-0.11638476780449138,0.8447745655821985,-1.553613812148816,0.46182489455920395,4.0505081619887795,4.004718195276532,0.8113113732180418,-0.29215389682999665,2.3065247107505202,0.38066845960410556
123,-0.7075545479207053,-0.4579386646779876,-1.5836948823049355,-0.07196532438596823,0.3576870215146026,1.3433372200546143,-1.3397420080866704,0.649026074409329,4.572366744401657,3.8976438021595574,0.8555219405730662,-0.30658224200452455,2.166044854745969,0.3178226776280376
124,-0.5202106173519802,0.012714770146599896,-1.2939674842564746,0.3134227066245496,0.7152852189459322,1.6448373230748248,-1.0478687390416381,0.7443732279157443,4.604801087189532,3.457548961043184,0.8005065515233032,-0.30514826732605277,1.8407047456463201,0.21757121733427723
125,-0.3339331619709582,0.3941703711681761,-0.9381799670398414,0.6008510907506683,0.9391651692919778,1.7415055653351958,-0.7115049774019245,0.7461975574345888,4.187706187263277,2.7553356255271058,0.6711274836783031,-0.27945563543978086,1.3920761443388179,0.11041323788689694
126,-0.1546094990272954,0.6747889636557729,-0.5474485474497439,0.7817384464211162,1.0294986475245251,1.6492832717647754,-0.3641241664828006,0.6647708144563796,3.408483569018617,1.883926740317554,0.4970603673485314,-0.22553523037551856,0.8864858268944511,0.02193623869448172
127,0.012270859327269876,0.8536090686663955,-0.1546632968941966,0.8598980022966991,1.0012096174793372,1.4034354073121076,-0.036129624597721996,0.5197364521195276,2.3875581518295115,0.9459144795961002,0.30793739136008164,-0.14509480806503477,0.3861946228140274,-0.031298518137001796
