,AF3,F7,F3,FC5,T7,P7,O1,O2,P8,T8,FC6,F4,F8,AF4
0,0.6001033567154593,0.06068596098566115,0.6451536153993822,0.2764364590841718,0.12414522164004674,0.2232500448306168,0.29427493127675775,0.15021477375493403,0.3222878920647873,0.2687017679928135,0.41876563552313206,0.8251572971359014,0.6899964854188816,0.6664328617892272
1,-0.5499245490995429,-1.0118079098087889,1.036067555935044,0.5324058806294946,0.5698588467743086,-0.22234114796811005,0.11631384509291573,-0.5850471020141308,-1.0105528899991738,-1.1759720897852248,-1.3084381938290426,-0.9589373447224132,-2.140798285115123,-0.7923289789954014
2,-1.642685142570339,-1.993790862659601,1.3484163334263943,0.7236437414281944,0.9881148425293879,-0.6587740860961178,-0.12267379334941608,-1.3051868191238107,-2.303834756961589,-2.544329374863496,-2.9992137284150244,-2.696137978882169,-4.816548144895431,-2.2116115089007966
3,-2.5989599997076214,-2.821453880457832,1.5231662578357616,0.7896648252560267,1.3268323032769707,-1.0594838946035776,-0.43790837761512896,-1.9605338933051155,-3.4414178915379305,-3.6956391598224987,-4.53876065083928,-4.264743386007019,-7.105475503175725,-3.467340894343177
4,-3.3607561807502297,-3.4504497920461525,1.5072551546396802,0.6812644374725948,1.5389829354243332,-1.3992364890191882,-0.8320405618784098,-2.5039920937669176,-4.319607068674907,-4.512574993942308,-5.8206640181080935,-5.558123340118764,-8.815966453245089,-4.454311363763205
5,-3.8956349026432933,-3.8585362560954257,1.2604929805785268,0.36873734420371024,1.588481487008958,-1.6555619286659,-1.2915950378795142,-2.894271342254129,-4.857831591148399,-4.91497800274331,-6.754928933461511,-6.492727609694055,-9.815029588343398,-5.0969682826822
6,-4.196643872327699,-4.044852670298614,0.7628533301699341,-0.15153176414755684,1.4551479671324874,-1.810346434102679,-1.785541691955106,-3.098677431217349,-5.006518923663993,-4.868502634304457,-7.2744700622314715,-7.013294588631418,-10.039386163981163,-5.355829302886739
7,-4.278205024472494,-4.0261968656717855,0.021086491865259682,-0.8531773797285593,1.1381054756344786,-1.8514672093169704,-2.2665165750447196,-3.095394474753678,-4.7514327457292795,-4.387222732558001,-7.339673862725387,-7.095058129836094,-9.498302472676933,-5.22899494882903
8,-4.16903910699262,-3.831177008761613,-0.9266504876895026,-1.679511991845236,0.6571419187778985,-1.7742702237196735,-2.674890343603821,-2.875267792994748,-4.114272124127874,-3.5302090323262876,-6.940910584724042,-6.743190059412745,-8.268444162052102,-4.748996236331412
9,-3.903719588220867,-3.493448829287148,-2.0094540104991454,-2.5472035164925173,0.05179073312212822,-1.5826378192577562,-2.945474867401642,-2.4431071615552113,-3.149801637029483,-2.392940344515217,-6.099075835519745,-5.990054404149977,-6.482059302474751,-3.975926672064674
10,-3.5146450929297,-3.045351328700857,-3.1266530316284435,-3.3539354784006226,-0.6218550798807865,-1.2893888732111638,-3.0162231977349667,-1.818484081508986,-1.940137217709139,-1.0950466554528884,-4.864360793336562,-4.891031557397805,-4.3105278766993385,-2.9882863713447283
11,-3.02606792220824,-2.513114465232514,-4.155584471669384,-3.989451610835004,-1.2963233685095525,-0.9158078479574506,-2.8378820568812984,-1.035913263595324,-0.5870164082312627,0.23377585223401054,-3.3134798827016296,-3.5196747834148696,-1.9456594733451584,-1.8731498601790864
12,-2.4513487575380113,-1.9144631182776832,-4.963889909468824,-4.348850053156259,-1.8994391377258377,-0.49020600520867585,-2.383269417096556,-0.14422149637615467,0.7970680730844021,1.4678084259671853,-1.5455391910924308,-1.9628042708584097,0.418931794969353,-0.7171416624756954
13,-1.7939158612638575,-1.2589509098839393,-5.425227998023013,-4.346567403749776,-2.361827014123138,-0.04556185624342046,-1.6547330518166876,0.7951460676210088,2.098069688762858,2.4976876049466354,0.3233549376970069,-0.3158769868056412,2.604429200930702,0.40068471949514595
14,-1.051622831216683,-0.5508150733379049,-5.436540844682637,-3.9292527814576976,-2.624469373497954,0.3835572319419674,-0.6884392725576947,1.7111201487131436,3.2092772478034512,3.2399324353198504,2.1667158289865225,1.3213306230497988,4.460041462217722,1.4135163614233681
15,-0.22347055814161843,0.2063530038821444,-4.934483588048818,-3.085727766291094,-2.645526376481083,0.7644545656044308,0.44554536175136084,2.527445437633567,4.039417233619675,3.6429691794945356,3.855492330381255,2.8489428016983482,5.872176519022643,2.269028612938358
16,0.6828736863935974,1.0041889086074582,-3.908447865990123,-1.8524800629904543,-2.405678402866368,1.0697174437928596,1.6479073099417565,3.1685281805009557,4.51963189492294,3.68952710950166,5.26694257049839,4.171456202327993,6.769496449623409,2.9297201856619774
17,1.6445573952755277,1.8246194303589585,-2.40784970437042,-0.3136296015661142,-1.9113771070005998,1.2801310412234939,2.799355142326463,3.5664150175709795,4.6090643332947705,3.395711614638523,6.29421467147925,5.202781615343341,7.124249765323152,3.372125681332498
18,2.619697878148368,2.636581188643849,-0.5420063555979683,1.4050215358506122,-1.195577054678447,1.3866831128515644,3.77368554768805,3.6683495354961413,4.298776775447714,2.807344336676909,6.855997713292869,5.8719768732082676,6.950529234740287,3.5857280582702837
19,3.5474239439903115,3.3952941542271557,1.528085828792461,3.14747955334923,-0.3157500450829752,1.3913571633816408,4.453178410597934,3.4440966168629505,3.6136763140138686,1.9942782953512128,6.905317447564097,6.129467110783077,6.300149768425205,3.5721920340311706
20,4.352301139377416,4.0445575964565235,3.6055849236918207,4.743465614398172,0.6507581905580558,1.3065683634156744,4.744363413731356,2.8920453847531675,2.6120759976258343,1.0433749372949421,6.436346106285443,5.953171439505809,5.256736465017957,3.3451750214840144
21,4.952796525408319,4.522013245589268,5.479580980832188,6.026987975837895,1.613701007883419,1.1532803030947691,4.591963966359893,2.0430523051482945,1.3825384643101997,0.05072473242012434,5.488051311728328,5.35362137465781,3.9284415584015715,2.9305516247649033
22,5.272623579320036,4.766789652831168,6.9501541447905355,6.855409005384969,2.4786458390504724,0.958024570840907,3.988899642201395,0.9611018136593318,0.03778120906055632,-0.8864324812317146,4.143673355700094,4.376960596541567,2.4395565369647656,2.3665290992650982
23,5.253164561879713,4.728481815566317,7.8534019125582075,7.126678616548318,3.156616061718448,0.7492016070988734,2.9806271395003274,-0.2598488539834744,-1.2943149963867104,-1.6777207648293875,2.5254032761020198,3.1047315052819933,0.9212183578578917,1.7029374691565389
24,4.8648182217351765,4.376101070281951,8.082943562837503,6.79253412033698,3.5736779728145507,0.553147872030396,1.662783761899007,-1.5030328480621171,-2.482178036327034,-2.2472278957501826,0.7842061698609888,1.6496184166515597,-0.4985403343974046,0.9990100595793706
25,4.115143123151098,3.7055090368154135,7.604750648892639,5.865877573878223,3.6794134724697978,0.390496912132373,0.17198393175086293,-2.639694666898761,-3.40364495933821,-2.54029131830026,-0.9145759227662635,0.14681981543517708,-1.7049842315873396,0.31923107592738487
26,3.0520788817883946,2.7439622595290776,6.46298838743959,4.421202113377543,3.4532551195212515,0.2733348000078036,-1.3294090595511818,-3.5426475072038004,-3.959420859215702,-2.5289723585363686,-2.4085037578415607,-1.2585978084224643,-2.6064687417860544,-0.27273579334357684
27,1.7612754137648234,1.550744369023914,4.775775842489233,2.5877807167484534,2.907824920947196,0.20355648484757297,-2.6727954444690707,-4.101131772397765,-4.085313680390977,-2.2156312206072326,-3.5562686655497675,-2.4272606524571136,-3.1429641748688075,-0.7215038371727163
28,0.3575224371825533,0.21341083308675968,2.721206825692387,0.5362522173835245,2.0887097762837286,0.17268029860204287,-3.7046708281511997,-4.235172255674972,-3.761544151779447,-1.63399490500811,-4.2545601534910915,-3.242175044471543,-3.2922964069440352,-0.9877861433968859
29,-1.028718779602547,-1.160162410508854,0.5153989989503756,-1.5398843270949745,1.0705024290283904,0.1631921449215959,-4.306904866463522,-3.9074900620826374,-3.0175734642217655,-0.8472130661745747,-4.451208504069048,-3.62428417894186,-3.0730950111172155,-1.0552367308608057
30,-2.267801204734685,-2.453058306991626,-1.6144710347457565,-3.4456518033709407,-0.0506057265119832,0.15129198669873975,-4.413084274834843,-3.131161377426054,-1.9313219771455254,0.057349134774640036,-4.152548555326304,-3.5445028599976203,-2.5436398187629172,-0.9348853574497442
31,-3.2479280833507174,-3.552485456307613,-3.4584269029850927,-5.0062167018178485,-1.1669343041519151,0.11072686415112411,-4.018452977513723,-1.9716367988197896,-0.622336849848034,0.9764389674946548,-3.423618811063595,-3.0301067454165627,-1.7962016913737546,-0.6659659525266103
32,-3.8900872001112425,-4.363025808036869,-4.849316855462738,-6.086046062822776,-2.170988318151772,0.01723835157483144,-3.181786636381109,-0.5423992483722079,0.7606876665415145,1.801745022759887,-2.380756698322136,-2.1640130675298233,-0.9470481832802907,-0.31244617737234254
33,-4.158489021937399,-4.818067982964733,-5.682252573502541,-6.603201353587853,-2.9673011560542144,-0.1469535597031333,-2.0186325341636393,1.0056429120621069,2.0567633323477463,2.4321342292148938,-1.1772396616658773,-1.0764563204789397,-0.12294559416483773,0.04472775122928522
34,-4.064776846812027,-4.88774495125103,-5.92521886158429,-6.5370081760306675,-3.4829751948307104,-0.38924929749867754,-0.6865757985363635,2.500075111545636,3.111820570841007,2.785840711242377,0.01631971592845642,0.0703147380722032,0.5543849400701963,0.3188802983260076
35,-3.6652390796484986,-4.582186093871483,-5.619507131173993,-5.928219013116126,-3.675580404412423,-0.7039379202036621,0.6356241769668408,3.766486138155125,3.7977966806131267,2.8109886664742776,1.034266974277655,1.1025959703018344,0.9839354851827588,0.43085895736435753
36,-3.051360903670394,-3.949586906828751,-4.870113749426248,-4.871783724714092,-3.5373975335869563,-1.071113049946999,1.7722313285304503,4.649273719517072,4.0290087806420605,2.492925003408259,1.737842861130472,1.8584304142826011,1.0990828404502198,0.3223117925822838
37,-2.335124618263118,-3.069380368605806,-3.827699351589205,-3.503320677328471,-3.0954700143496505,-1.4575352026044277,2.5747019651250285,5.031162461942618,3.7735077231730285,1.8571884785892618,2.033692465530514,2.2103080692487707,0.8772678895193041,-0.03315775642761713
38,-1.6313276447658898,-2.041529417985292,-2.6649081244098056,-1.9812016544835993,-2.40748854397224,-1.8195009317389472,2.942379977494434,4.848895008667535,3.0577557387436642,0.9675045168692907,1.8863235110716887,2.0841319630950674,0.3441365569856372,-0.6229117569523189
39,-1.039690390661082,-0.9735259738169498,-1.5506167598308311,-0.4667093129868623,-1.5540917179155198,-2.1075076397306987,2.836699793711171,4.102942877837305,1.9638823495296216,-0.08111662224219171,1.322744566644753,1.471613669648109,-0.4286879834327504,-1.3936865884228333
40,-0.6295846934113659,0.03301125288166866,-0.6259086234584622,0.8950784037280882,-0.628642564751164,-2.2722366795265363,2.286761275435596,2.8597699623376682,0.6198083866764069,-1.1733960529326841,0.4286319595971644,0.4340921890284387,-1.332153079458355,-2.256097579090651
41,-0.42981123413471334,0.8942407160096765,0.014776617076132871,1.9912007093221127,0.2741348078633072,-2.271159800681471,1.3853545447062474,1.246086511882307,-0.8164771968427359,-2.1875275297111094,-0.6634194318306935,-0.9030729792846592,-2.2336812813617954,-3.0949077091469412
42,-0.42505311378567945,1.5528866224767193,0.3347205236450326,2.751569468917728,1.0691480550444141,-2.074939400435431,0.27588261365989,-0.5644585242940742,-2.1764014095428545,-3.009842686099087,-1.791892336996141,-2.3650654337436885,-2.9946562053916717,-3.7838057694363516
43,-0.55956442410114,1.9828131492208303,0.35685294522427696,3.153400429910269,1.6901377968281517,-1.6727600193680925,-0.8680438563521405,-2.370712842012796,-3.301472404718205,-3.5484494203188235,-2.7880617315734946,-3.749377074485108,-3.489132715619055,-4.202684810799779
44,-0.7474951445772211,2.1889526713427134,0.1565438158065309,3.219083789956557,2.095957059958425,-1.0758034273741695,-1.8674787133687203,-3.9673182478636613,-4.062424619058525,-3.7440302757377673,-3.49841811663065,-4.851959784142736,-3.6211673557712745,-4.254952632648054
45,-0.888199165257697,2.2028666724445443,-0.15337515145267605,3.0081920261349304,2.273247293814643,-0.3182607346965149,-2.563937143323117,-5.169043364235575,-4.374401531924047,-3.576391966586367,-3.804752021710857,-5.494278942737861,-3.338306103740412,-3.882325651322425
46,-0.8840922975515569,2.0748602216978704,-0.44288947520929206,2.6051207873336635,2.235364902537954,0.5444496844572936,-2.8424073728690176,-5.833118733319775,-4.206323068803201,-3.0659645927072146,-3.6392566277284932,-5.547613463063257,-2.6392899342358382,-3.0748794280071836
47,-0.6582429637797071,1.8640456957511726,-0.5872098815133807,2.1044042683630844,2.0179492908334806,1.44024600137818,-2.6482462975101417,-5.876731830464893,-3.5834052448456553,-2.270165369049312,-2.9927815581746215,-4.951304919868989,-1.574875154827781,-1.8748091414938322
48,-0.16894182305455188,1.6279885082850996,-0.48792426362067753,1.5959672787099812,1.6719770871467226,2.287343820397794,-1.9955035689364857,-5.2874142701222,-2.5827237987872502,-1.275259885046659,-1.9153897701923022,-3.7224887754191127,-0.24168846629453553,-0.37328352146494137
49,0.5810146332519103,1.4135401311316802,-0.0897942611729036,1.152453516369252,1.2554509536838672,3.0028786590911962,-0.9654634471572402,-4.124944823847074,-1.3226106097979538,-0.1849704944515784,-0.5094642369067915,-1.9560133637902306,1.2299216963747162,1.2991975229122708
50,1.5417669302654118,1.250191690433347,0.6091822171837586,0.8203382321481375,0.824988540692835,3.5121796998033568,0.3043805596175448,-2.514482033412373,0.0525743488648467,0.8924938944474258,1.083390025008744,0.18541288024107308,2.692195014820463,2.987580010372279
51,2.620979514437192,1.1468228171121726,1.55578824241978,0.6158727073543184,0.4285027420219384,3.757536365549914,1.6393158205508034,-0.6317790023438851,1.3902321933517003,1.8571473122449285,2.699644162816665,2.489507448835567,3.9980189901590064,4.530086473128303
52,3.6949294450430443,1.0921564409228166,2.6478457454632323,0.5261269594563489,0.09992130839817404,3.7053123730871738,2.8516256219588962,1.317638790029421,2.547581108202296,2.6279602097318984,4.1729169417746785,4.718719133847443,5.018161542259998,5.776641117552335
53,4.624517921543499,1.0586512406238042,3.7477123924994027,0.514618388153463,-0.14347176789679833,3.3504438027039307,3.766570395035536,3.122679364494865,3.407759857890083,3.150292185142832,5.352345935507908,6.637430200104298,5.655352519671225,6.605442574511485
54,5.273947331673791,1.0090557310093031,4.701038879035851,0.5303552799095251,-0.3009162021985933,2.717686045371667,4.246475681942275,4.591213588338141,3.892116108048053,3.39928257417117,6.118093096637338,8.038672462011498,5.853501938126228,6.935619319498999
55,5.529474230478695,0.904480603840953,5.358143669370783,0.5186784719541474,-0.3855380815240901,1.8594019711570249,4.209602303267731,5.57188084816655,3.967391874932554,3.379124390564436,6.392402435061678,8.767170678449622,5.601190999883031,6.73457401419767
56,5.315690989792716,0.7126617366161929,5.59508261223744,0.4321053152635954,-0.4198084726832353,0.8501469314883583,3.6412804977274034,5.9705458593854575,3.6472210312793467,3.1187770594080004,6.14536555093366,8.736119269253244,4.929497143264965,6.019457006481764
57,4.607177451217378,0.4150994342770738,5.331608555680577,0.23947551491171687,-0.4299519927632762,-0.22126412014751806,2.5959343763018747,5.759539692190816,2.98808266830947,2.6651616177593946,5.3953118514959995,7.9359764574722655,3.905053783484237,4.853060370989755
58,3.4340239833448285,0.011957896168440882,4.543689844184271,-0.06796354533716664,-0.44026216222817066,-1.261191066047181,1.1899254189430468,4.978794345078322,2.0805145666463734,2.0751576271379863,4.204405731558927,6.434585988291461,2.6198623861322345,3.3351535166674346
59,1.880550773281207,-0.47604272555396265,3.269002423558908,-0.47437729949498086,-0.4682395791453867,-2.1809072962039764,-0.4135954048068562,3.729030964397848,1.0369055518432972,1.4077521274561124,2.6705150263843196,4.368967475898306,1.1796780908753328,1.5907799298237861
60,0.07741229230559502,-1.009064249668584,1.6047168187453158,-0.9413037122633987,-0.5213007675569026,-2.9054436170239044,-2.0256026692809095,2.1581405607936723,-0.022499422368383426,0.7174868969270414,0.9166689054200374,1.9300237489576408,-0.30725048180505116,-0.24275944368383237
61,-1.8119323124801736,-1.5327606077726015,-0.3021496595136163,-1.4133689338535387,-0.5955410001639982,-3.3805148448799454,-3.454983804860125,0.4426757729777956,-0.9836548576683815,0.04996438763289951,-0.9205492126742765,-0.6578965992114828,-1.739652424379564,-2.0285987258016447
62,-3.6087670146186834,-1.985446830453931,-2.2706594514194607,-1.826835643897977,-0.6767100501960731,-3.5768251154968014,-4.532066352075966,-1.2331344591747808,-1.7512224226197866,-0.5603048111378488,-2.7024856713503205,-3.1602193674213694,-3.0300308499240334,-3.641363818448142
63,-5.138642662992694,-2.306837190584279,-4.106267851077665,-2.1196627369917342,-0.743214188234948,-3.4914447681494543,-5.128944719807798,-2.698266232754782,-2.2582107984118127,-1.0898943470066944,-4.298864149946568,-5.355636400963421,-4.108514690999731,-4.9757485570646045
64,-6.250643914250492,-2.4471137901241744,-5.623112743785575,-2.2415454086668256,-0.7706334616134916,-3.146353248380211,-5.174223079771855,-3.8132454870127424,-2.471832514376533,-1.5248353371886059,-5.596599927027492,-7.057466962624249,-4.9240513318263694,-5.952264117094435
65,-6.834219093911045,-2.375002277103192,-6.665625046375358,-2.1624093616543454,-0.7369875230627798,-2.5845858297976623,-4.660609411839849,-4.483951939715417,-2.395131135528496,-1.858111315173061,-6.506677577340697,-8.13082260027823,-5.443626945259531,-6.520249405654441
66,-6.831675191182957,-2.083629660350259,-7.126861278253738,-1.878052957974648,-0.6278401809331655,-1.8646652531456878,-3.6447498860605476,-4.669521741018626,-2.0644182819134573,-2.087043495871914,-6.9690137370792185,-8.504023465369245,-5.65040137431578,-6.658533569396369
67,-6.244918754602221,-1.5932138323592129,-6.961321010727825,-1.4120402037804858,-0.44033195131937547,-1.0541213037351502,-2.2396507649103583,-4.38376009012676,-1.5430200304964008,-2.211212281738726,-6.955357141708846,-8.173346680064395,-5.541633737722498,-6.3742845739417815
68,-5.135648212915225,-0.9500530258562506,-6.190642504253311,-0.8134911295625191,-0.18537831907283328,-0.22289794632042328,-0.6008765943010347,-3.69027212798259,-0.9122218969105979,-2.2313291459359332,-6.470314959671457,-7.200873018749878,-5.1270786399100885,-5.700566294834007
69,-3.618913442356484,-0.22179185068959045,-4.90140196878474,-0.1510171289274771,0.11244826016643517,0.5626664352275691,1.091651557488311,-2.6922434691035217,-0.26057981355663135,-2.1491842104778245,-5.550568314172628,-5.7058737991999156,-4.428206216612491,-4.693000135407548
70,-1.8506862186472792,0.5105299878844107,-3.2351822947839657,0.49638179137293886,0.4174637159119695,1.2447912750573447,2.654056123178842,-1.5183689429785114,0.3270978428864566,-1.9685070411988903,-4.262299726108073,-3.850789403256243,-3.4782199513729375,-3.4257483034839784
71,-0.010758858749684028,1.1626641982812331,-1.3720178123366489,1.0501878436426528,0.6875555235403319,1.7778682519314208,3.918790883067408,-0.30678334797878487,0.7798056823678586,-1.696348294483774,-2.6968465673952933,-1.823347251864741,-2.3225004353583327,-1.986874221023879
72,1.717161693478644,1.6582407845048845,0.490847836968173,1.44346281031118,0.8803525280221934,2.1306834320251777,4.752647654934872,0.811035428677116,1.0482989647439556,-1.3444629150489402,-0.9646465946295331,0.18328639613577735,-1.018868932960746,-0.4730516102387415
73,3.165931330403483,1.9392439349077075,2.1623347090816356,1.630575711964305,0.959969227459873,2.2873684036823345,5.070662783032241,1.7245397194756502,1.1100947939690922,-0.9301751325043104,0.8123362394569338,1.9902553799071196,0.3630047844726557,1.0163768170764425
74,4.203649338489405,1.9743923246432236,3.4801491822976063,1.5941302852098518,0.9032927856284788,2.247314412198401,4.844606678039722,2.3550360006003137,0.9710241489424194,-0.4763283737420159,2.5093368363743616,3.4506172266283146,1.7436150073531882,2.385850052293644
75,4.748298584350029,1.764169150823749,4.329796953025791,1.3480245970160742,0.7048174973569741,2.024319032503411,4.105331993498868,2.6622146860229865,0.6632595559901844,-0.010139265646531703,4.008089191046998,4.46297037614166,3.0373547270521444,3.5502003344663087
76,4.776498282730582,1.3416567898413927,4.657513504038484,0.9360921088774209,0.3792132037652648,1.645192656025619,2.938876963160831,2.645812757436705,0.2401651611304334,0.4389671055883254,5.205940704169953,4.979678632912108,4.157921409372337,4.440871437292159
77,4.325172262448651,0.7688759505883719,4.4753636496733415,0.42638385885253394,-0.03888763388801621,1.1479508071612892,1.4768162170375851,2.3425274320171003,-0.23131073669933438,0.842223337952604,6.023909030515274,5.008838244167416,5.024978731545711,5.01105751641975
78,3.4857827986056487,0.12894664427172375,3.857751973526636,-0.09822247724927871,-0.49802404132550754,0.5795964699507081,-0.11811815345139523,1.8188417998567588,-0.6797037492898432,1.174600590223285,6.412821955333517,4.609828464945346,5.571358551223294,5.239071749753303
79,2.3917294290114515,-0.4849996499377646,2.9297253764262012,-0.5518462535202551,-0.9356947053108036,-0.006598425024222391,-1.6696849983112987,1.1608596270620843,-1.0384155499513619,1.4175534799745257,6.356838923692034,3.8830379700032642,5.749908360455994,5.129400744059635
80,1.2004394107320318,-0.9827078862598418,1.8485864886779035,-0.8582206042116898,-1.2861464420058506,-0.5544334784148814,-3.007271202361696,0.46253245194216275,-1.2542528719479256,1.5609301141108523,5.873942781388948,2.955077671899832,5.539061330989915,4.711184760248223
81,0.07244474612118568,-1.2896986216462332,0.7813065153242789,-0.9622856950725646,-1.4891966912719563,-1.008812393970576,-3.984560109479134,-0.18622826171894363,-1.2940900038239453,1.6037039003015985,5.013362464927144,1.9613760126936397,4.94632807087172,4.03423450067938
82,-0.8497764333320498,-1.3582983350430677,-0.11912516631895691,-0.8390250684522145,-1.4989321479907576,-1.320409027595878,-4.49576674650642,-0.7101319337707678,-1.1488626452048971,1.553411887825191,3.850274175490852,1.028414641220776,4.009156831568397,3.163078485647265
83,-1.4603111605473598,-1.1751135431360042,-0.7350641300837459,-0.4981553409940858,-1.2910857159452296,-1.4507204367956998,-4.487653404752992,-1.056593872378985,-0.8344307708167965,1.4244382496523074,2.4784612786776203,0.25793493183223054,2.7929381548094256,2.169853014673582
84,-1.7031041044954744,-0.7637276949937815,-1.0002130139202179,0.016155246116604512,-0.8680160727956795,-1.3770473705375814,-3.9659040944670463,-1.200495793643286,-0.3892293410959429,1.2355049484352234,1.001833775780293,-0.28479978139853035,1.3862831441584011,1.1270335624180206
85,-1.578161794587551,-0.182079833507057,-0.9079345202594691,0.6306516207799518,-0.26048706829580687,-1.0967536810793241,-2.994973644467886,-1.1452332014312636,0.1309824919161483,1.006871696129975,-0.47422019572477997,-0.5771492436932284,-0.1059755111779897,0.10101927706412729
86,-1.1397997506383273,0.4852241689051742,-0.5106608814462864,1.2527954229445804,0.4741632510423747,-0.6300487752437997,-1.6912035994883814,-0.9201281218185193,0.6606007825485798,0.757770251010161,-1.8507631791642933,-0.6388971055453454,-1.5713665648701003,-0.8525898125389565
87,-0.48721556110148784,1.138640254770873,0.08949900138155699,1.783679550374676,1.2574104523572562,-0.02056142738608238,-0.20975708839379328,-0.574725900602416,1.1329191907888918,0.5045018146786462,-3.0418454387187768,-0.5258695181195889,-2.8991094729834277,-1.6915118367130404
88,0.25120576355311425,1.6777954598434999,0.7575386097022131,2.1322303180681055,1.9979615604219918,0.6668460319725824,1.2733117311692699,-0.17085712126524982,1.48898747601809,0.25944240884107916,-3.9792687550899464,-0.31843567181139915,-3.989311733612992,-2.387007387606283
89,0.9375326203448514,2.015939294882938,1.3471936916133138,2.2286509483986783,2.6022595252344582,1.351246868933917,2.5818707178691835,0.2264122018787566,1.6854054261501543,0.030982144729382564,-4.615490428941666,-0.1067035613240644,-4.7612081978781156,-2.9221450200485366
90,1.4449877711806096,2.0926323309997557,1.724187542516626,2.0351472054791526,2.9858289167945253,1.9435950016503412,3.560953732502418,0.5577246044577928,1.699999570621508,-0.17577675874236418,-4.924818860741658,0.025295667275343218,-5.159739241858586,-3.288795823308145
91,1.6766914645445044,1.8828172093261923,1.7875889081095695,1.5523567654377495,3.084070245570156,2.3567700909150315,4.095800166345238,0.7771134251310862,1.5346047942421208,-0.35788138914727263,-4.9031984458916735,0.014003514152249418,-5.159936714039096,-3.4842566544662823
92,1.579745006516005,1.400939620980757,1.486081871452534,0.8205167014008983,2.8611376873956442,2.5166211250864885,4.126209737140537,0.8574745515482428,1.214558939961452,-0.5133267526327967,-4.566928061177503,-0.17289176310524845,-4.768788320886415,-3.50842923210247
93,1.1526690598016776,0.6995039231901772,0.8267236971278066,-0.08484452576417041,2.3157363746469617,2.372605341882689,3.6542369744675804,0.7932041259519674,0.7849690775998623,-0.6401347062636888,-3.9506150873882087,-0.5309348767092705,-4.024464439572655,-3.362310857965822
94,0.4452178419806868,-0.13774284040572282,-0.12509305468536097,-1.0621234595685607,1.4830282858529091,1.9065092499796035,2.7440609223282837,0.5997793840292577,0.30426546670096066,-0.7359373654745364,-3.1045647133818264,-1.0194438520508713,-2.9929986385135368,-3.0482086085461972
95,-0.44926944175493666,-1.0070246777483527,-1.2544320691048825,-1.996505185976475,0.4322960373010135,1.137857210122191,1.5138838215721084,0.31048085893363775,-0.16404582850031268,-0.7981211609702928,-2.0916866297073473,-1.5679699488549605,-1.7627002410545731,-2.5716428555945527
96,-1.407725321253615,-1.7985437558236819,-2.413011083624896,-2.7747083000478003,-0.7394773473324916,0.12495671466065579,0.12079561254506377,-0.02916427704599853,-0.5602564058418532,-0.8244215922197307,-0.9839136456358246,-2.087619255734364,-0.436738581439904,-1.9444547635572396
97,-2.2952860937633885,-2.4112899436786184,-3.440372598988652,-3.299602402801425,-1.9174602300071384,-1.0389445198853506,-1.2594709785944458,-0.3683497559963768,-0.8366932597739644,-0.813739698659981,0.14190071754527114,-2.4854337829600825,0.875522766626329,-1.1882733245805874
98,-2.9846294457133964,-2.7665711763102063,-4.186889157714855,-3.502735288363213,-2.981181390015012,-2.2342758943732512,-2.4552284819796286,-0.6583446173653117,-0.9641630662398563,-0.766905366794744,1.2085952207136657,-2.679569853500831,2.0677473742758226,-0.33731021882464096
99,-3.3739195724549824,-2.81839419539923,-4.535241915416406,-3.3531251201863137,-3.8177214839033873,-3.327756054183719,-3.3209240159315616,-0.8592048895286488,-0.9357190925923752,-0.6871461201311287,2.143705349656469,-2.612907225714679,3.0456286155719154,0.5605145348574497
100,-3.400844327332703,-2.559301137967455,-4.417293969097597,-2.8612070436098027,-4.334369557824513,-4.18762046287021,-3.7556452515848004,-0.9449526492686147,-0.7672633066653399,-0.5801193812982038,2.884590692917276,-2.262990133434455,3.734878037833269,1.4448501794012498
101,-3.050864078994408,-2.0209331959072827,-3.8240098672580425,-2.077490217780293,-4.4692628147015645,-4.699642613733257,-3.7155465929033946,-0.90658921319724,-0.4949506055640337,-0.45349631385015726,3.3832708472710853,-1.6467915869139624,4.087458231497245,2.2468859935527608
102,-2.358672437345742,-1.2693463881705287,-2.8071231169009083,-1.0861844755033232,-4.198741521955744,-4.781915089114613,-3.2185471282273563,-0.7526379226579711,-0.1698022082982195,-0.31620078290778314,3.6104617466637134,-0.8195989879804887,4.0854539347281875,2.8957714507535712
103,-1.4028584227158896,-0.3958347014604313,-1.4724571012810668,0.005296939371690565,-3.5405209631667547,-4.396416605420527,-2.3407334408753178,-0.5072613534063193,0.14970236527555592,-0.1774740609004984,3.5582950993480065,0.13179108499854406,3.7421850955546847,3.326727911762929
104,-0.2947146710881871,0.49538058335632335,0.03401615572250304,1.0795400224755238,-2.552267154814859,-3.555725424036959,-1.205057396840425,-0.20631950633519985,0.4060423759817143,-0.045946349430663176,3.2412867513026273,1.100542214762411,3.100432677311566,3.4896987866474976
105,0.8370740342993518,1.3008393582585678,1.545304567355506,2.0233021396852235,-1.3257059143794643,-2.323811515973948,0.03601486719699509,0.10800941941979018,0.5509638269917241,0.07113763758315851,2.6952855131881663,1.9742152587124904,2.2279398252385483,3.357180543834358
106,1.8636080167381628,1.931010967715232,2.894967332053154,2.740831230478863,0.023070542275563162,-0.810579111864028,1.221423812745863,0.3932624716225637,0.552590452975004,0.1684496040797085,1.9743623194070403,2.650067015309141,1.2106286322856623,2.9299004792033614
107,2.6723799731656754,2.321173028232424,3.9381209185414834,3.1646633897607566,1.3659781248640024,0.8393583586313962,2.2030661477968856,0.6125418448404362,0.40040244642179795,0.24283817204132913,1.145860095714261,3.0490060067203677,0.14420435925669317,2.239259783116992
108,3.181051396465796,2.438609206883077,4.569042307607125,3.262602560795686,2.576557589445034,2.462417610090382,2.864995034772974,0.7393969795168897,0.10740117965409221,0.2933437447860461,0.28407558455184284,3.1262218889956093,-0.875014468254132,1.345905948044202
109,3.346632406794235,2.2852997865791833,4.733101838968539,3.040123722711545,3.5432593018395955,3.8944230996835842,3.137682009014786,0.7611061220101634,-0.29089064148245664,0.32102299096138476,-0.5367605755863313,2.877008948787682,-1.759114360086494,0.3343667666582764
110,3.169027381843727,1.8959395160112242,4.431631430026381,2.5380651943105965,4.180883328035809,4.989364500358494,3.0055050665301786,0.6799540693071466,-0.7405617529838788,0.32864321413023473,-1.2494370927104792,2.33701558920662,-2.4365370630681187,-0.6957238163775942
111,2.6887499902588776,1.3317698743901254,3.7193711563826857,1.826096612360379,4.43890614905217,5.63619085049849,2.506626869528967,0.5123811542736258,-1.1761491909679054,0.32028996057772635,-1.7998866859340121,1.576964580298435,-2.8581647977002884,-1.6407483958615325
112,1.979436152875162,0.6712644696339587,2.695178636807581,0.9929807965079731,4.305815946792764,5.771523679538855,1.7255201003171066,0.2861702482498627,-1.529383973467375,0.3009036696454928,-2.151827055441588,0.6926825980138547,-3.0009683108150242,-2.405142602290415
113,1.1364748047657,-0.0009132266537419202,1.4875801963710846,0.13502073951738086,3.8090649393095712,5.38667749170106,0.7794240447712341,0.036106517323407604,-1.7387614866200507,0.27573989700163504,-2.289446585503064,-0.2080632132530782,-2.8689419715332924,-2.9127457394031904
114,0.2635436372482462,-0.605094008464336,0.23737033054899107,-0.6557463713256884,3.010769831451775,4.528100487149623,-0.1991636965698181,-0.20124493861116602,-1.7586794632201488,0.24974961301888385,-2.2178962154427873,-1.0199933824928635,-2.491364866610392,-3.115930105794609
115,-0.5409758457925193,-1.0764048593204922,-0.9202496469818349,-1.3020917302398325,1.9997872127698226,3.291204508121143,-1.0813508954072049,-0.39287334244941335,-1.566856180774993,0.2269092163406426,-1.9616036909984294,-1.6539401217097351,-1.9187058766541636,-3.0012543036911006
116,-1.1958388646285314,-1.3719389369971937,-1.8715873430202987,-1.7496034207252675,0.8812003754133345,1.80843152210512,-1.759334429434356,-0.5139794699276616,-1.1688718636120337,0.20958504155213709,-1.560673169966894,-2.0477666859869506,-1.2166993653725793,-2.5908474158622865
117,-1.6455452972900142,-1.4744841300536329,-2.536447010028218,-1.9712938534311404,-0.23547193567552838,0.2331779889130333,-2.1600411852340553,-0.551266369781813,-0.5989778766605058,0.19806833531422188,-1.0658414882986837,-2.173129760212147,-0.4592478077855635,-1.9393145722188074
118,-1.8647995275003189,-1.3925350647996408,-2.874889021809605,-1.9684395788524582,-1.2479298793963922,-1.2782571629173394,-2.2530992837771824,-0.5043865576109858,0.08321298041561959,0.19043270498943615,-0.5326072691979682,-2.037287331202815,0.27913199385252074,-1.1265778110460225
119,-1.858573509230262,-1.1568582878128888,-2.8882820765862145,-1.7678124957816914,-2.0712729902689966,-2.5843159114477796,-2.052220084328619,-0.38536543353755026,0.7999425882241156,0.18282725905483613,-0.01521649808944122,-1.6799113867930433,0.9305966687275846,-0.24763474034115124
120,-1.6581737169459887,-0.814354393902144,-2.6149959698948257,-1.4159379487598205,-2.64561690703613,-3.5731745958906713,-1.6101074363450447,-0.21615152229411352,1.4655705565799728,0.17022812974431384,0.43882446410672316,-1.165604993916462,1.4403142930663029,0.599355808141204
121,-1.3142446430170138,-0.42029606566113015,-2.1217919535329792,-0.9713754553084588,-2.940432714191533,-4.1733207412359175,-1.0080051517815294,-0.02474837786813934,1.99845059889203,0.14755353255920944,0.7931257692859944,-0.5734309863243483,1.7712523738921624,1.325031857021798
122,-0.8879853586162632,-0.03017172633070632,-1.4924653477863101,-0.49621402372626455,-2.955340264832839,-4.358656832007703,-0.3417807196726546,0.1593963505355233,2.3326143935034294,0.11093881671092289,1.0252525044217504,0.014859478263688091,1.9069521809093775,1.8592221181055069
123,-0.44197888238214367,0.3076831355506874,-0.8155285057329045,-0.047987012154071085,-2.7175333510666735,-4.1478872196982,0.29310690067709166,0.3099716481198442,2.4273870928678076,0.05890090964149312,1.1277985214741728,0.526109070667688,1.852021474460806,2.158428669027714
124,-0.031942056645132444,0.5577079667990692,-0.17268303483730135,0.3269476586837947,-2.2764025816303612,-3.5987204879543735,0.8153627764553485,0.4076187384577121,2.2733313031689826,-0.0068853481819983785,1.107692263466622,0.9049376753039157,1.6303226538668103,2.2095087075256905
125,0.29956693536848,0.7003782192491232,0.3704501572857726,0.597811091115815,-1.6962077908830528,-2.798045552173577,1.1682945464410166,0.4424062788077523,1.893496573572571,-0.08142038750612701,0.9839431193528,1.1196322790489077,1.281100061743924,2.0292386062966044
126,0.5268371464173107,0.732890345246949,0.7703347431227546,0.7512181151353133,-1.047810637028814,-1.8496442908154536,1.325564255815851,0.4146384431511852,1.3397348722041786,-0.15693129486177737,0.7842107550567946,1.1641207173902983,0.8535414531943359,1.6600359821210606
127,0.641886366172245,0.6674451461058212,1.0078103597108152,0.7904321419166065,-0.40050158003403047,-0.8611597893200816,1.2917417054122045,0.33396353118883143,0.6846819364131664,-0.22409527407726304,0.5406972827744014,1.0560435629923892,0.40046718632657285,1.1626384409924486
