,AF3,F7,F3,FC5,T7,P7,O1,O2,P8,T8,FC6,F4,F8,AF4
0,-0.8430414258542561,-0.32180590404505915,-0.5570025330034565,-0.6370032676398678,-0.4953032599664823,-0.39192009216714,-0.8689533376564516,-0.40006977929237336,-0.5686543007171411,-0.6793858993183415,-0.6571200224600786,-0.7087382079489203,-0.7504658415165067,-0.9728683257425897
1,-5.18192161603826,-6.227086392474585,-6.383331430911879,-5.706049473198664,-4.416869500133992,-5.946892092101744,-8.841627707899514,-10.141143891246266,-7.8394698362413395,-5.387671437151362,-5.4605650962933066,-4.039287591605454,-5.280218217138813,-5.407826590404949
2,-8.79396401748052,-11.049260708142526,-11.137003443655352,-9.79198638945718,-7.43960312509575,-10.175309459614851,-14.761055028591326,-17.330897514232106,-13.174407069586918,-8.758864479567043,-9.199703161602589,-6.729417775095343,-8.761310937650457,-8.90379189957283
3,-11.16843922979366,-13.958776512334868,-14.018216832031328,-12.203680227101943,-8.949345417642224,-12.10899672801679,-17.211767172763683,-20.13292063917032,-15.180596088113303,-9.878494800702384,-11.113532370776474,-8.334709912065437,-10.469874684447912,-10.826158390286428
4,-11.867925099130222,-14.406630055884674,-14.495731671262693,-12.500233539254785,-8.644089651781218,-11.326529067858614,-15.634606568781964,-17.877478342292363,-13.327195926736017,-8.42301378841661,-10.795781751260018,-8.533227378404892,-10.039505867300713,-10.791621853704607
5,-10.590899645569882,-12.21343939915052,-12.385871216157968,-10.553857414778795,-6.588148713567181,-8.050233877529848,-10.453980620910848,-11.219959446573492,-8.0783234551409,-4.740087775735603,-8.271312458238814,-7.177713311499695,-7.530719577517868,-8.729263849044939
6,-7.277577860299713,-7.629069299896645,-7.907057331755364,-6.587487931005028,-3.1930129971540953,-3.081452224635084,-2.953958425502442,-1.9352325239268429,-0.7636737365578199,0.24922484984797458,-3.994565841901226,-4.352824667199833,-3.4178178701822155,-4.906296356866677
7,-2.2246487245951627,-1.3451716957764805,-1.6966858794943054,-1.17883475473435,0.8679805875414104,2.4075390480561127,5.059506499139423,7.584185969394661,6.77406456638463,5.294920581924174,1.2277583304433657,-0.41900936692381435,1.5009103462223927,0.0859222974048223
8,3.848020335887117,5.562160393838785,5.230865315557668,4.784038740346641,4.792408119529941,7.168541281253634,11.71718128267713,14.976287247742377,12.657291547089052,9.139918097354037,6.377176762502545,3.985368302863728,6.251490511251777,5.392496307927589
9,9.835637425387073,11.77678534198269,11.605143083073028,10.210295289996315,7.803132444364346,10.180652281518434,15.54357416469948,18.519276861024608,15.449045708229562,10.833423654254508,10.406440729058994,8.01023565925884,9.865230845851256,10.008566958969649
10,14.422265872053416,15.972207595817231,16.105068726424783,13.980972698126124,9.296322388091978,10.882620640684355,15.794676057587147,17.538572684064317,14.503141535391356,9.957194205915748,12.43837689336076,10.738880489475719,11.563180091392175,12.944892013836554
11,16.3745807863193,17.0961272400859,17.62832670985485,15.173963927250721,8.957335632725274,9.276943503565478,12.59541994289192,12.513642106170025,10.103616772935405,6.713352724584621,11.949133870307161,11.395455557928768,10.914676255980547,13.429479339559206
12,14.889517496845478,14.650050695252533,15.57357636444849,13.297920928920853,6.824327820855889,5.885577790404478,6.853247296766747,4.877499681614422,3.3664666675511925,1.860327892398257,8.90173739944597,9.569281122120833,7.9424717177249295,11.109955198137742
13,9.893863987144998,8.886304764861043,10.061318337619877,8.474536820509272,3.2877001172252776,1.5789318215507817,-0.014736322493376018,-3.413001627389422,-4.061143953763198,-3.47896505987359,3.7972735831220907,5.390220686066926,3.151073416866306,6.204968227892725
14,2.188711968528279,0.8490035327056873,2.0155792561253225,1.5050422932483818,-0.9764110581833595,-2.666240581632975,-6.456295279036436,-10.402237368996866,-10.419457173075385,-8.08474484181623,-2.380551415371935,-0.41142467505554714,-2.537115807451633,-0.4513254747546616
15,-6.636045655390297,-7.783861304798244,-6.948526168779839,-6.2250737865901025,-5.129358071310247,-6.0082490562850825,-11.155023128847898,-14.609724325162897,-14.262908107863508,-10.918985086357022,-8.334218744208085,-6.603971403273187,-7.939689282829656,-7.512775120769424
16,-14.528498554339881,-15.047919923620915,-14.838426443640493,-13.010044700908022,-8.329999905553997,-7.91542205802891,-13.303025799497634,-15.335932733279513,-14.789996000863136,-11.353057759767793,-12.715588092363088,-11.712478250233252,-11.848523122165341,-13.378956901879624
17,-19.47762135409447,-19.160635364862255,-19.744767983524692,-17.212727169746692,-9.903100888262609,-8.234538333674436,-12.717187852337329,-12.741537710037369,-12.0015466439584,-9.297911102788051,-14.435657151794983,-14.384457444071503,-13.300421055827679,-16.565941329789453
18,-20.06248754083662,-18.99363059771404,-20.339502121684216,-17.687890010411945,-9.483435832458218,-7.149121467655102,-9.79066383311338,-7.70879826516085,-6.659462868645855,-5.213504870088902,-12.949962984423395,-13.768891598252004,-11.825180554505968,-16.10377029734992
19,-15.88846337560981,-14.414945002446188,-16.27255775916117,-14.123632997004933,-7.104610852526267,-5.058820307755257,-5.318050799426429,-1.5494110791287032,-0.06833691528004092,0.00011830788997882339,-8.441153069260372,-9.796639934087564,-7.60484077830484,-11.848664578645693
20,-7.770044259549383,-6.3898265549788205,-8.339816320889215,-7.19239691893112,-3.209987930864943,-2.4325808735717045,-0.2622722952060885,4.346612557707105,6.256539967547614,5.204234853997382,-1.8351488940009386,-3.267285973816102,-1.4886891217970424,-4.605225263244785
21,2.4144081393919983,3.2106148557133913,1.6505394882405513,1.5533102921065873,1.4225183182055228,0.3104753114852199,4.464161150531081,8.826266642031866,10.948448256073421,9.27161237153509,5.375060779060029,4.302653536631374,5.160940116950612,4.002607071771824
22,12.176298845045812,12.060658426126363,11.301816646215558,10.035405244073523,5.831946336720127,2.8571617618308545,8.149948396636477,11.183247358950007,13.089094077987685,11.332225490629735,11.471605531780112,11.045808164609639,10.772464693379058,11.902811084723059
23,19.064325275221783,17.978658464254057,18.241596069651646,16.173627613363458,9.07427113403346,4.9886949019985805,10.347848313376183,11.23125846672926,12.382805988115104,10.961782211197196,14.941321626316167,15.232254360777556,13.952242530350377,17.103327070387433
24,21.326865141904086,19.50935882008225,20.756824038841845,18.438465276946697,10.429513847560623,6.527332248257227,10.863987517847196,9.250191138146825,9.173802530090661,8.271474036514338,14.879636130970995,15.744398105446335,13.855704482748344,18.234359792939387
25,18.398032857807063,16.322239197232086,18.267001419051468,16.275194742817686,9.569521218500544,7.28491913259115,9.710446393847745,5.844418158683236,4.315413800579434,3.878066304929185,11.25263329762438,12.39926596988773,10.436452751551522,14.94610182218778
26,11.062521054443282,9.30615029412868,11.491134128038741,10.270126362483367,6.645547854862377,7.05492622009988,7.061015542762337,1.766060101043464,-1.0646454335359588,-1.2397814443054376,4.934235670493958,6.018931649655992,4.493343454096186,8.036601904376278
27,1.2464131799640001,0.3271955136322279,2.251722605347206,2.001896365096105,2.2707706519368083,5.667661539742009,3.234377983587569,-2.2473444514122143,-5.837163767094437,-5.9660808628682584,-2.5030532750918417,-1.7778478992122517,-2.5108356277996986,-0.7396806920276803
28,-8.508919451345104,-8.283844993026015,-7.032099929484439,-6.386387008638296,-2.6038097966676683,3.095214684974151,-1.2972063986893936,-5.5876674513354905,-9.113452559309488,-9.299910180508984,-9.193472473217772,-9.007141119905844,-8.819400216604262,-9.136792355059434
29,-15.739137028747813,-14.367536070576286,-14.015029139138148,-12.773449489371387,-6.8962877822707025,-0.43792724197959715,-5.899977204181289,-7.832607341309317,-10.402568849515765,-10.575347777873384,-13.469472627123151,-13.852226300999705,-12.842951764260368,-15.025614203008939
30,-18.71678725928538,-16.511992510496565,-17.062321898102205,-15.634807153746568,-9.638712826685232,-4.397045289504461,-9.808632351276067,-8.753158648635573,-9.658030185530633,-9.597221795062271,-14.301895120707446,-15.14516178264572,-13.583691288679791,-16.97027937591734
31,-16.892268346246492,-14.405785975680237,-15.66723973639752,-14.439707830466704,-10.203717715764775,-7.980641239435233,-12.222490427679599,-8.294043394600633,-7.220667102912901,-6.663452137541997,-11.565374918901368,-12.662693970100484,-10.902615710193068,-14.606283809881958
32,-10.997213361753703,-8.8731946250332,-10.533381242824843,-9.758113433192714,-8.458513939925187,-10.2806051401922,-12.469668609239319,-6.550461625569249,-3.6907120345182527,-2.474692956284917,-6.056616772344442,-7.158618365551684,-5.5536130620150965,-8.714162850056702
33,-2.7926697745378677,-1.5933502178117869,-3.3105206009461834,-3.0543974171827806,-4.8068359205806095,-10.52911328275118,-10.206539181184711,-3.755713647515378,0.22504353750021025,2.0397457121133407,0.7349582173969815,-0.13284724276283863,1.0245052322254156,-0.9743270476516818
34,5.45303781998227,5.403026297189332,3.922708593922946,3.761669862573613,-0.1045567788455584,-8.361357415696292,-5.591156202003064,-0.27947006698121385,3.8489476668138134,5.932522542759756,7.034835515968573,6.58814703392188,7.098129966387478,6.51784797848419
35,11.598783353421483,10.305509308944693,9.264451413994085,8.886611544130846,4.535548096501572,-4.003516895413581,0.640062115810141,3.3777691825230405,6.625852092280597,8.434729819006606,11.2530443670905,11.336404496880487,11.10135947033349,11.831336787253843
36,14.195977518207282,11.99942291402714,11.501743339806616,11.113424555835383,8.00690785913384,1.6929300936121292,7.246185735201701,6.615602678501084,8.170829161289584,9.097844691633117,12.38811399836686,13.02001081766009,12.044201560620394,13.707682591620777
37,12.83325840856797,10.317906646122326,10.387112166239753,10.122739736493983,9.478592434454793,7.407194777319122,12.718869767734473,8.807418482915082,8.285250263498183,7.859646532081585,10.262401671353883,11.36819005891892,9.75902472351772,11.861774861890078
38,8.180050738151474,6.0161843796312455,6.618228385092027,6.5040473134696635,8.604943126840581,11.671499357115625,15.641782970913246,9.418770330930254,6.961052966475847,5.032495201780344,5.5367324688669415,6.953450446322343,4.925517162929024,7.005173127933798
39,1.737044758770675,0.496285940584133,1.5521473293642623,1.5197235930895625,5.620710485188537,13.276779514420559,15.082994840758591,8.15050271134725,4.385942672738251,1.2271740213012035,-0.4872109506091663,1.0026335863818703,-1.1245624584839031,0.6031273024500351
40,-4.618908751006172,-4.622035591443987,-3.238931747410412,-3.301416673513312,1.2928927819977312,11.642358466996567,10.905623529406672,5.0667929790896435,0.9470474310209768,-2.7674463627051056,-6.21542707747464,-4.9391417914380655,-6.764637282085864,-5.552162016575125
41,-9.159093671429066,-7.954333516007486,-6.427485776050945,-6.611752856585032,-3.2645551838336573,7.030709095883411,3.8916642743703393,0.6593615755780693,-2.7840507488193973,-6.128056489953713,-10.16726169837094,-9.398239080020018,-10.496084290897661,-9.82700368290041
42,-10.752315673860009,-8.704196700358775,-7.273731261469195,-7.603528410728244,-6.871135055778309,0.5284805070287971,-4.380690166111421,-4.192698246775317,-6.107170445036675,-8.14508469027794,-11.337811231764057,-11.319938487881924,-11.328519012028098,-11.16040773893029
43,-9.126828589228804,-6.830746230656401,-5.768328666703908,-6.18578710324563,-8.586010409024677,-6.216323500077069,-11.89620329758001,-8.382263477418048,-8.303641123937979,-8.357746307970052,-9.434074107707707,-10.297764400436865,-9.02527880600219,-9.306693902556452
44,-4.890586784202403,-3.0039872875279916,-2.558554822642403,-2.947535465366491,-7.9599912592635125,-11.435008840942846,-16.71486715762083,-10.83039402597483,-8.792856057594273,-6.657096546272206,-4.936032229417446,-6.6430613024211755,-4.158491297613406,-4.858491627839211
45,0.6774572655418661,1.6204849363307785,1.2949857936431342,1.0613147353086054,-5.163648891627615,-13.731964015906431,-17.50057025939822,-10.780140956946028,-7.301872598379322,-3.33630155736143,1.0247534789571,-1.29098243423552,2.0345727274115326,0.9393327663430973
46,5.995032855561253,5.732912086452493,4.643380005850703,4.65230561190374,-0.9522487969722258,-12.485469653385243,-13.91460466191501,-8.045063772720594,-3.9957928434503915,0.9314826192894405,6.936951271968576,4.427767052557982,7.955771334221768,6.5249313040158885
47,9.59917143312704,8.2139526111144,6.558960424521212,6.825956862656571,3.528524211470799,-8.033711334997388,-6.7532446163626645,-3.1297778834688823,0.48557113782623534,5.1991214138782915,11.26905925017773,9.09641436645735,12.037407683741042,10.414498551618882
48,10.514855024825344,8.406624011541778,6.5515287976009,7.017188828097988,7.047461222992746,-1.5871919746084007,2.222300099374651,2.832538071611515,5.12035152019204,8.430361637612021,12.837110061513382,11.5373670647152,13.12906775071202,11.561933304959295
49,8.483060537102626,6.256894709552727,4.650684553062404,5.2049976689396615,8.621907929762031,5.109138354874584,10.72780371471958,8.331163158521175,8.725595456235045,9.735993036065784,11.099240028577078,11.086447691143366,10.79062667082384,9.603798567272248
50,4.002524865406996,2.301414494748951,1.3546935867951206,1.8759792568446536,7.788947989010995,10.26549241316107,16.55446818760554,11.864929114011986,10.26202937540853,8.611688383031607,6.309838286439365,7.758493578978473,5.422971247810337,4.940927690984328
51,-1.8127703158134645,-2.482170153444663,-2.52143170308359,-2.129812165427388,4.737331137511609,12.54527488514304,18.16095106069692,12.364691789145235,9.142517804138434,5.114771436620732,-0.5065042448402715,2.2655849177020557,-1.7969593406913629,-1.354740203107548
52,-7.51597283225588,-6.918333047439031,-6.049401535492253,-5.837917653208193,0.26200819534898684,11.427351773629495,15.09493012665886,9.528797847385418,5.450292530366553,-0.07946980191780129,-7.763934614502354,-4.123493673666057,-9.167767567354707,-7.783496404955144
53,-11.677021357024882,-9.910649060397219,-8.392830203361422,-8.364898263451776,-4.447075691920903,7.330823742700371,8.126027924824331,3.963871662329986,-0.011423320751653698,-5.778224603482672,-13.669272679998254,-9.861037158182556,-14.850923767132432,-12.757824374669102
54,-13.217556923845686,-10.691293477454217,-8.974956044591226,-9.10163905028102,-8.123613965156155,1.472277201911553,-0.9486039686136496,-2.9268929980065623,-5.873702142065408,-10.525238581804292,-16.646974847374814,-13.480881402917653,-17.309938246343354,-14.96729393374426
55,-11.65793919816543,-8.99186158268658,-7.584999121858628,-7.825010421790439,-9.762975547399483,-4.496083926874065,-9.774597884629642,-9.29365236946966,-10.536263113200768,-12.959648212438562,-15.73839551715484,-13.96163098356646,-15.700857880902317,-13.69143461174639
56,-7.226428063915591,-5.102962273221079,-4.413566872618266,-4.728412714990047,-8.887472063912258,-8.957560330883028,-16.05985199187081,-13.340638336882085,-12.600561197688831,-12.192556791433434,-10.87662274281581,-11.003515397923973,-10.11846116799951,-8.992119453761292
57,-0.8119337803890091,0.18676187391856292,-0.018140674202784476,-0.3771261051629761,-5.668786937291737,-10.774419138279791,-18.17670879768652,-13.839207925471964,-11.282977946637589,-8.097335003220508,-2.960444437259613,-5.14254073745986,-1.6301683737654713,-1.738732206287232
58,6.22553513138621,5.757727539953313,4.773186595974995,4.396877925442012,-0.8786160005961602,-9.58038978208116,-15.586380429105068,-10.503128588873205,-6.685569791344482,-1.4219870348348582,6.305008918001365,2.3392071432765382,7.923937111954408,6.548032835828697
59,12.344591003418682,10.39746194327995,9.006043994247875,8.642464771306344,4.313962906701637,-5.847066071163931,-8.974371820325912,-4.109652803216468,0.1652168194169264,6.326765643550957,14.776824206660846,9.697509759624282,16.33084345042767,14.009430238781155
60,16.151569264601857,13.060288456667346,11.77291429217906,11.459429323358753,8.639972564501525,-0.7161065653456146,-0.0638689631913746,3.6795194613288635,7.539485215714141,13.217506024500157,20.37280848030867,15.14144164750091,21.51812217546915,18.857774426030623
61,16.701671480810592,13.094461195361276,12.38989648228471,12.169078777367577,11.042934726997833,4.345106132276623,8.84023572948122,10.75620736782805,13.438294079658236,17.373002649934822,21.582263938183363,17.277756759794485,22.061254153711566,19.793622675940256
62,13.711018458759863,10.388541624286077,10.547330784447647,10.459799426917975,10.927724037846982,7.9605896936032785,15.4537662352527,15.144058829071076,16.1311851861234,17.47381873677137,17.861639212561347,15.46875305011389,17.55931823335109,16.33485686057885
63,7.636109690850019,5.405165911483562,6.403816614238268,6.479748311178414,8.289362517937052,9.21718618354273,18.102712093969632,15.554698737779631,14.651302555884376,13.150789535085746,9.811158969089693,10.007738962077498,8.780226022465193,8.975552723366237
64,-0.3970299111760611,-0.9058499338152761,0.5985637188733777,0.8511442075605847,3.6994297267682255,7.890649420267403,16.146405552305872,11.762547418954291,9.107553575543617,5.152296690885106,-0.9196507556896916,2.063862611138411,-2.4697893444390484,-0.8722786338912493
65,-8.802566365675196,-7.2970569371995175,-5.830879502946553,-5.409499254575387,-1.8365310124125165,4.471954750336653,10.127302486166624,4.6890888438522556,0.7181049566060475,-4.772921311863934,-11.982820927156203,-6.590174840133094,-13.73050810880878,-11.152012661349236
66,-15.844902468315587,-12.475471910949954,-11.621171957533257,-11.063298257617065,-7.1095350222484255,-0.003048148223850214,1.6134280636540754,-3.830808668320938,-8.457472216589988,-14.263044996286968,-20.86048720666961,-13.996747581787274,-22.44059284830117,-19.597711346733757
67,-19.99051946374668,-15.364421015848375,-15.522274974187932,-14.88917526522879,-10.970347054597815,-4.26400861262328,-7.219990488941831,-11.538236261436506,-16.02848286659508,-20.913412248988905,-25.44808032220387,-18.471541246938752,-26.530828762040183,-24.23806093668413
68,-20.233617264818395,-15.321763879753135,-16.561811090980832,-15.947725142870118,-12.569922425236978,-7.164617139446682,-14.15650568490457,-16.36120789107694,-19.898627993752026,-22.8902842628421,-24.555173036101877,-18.989168011553602,-24.91803098802967,-23.856209260719538
69,-16.330048242206328,-12.272011443587688,-14.281583616798242,-13.811368662986943,-11.532152267030614,-7.988958016772759,-17.502910225937587,-16.97929424723062,-18.84312689414299,-19.430932381073223,-18.205721860433545,-15.407915294021505,-17.78196295708095,-18.298917689785156
70,-8.888106643319759,-6.72852299700476,-8.890630776858428,-8.703392843118234,-8.030117704085235,-6.624421577389403,-16.506537311782097,-13.186732196917667,-12.87961530179682,-11.09496450806418,-7.6650603578395655,-8.489209332983707,-6.557095061859342,-8.558746327365846
71,0.7112865314276599,0.2965241111449914,-1.2886394165180528,-1.5032540034235693,-2.754745740642959,-3.56022314834783,-11.521116346251967,-5.954074027541033,-3.3230867350900026,0.31051011841913806,4.817632376310305,0.282761704932922,6.364123652907105,3.39904480726961
72,10.561318067231854,7.476834098328215,7.064178715608451,6.396906448130933,3.2181579094000017,0.27965677968688046,-3.8847441955069066,2.8292331833766737,7.505127973438581,12.129045542568921,16.498906571758397,9.03277361829838,18.1542039236853,15.03737541726753
73,18.605038850740847,13.418429990373758,14.421751278563482,13.364908247996198,8.640561952303024,3.8149000386241987,4.450356912831205,10.86192089209379,16.852321331494586,21.489755403601798,24.75700391688136,15.901230873607297,26.18510591635044,23.7961092220646
74,23.07077926076284,16.925142193804806,19.12490801712381,17.877180062395663,12.348097346208203,6.115724981139374,11.432562248933866,16.049914519774447,22.25084914011718,26.026123912998514,27.696769583628615,19.439364290064987,28.63150171880111,27.67090700543625
75,22.876440835518626,17.23652601176508,19.993253351190642,18.86672188690387,13.51126892125809,6.650790473519861,15.431289756805445,17.06853179443701,22.187405255073582,24.495561587253103,24.60305760850966,18.91308781127437,24.902716480300935,25.690157692869857
76,17.907917466636665,14.193710965396022,16.64020376418749,15.987395848850115,11.829004477690418,5.409109927645271,15.627426465477459,13.714070629079975,16.539767997052643,17.132768221073754,16.13061062250981,14.455372221438989,15.797692809053665,18.172968509162285
77,9.095394047354766,8.297531493509053,9.622285601707999,9.725880411448943,7.616825837877075,2.867843239074772,12.177504251448928,6.9484477686066555,6.651049757078825,5.632128391030417,4.1749417612033195,7.036274294228312,3.338083009548893,6.69530497979178
78,-1.748019078473228,0.6393742559436683,0.36722179079012585,1.3256656068987513,1.7599077920063337,-0.1764886451413111,6.119630472343519,-1.3748181861031077,-4.993149401026344,-7.250970953818195,-8.556915746645759,-1.7451951391892209,-9.690286059957192,-6.2426079625012205
79,-12.305102179080247,-7.292258534566683,-9.120711744350961,-7.468056144908732,-4.469444366226133,-2.8569395179535397,-0.9404503219319483,-9.026462500552638,-15.408883712009025,-18.386914560560644,-19.181385267137856,-10.007054916916045,-20.3848561837027,-17.78082704861438
80,-20.273158897335602,-13.900406623912971,-16.71868983614089,-14.788912056854295,-9.69589464764723,-4.488074906531387,-7.26817101714184,-14.014833219098517,-21.909470825327208,-25.071011452265743,-25.32756110679365,-15.996846543800826,-26.408830093076702,-25.366713964583536
81,-23.90200771909231,-17.81018670846087,-20.69723209704397,-19.068305172264896,-12.76261336801312,-4.746847197472059,-11.441196931082004,-15.125257459372461,-22.833752445710406,-25.72213409720429,-25.707950707116243,-18.480538795137946,-26.540303624558838,-27.361569177336193
82,-22.416812474616552,-18.171936948652426,-20.15356446034085,-19.393433299281636,-13.010371825329688,-3.7334736652833818,-12.677568300928687,-12.235201565698434,-18.00100426540313,-20.28968279791392,-20.42196071995864,-17.017705697428685,-20.94845645201072,-23.43186759197832
83,-16.21306203624268,-14.86609784389279,-15.247595800737125,-15.717499618905396,-10.43985458584141,-1.9020864086253366,-10.974084541537138,-6.3190209749943875,-8.759926828591452,-10.254759088168582,-10.909378834110605,-12.054645946693185,-11.124556101383748,-14.620453826451206
84,-6.76567740426537,-8.554842953875951,-7.170436027574698,-8.870020422136436,-5.710385850315409,0.10911819721761432,-7.034397611317685,0.85523837245567,2.386547938271722,1.7767673150418375,0.4367495587687948,-4.808315081225156,0.5150354285383493,-3.0747023013029224
85,3.7315907190336253,-0.5575300809136049,2.153016954688638,-0.3635921578508226,0.02866264431160758,1.6895424900218126,-2.0236708783722825,7.24659049882891,12.476739065846749,12.777032169682089,10.895444138303382,3.0342395189713898,11.24920428628978,8.499893537118153
86,12.90692704169673,7.43109006127081,10.551688877268726,7.956659481317291,5.431039520439426,2.441470727833735,2.7706736211171976,11.127267521152556,18.90853948973736,20.09900326085465,18.112316235722968,9.727355654172664,18.730654024425693,17.516915091147688
87,18.790741328685495,13.719666884400041,16.155692614194063,14.336184091843622,9.292855843375335,2.282922320337199,6.274926759172617,11.564656331465036,20.146816239798977,22.156300397315054,20.674871238687672,13.884117645847128,21.5424238691663,22.136675209158323
88,20.282049082964335,17.006846037955697,17.85485524531326,17.50455248903609,10.845809203360183,1.441171116721601,7.8743345726104526,8.661380293215602,16.118682178095984,18.79441478392959,18.415022519366346,14.791262663957484,19.487819715982074,21.678285342964305
89,17.37818202432076,16.67948752449665,15.544680036888352,16.945652727624225,9.925664183615563,0.3462736586532648,7.512091209374717,3.487983471874449,8.187543089388388,11.258808936204716,12.36493830232544,12.540811601438303,13.546236374584192,16.71210578498204
90,11.111377347788094,12.945385855226936,10.097205972929515,12.982621207745895,6.973886331376152,-0.5345552173902747,5.6301746734720455,-2.2664388729418037,-1.2791144885138828,1.7826350940666764,4.393158666368295,7.948994481818718,5.523145690256202,8.820501224274372
91,3.218769657020608,6.764970395334731,3.073685374562026,6.662802124918562,2.8790617396901883,-0.8639844906660895,2.9831071865184784,-6.81751916626135,-9.614591947635382,-7.074958755799906,-3.36079935321955,2.293328539495009,-2.491611446206295,0.10921678572922408
92,-4.352703844297536,-0.40020687856065085,-3.7303062428675346,-0.5217236921181199,-1.289453662185824,-0.5476934415415047,0.387242379130885,-8.824428281879698,-14.619303360374674,-13.141836575790421,-9.081265609144868,-3.0505190292543967,-8.693149525538882,-7.380120104717348
93,-9.960756465054676,-6.954629256790102,-8.771265076545978,-7.002413877488036,-4.574392659037243,0.24174006552679878,-1.518886545974757,-7.783018589502808,-15.16374239340829,-15.19221763195832,-11.728194335198383,-6.965005277529499,-11.995248713863166,-12.184541441990243
94,-12.655932697822431,-11.552952734429958,-11.136081042306946,-11.496329432225513,-6.365386438226122,1.135050693104728,-2.4355411584388906,-4.157438513141897,-11.456959215645941,-13.201255379907451,-11.225438898339148,-8.840709323244804,-12.215558302532912,-13.7208719645804
95,-12.341939595865933,-13.399818223564113,-10.711491468990932,-13.273133078201969,-6.513631238307394,1.704610261889739,-2.442466352840187,0.785817364589185,-4.913174665431344,-8.24034645863845,-8.35167145728041,-8.658371264723955,-9.981982094622191,-12.305977540851796
96,-9.680140444314189,-12.39082530440509,-8.111827102460545,-12.267570822257305,-5.304521091720408,1.6233317021556868,-1.9146767369380076,5.387212663458309,2.329258515791539,-2.0673257781212175,-4.392744939670332,-6.896204111534916,-6.417322664055737,-8.918776524772564
97,-5.789485911049995,-9.06796134225118,-4.407111124085289,-9.021868520047809,-3.310863789568063,0.7907167494842069,-1.3466890366321242,8.119175212704878,8.080095932246813,3.446960616962881,-0.6834103412283692,-4.309554542640268,-2.723193853417031,-4.804418928129378
98,-1.8526755893959332,-4.416503954318233,-0.7514873455155217,-4.488159340148562,-1.1838018511281732,-0.6163395560622621,-1.1467266666343723,8.064715741476153,10.751885302466864,6.87387161342533,1.808951835573995,-1.6653960277455477,0.1948474684777661,-1.0618318897690229
99,1.2394507292119226,0.42671692228934205,1.9648692624273052,0.24434385935342431,0.5474296107750494,-2.1861805862620414,-1.4720284174567047,5.2026345011061155,9.800750361308122,7.5990623988754,2.7311660077392643,0.4795546430006098,1.9455556166550845,1.651891923732408
100,3.0960026171586366,4.464662070427206,3.3346416303654283,4.218535520507855,1.6056146310508213,-3.396857665176322,-2.1634298353251755,0.41236542991319214,5.828783400706224,5.912945188615332,2.3586775306531234,1.8916450146020878,2.660811570346652,3.2180124945594444
101,3.8348368684988765,7.051281964555186,3.4677145236204745,6.80529930598572,1.993249440414974,-3.7844850507182497,-2.804607998166647,-4.801719334556014,0.3314012474013856,2.814108980550594,1.3952120752883654,2.6420505620096812,2.817776573210428,3.946605204391331
102,3.9119891360363055,7.975710578606388,2.85063766574228,7.784866225002262,1.9228106808252072,-3.1025849798146936,-2.888341074383281,-8.779967509339784,-4.8172798631845515,-0.390156928569235,0.6450162218302755,2.983120530172276,2.959522901514866,4.3264619420593995
103,3.8525303782343054,7.416659850082966,2.098083693320556,7.3101419046883045,1.686985318384545,-1.420682581625921,-2.0327970805079194,-10.224699100654485,-7.970536155990586,-2.5440025271936757,0.6814410335800695,3.1798227803633576,3.427873032729711,4.744626301069754
104,3.9929599568259473,5.804074410080664,1.6938120591122083,5.783126459633506,1.5229598835424938,0.8722983353771575,-0.1692277241114992,-8.604545271143861,-8.214201310863873,-3.0118195281813946,1.6285686812875142,3.3673715039043777,4.2090097462399605,5.28836379707693
105,4.333830458381773,3.6479319771739185,1.8138899043039067,3.696489474407461,1.5211847270175418,3.1656342902112145,2.372480948160627,-4.321273314299414,-5.617526697687953,-1.8430177119437121,3.1267041155268247,3.4899472865604246,4.944332660838661,5.703854298064918
106,4.554575238977195,1.393992178317679,2.288522093712215,1.4942024715597602,1.6077355267132403,4.799603255888228,4.921923866418725,1.4109396377206351,-1.1621809682073108,0.3065544824554959,4.4851531980823935,3.3398307503076516,5.094728354788653,5.521778585310009
107,4.178360784366785,-0.6540652240501601,2.705265997855173,-0.5107719277337549,1.599386881344735,5.262922903283758,6.662005750150559,6.934181273280924,3.614095380344094,2.4538341703924353,4.960329073448927,2.6753073591655756,4.189374271962348,4.294387984670822
108,2.816942558711498,-2.3377904105482927,2.605292160196083,-2.1501215790195927,1.3032453444908194,4.354419289706211,6.900250296173547,10.647370967034478,7.133902410061166,3.66205415771059,4.055627756018755,1.3647762725870123,2.060271992018146,1.8455416302764354
109,0.3949607720856679,-3.593503564266798,1.6934367864705677,-3.3601347746031376,0.6179729562794041,2.2573813377800653,5.326533300083929,11.48336273934282,8.285684493318561,3.3768521379029934,1.7347022955130078,-0.5052093335551803,-1.0295412519959082,-1.5701508206893053
110,-2.739338516539778,-4.386374392062913,-0.01817373155084329,-4.120221402793355,-0.40417322235829345,-0.499444452507798,2.164044019898414,9.217101545132396,6.757935854445208,1.612843852414296,-1.5278425663218815,-2.6057002220538874,-4.416295652679645,-5.269148675025551
111,-5.867480734454189,-4.666695958464968,-2.1853988208941164,-4.40484048852804,-1.557990955697965,-3.185681296980747,-1.8483232593316943,4.51461989018796,3.1033119738030854,-1.0655320717390218,-4.876665920733177,-4.439870075868854,-7.2185182220196715,-8.311674273486785
112,-8.107147216849135,-4.369875164786233,-4.233530155755623,-4.171943608668272,-2.547183959564592,-5.076573361123876,-5.648358700521773,-1.2849717205131315,-1.475219603455795,-3.7529915900897386,-7.342392286260383,-5.492939528474607,-8.611783830074229,-9.79089292427586
113,-8.70243568635665,-3.4577578246390215,-5.546404572505912,-3.390814630566683,-3.0829704734244907,-5.661740587792823,-8.162990628322081,-6.579657790088893,-5.534385907700285,-5.522910151120426,-8.154014945481478,-5.404774389271615,-8.101154116581654,-9.139311550644182
114,-7.295723844038651,-1.9777099564563692,-5.6746488421269,-2.0922212969505556,-2.9824957985220384,-4.792217205529655,-8.641637056009785,-9.97539552557822,-7.855766437130731,-5.744363694983994,-6.991772483952556,-4.1028727735765465,-5.697645173779001,-6.344029827927323
115,-4.082764816725657,-0.1061856359089273,-4.490151845268995,-0.4123453079450381,-2.231981380154642,-2.7212086357181553,-6.900042590635717,-10.673014953704708,-7.814510001243264,-4.289794236716757,-4.096969480151607,-1.8469768173934267,-1.9380501853125751,-1.9923643449536108
116,0.2078932129543306,1.8510505668776092,-2.235329318753728,1.3964978452736219,-0.9940684207064805,-0.02678771835036687,-3.3912709331429123,-8.659303348050196,-5.539380919473082,-1.5683192873524388,-0.20464660125140988,0.8322827554969509,2.259251267892477,2.872790020402525
117,4.509506350570352,3.5120859165783673,0.5460913057150617,3.0018088980123876,0.44041283560697414,2.558849923208973,0.9228147169706268,-4.65686053271012,-1.8258230780004545,1.6185745504808986,3.6756630680351283,3.2813199207961987,5.855339289715998,7.043717663998809
118,7.724335161717451,4.512998728976259,3.1697273814954894,4.067375374378506,1.7371756604488005,4.360649851182949,4.859641309410567,0.13568784863587366,2.1540685706719644,4.342779791823745,6.557275936780181,4.909517726220235,7.984574861436045,9.49194251547832
119,9.044190503391652,4.612706203554758,5.007347141737004,4.346599149911438,2.610362725251198,4.94833641744153,7.370458503651884,4.419381686354639,5.238040997587487,5.843514191666715,7.756131147797952,5.353274546199246,8.18961427735045,9.656742138530486
120,8.181826564678097,3.7719989675731287,5.657022665296232,3.760599419851585,2.8931945464814963,4.245404266248888,7.846994317077046,7.164656653181777,6.626427730185902,5.752681011211324,7.068047237818507,4.5679704525824185,6.528913667563386,7.590153629482319
121,5.442026658073907,2.177786983000607,5.037566603068797,2.432787480748945,2.5692998022164506,2.5304700240754303,6.283746217190712,7.865845908160258,6.09182760533899,4.183768607968697,4.796078534501772,2.8235420155945503,3.5317118060993633,3.9194525428544855
122,1.6150860186938747,0.2017667346986519,3.386221566214034,0.6658459152817078,1.7612251822540541,0.33604360046553566,3.2493604260694413,6.617163014016612,3.9917009791750826,1.665668902657714,1.6305526089758526,0.6113365102166537,0.0240200787280635,-0.35293868542992757
123,-2.267442948774626,-1.6954013284884917,1.1699126053775557,-1.1337897671414987,0.6856905890481763,-1.7193056012800945,-0.31548522497801273,4.0083076400305835,1.0984747462163205,-1.045703539695409,-1.5706815614961902,-1.503349626147907,-3.1137070723263496,-4.143324770641806
124,-5.233617762178942,-3.085605420725931,-1.0555161644507014,-2.561704893495942,-0.4073604192423297,-3.1112926481961067,-3.400725219089188,0.8932260240284686,-1.680449916625554,-3.2087157830690334,-4.028431806557563,-3.0354894473218206,-5.181683175641565,-6.58204977744676
125,-6.634690799993293,-3.684002604167283,-2.793274610690471,-3.319931444877433,-1.2941021112140267,-3.5484044392349485,-5.228566809739696,-1.882445750051405,-3.5919297621226565,-4.310395634342,-5.240976622266185,-3.6968708123168117,-5.822936515273813,-7.224988164815746
126,-6.295445836273454,-3.416802710745507,-3.720276166139175,-3.289539434871906,-1.8211547261722831,-3.030779794139101,-5.4594736053342885,-3.7087824525894657,-4.242490430188233,-4.190316294085707,-5.083939539936891,-3.446820604136676,-5.075268181951909,-6.128479748383171
127,-4.51586629707973,-2.428186910065716,-3.7429970385203077,-2.551532557382004,-1.928148861950803,-1.8189061942911944,-4.245589631361892,-4.333832608842692,-3.6647596741583173,-3.0455130657878913,-3.794765966252921,-2.471406864410289,-3.311866779920933,-3.780113284124663
