,AF3,F7,F3,FC5,T7,P7,O1,O2,P8,T8,FC6,F4,F8,AF4
0,0.09945759915652984,0.11509057448274808,0.01936791695744472,-0.056975175065672894,0.04711388126584544,-0.12355674255909982,0.06149403941369218,-0.020771223525103685,-0.030889551566319194,-0.07055938632447264,-0.07399912844903192,0.050260170877199375,-0.0255148272507516,-0.18826544091958242
1,-0.5826997389286378,-0.9695786134106248,-3.308038120183864,-1.168679186033879,0.19105782472444466,1.3393002970700658,-1.2991144502598768,0.2887566732404459,-0.18975376443931685,0.9106259736347709,0.36222665866499815,0.955277355460853,0.5265085466592737,-0.1296394587629784
2,-1.1480399042162601,-2.002355327207828,-5.714949331572699,-2.0520075588115145,0.10257564835487219,2.3625595717084105,-2.4070517703357366,0.5713679792768137,-0.4672159748011568,1.527907428608777,0.5538896208169178,1.5158414332529666,0.8418930678033575,-0.17269460980863002
3,-1.422471885894139,-2.808220705977342,-6.497953635477535,-2.511883540025593,-0.3079495337304187,2.635344944073417,-3.010855109799174,0.7901070966915453,-0.8939896979745137,1.6164085306759617,0.4186388266967146,1.56498014191773,0.8596375495719376,-0.3239158202369228
4,-1.3005898350206595,-3.1899110152511327,-5.42226376495746,-2.4450829089493022,-0.9580900116256638,2.1039228640633376,-2.9425309894665643,0.9045122388502764,-1.3915748525961877,1.1838687589805732,0.018744820374806386,1.1161709081079165,0.6259431044198338,-0.5086703089916652
5,-0.7845646473299838,-2.9821203824685028,-2.793465791528283,-1.8651007286879009,-1.610960080632377,0.9807881747424965,-2.168520731125985,0.8785807911068858,-1.785416767494756,0.3994790956535129,-0.46475445642060365,0.3521553390926602,0.26703582611760707,-0.5996061072681225
6,0.005604912333818097,-2.1204087665918423,0.6310836093891459,-0.8990271823401604,-1.9621664588416734,-0.33915361508641084,-0.8206077539927658,0.6933092110991124,-1.8647770012645928,-0.4655754436132915,-0.8055370045324141,-0.4446288156871005,-0.06368446359987819,-0.4737500292148594
7,0.8569116096159382,-0.6972459905316034,3.864693304623285,0.24228908073070424,-1.7641863915510272,-1.4221635128617631,0.810514927645615,0.35917688244561047,-1.469170556697629,-1.126359365905464,-0.8248077038412271,-0.9949439498497825,-0.2446230904624967,-0.07599308264862642
8,1.5192563362065024,1.0230944461763367,5.980720321195511,1.3128156758873122,-0.9400303344561488,-1.945456898742115,2.3285122598702324,-0.07710434689548162,-0.5692137721747548,-1.3738066622213765,-0.46744617255876414,-1.1225030517619412,-0.23014800713338143,0.5376944226079763
9,1.778191470446132,2.6475114107112296,6.382294119404415,2.0865612876615756,0.3600143340243617,-1.7996687064362946,3.3262375026290516,-0.5359977962784639,0.6908998217178185,-1.1384458732657243,0.16859240943256631,-0.8151972503559525,-0.06446037460991662,1.1981170829446248
10,1.523407580239263,3.751148729415058,4.972496064842274,2.406584377642156,1.7849552372301454,-1.1101422351048145,3.500058629925226,-0.9199192354169718,2.0104778315262295,-0.509102442319954,0.8622424968901546,-0.22589054878773637,0.13959422753407819,1.668094766667901
11,0.7911532644895608,4.00278144353876,2.1758574498136602,2.2172016982183953,2.888732627263494,-0.17436589333974017,2.749638043888564,-1.1365226676125286,3.00984568020748,0.29864835453269173,1.3487211514622226,0.3877054866013498,0.24902443830774887,1.7232309101852006
12,-0.2350019230285932,3.2779703194214944,-1.1928757542190922,1.5731748904733018,3.2804527304188,0.656598237134282,1.2279222213273877,-1.1241543425958467,3.3470388388207764,1.0138652007667068,1.4192745276982317,0.7625452257031748,0.16858273694242404,1.241134579028731
13,-1.2688452566465087,1.718575218786027,-4.171245760886656,0.6248651965228462,2.766334112372724,1.106306890228754,-0.6819611160136926,-0.8715798310875374,2.836297504594195,1.3984377143297393,1.003814768999301,0.7328432788917911,-0.11404888927382452,0.2657726444206464
14,-2.0013664242190448,-0.2880387229500669,-5.929217194695357,-0.4166974957059267,1.4311288229244727,1.0640036234389687,-2.4638196077531993,-0.42518099741869464,1.5270942374318728,1.323593269321704,0.20466587225184008,0.2974599579068929,-0.5142415549013835,-0.980560506787329
15,-2.1935513730907372,-2.2106609277847875,-6.003903668410315,-1.326986218172043,-0.3732025073858995,0.6086598684764538,-3.614892953249148,0.11963566582555703,-0.2870748121397438,0.8099207832315723,-0.732580825942623,-0.3742295863876798,-0.8753504047066583,-2.1484561764479038
16,-1.7540913563825076,-3.5287651092289516,-4.42147296263594,-1.917214789746228,-2.131293072181044,-0.03725669436026566,-3.7977169340469006,0.6411876853393937,-2.138838658241242,0.01814848135896529,-1.5017757773526783,-1.0021893590736213,-1.025936330593033,-2.864275958834802
17,-0.776635745103539,-3.8913513187861195,-1.6740644118598789,-2.075021765110382,-3.3271288831729584,-0.6016614473579542,-2.947990751743943,1.022213731041386,-3.5182489171082243,-0.8055395135776472,-1.8430053084245954,-1.3010208704324138,-0.8494460761460451,-2.853110640964068
18,0.4778590997891011,-3.227071285009128,1.436758479781703,-1.7875757291099656,-3.610474586222855,-0.8662551303895815,-1.3008786094486338,1.179658483625688,-4.025629250526961,-1.4104439264625128,-1.6346235398123252,-1.0925462346593673,-0.3397489122914346,-2.0400246155558768
19,1.6518002606422764,-1.7668267755046738,4.0396981706937485,-1.1416507202146473,-2.909591592971713,-0.7411876313226488,0.6760317424250987,1.0849163580863646,-3.497159728333447,-1.6205980802334485,-0.9367433467855958,-0.38321240649733895,0.38111955696379796,-0.5921206085169132
20,2.395789405792262,0.031206084908624095,5.443684296487398,-0.30033558736533356,-1.4514619445189214,-0.2867461748412957,2.4236854301278297,0.7689576605674652,-2.0614786001047447,-1.3856188543026542,0.029828728597380536,0.6246470208290337,1.0940585678704744,1.1176463709323772
21,2.476509156444787,1.6305849447702871,5.325020664894503,0.5382477516298397,0.31670607126978245,0.3204878254325742,3.4614385642613454,0.31155408581205424,-0.10706637224458931,-0.7873710385166572,0.9613464219748539,1.5949839151703553,1.5555683440549073,2.61729885227181
22,1.853417093404038,2.5896856458171524,3.800014975673743,1.189948653391314,1.8762856357968183,0.8591198291137909,3.5303974237363165,-0.1813458743557305,1.8309939315045387,-0.0031833980363162855,1.5767082476566445,2.1735417560033055,1.587338819741947,3.480120690912649
23,0.697839604064257,2.6995975814922963,1.3672779798533858,1.5285223266044792,2.8038897435763697,1.142555443143503,2.663588412954523,-0.6048340200897684,3.229802288496793,0.7578728155930844,1.7119319411312297,2.115790473858773,1.1488870053849058,3.45838566248225
24,-0.6546960108072168,2.0393780849916863,-1.256892030866699,1.512677710227315,2.898566459560788,1.0779081212219013,1.161602090519437,-0.8789946947511144,3.732758679500857,1.3203303929545378,1.3693003478052466,1.3804088325458022,0.36297158925804734,2.560668010432871
25,-1.8063707253368324,0.9304436013094832,-3.3559110336998175,1.1890441724866088,2.2280206982629367,0.6866262511513249,-0.5149646678509244,-0.9636852628934467,3.2502592875218888,1.5856208124021627,0.7046801814419336,0.15308946179868627,-0.5201472568634024,1.045971325964034
26,-2.4216910670336325,-0.19183555218639037,-4.415783805757085,0.6710135904120238,1.0825815463182675,0.08548393776959737,-1.8967741779304699,-0.8617570518723373,1.975934291626446,1.5408407585932873,-0.03965643542510476,-1.2093113702539773,-1.2099524311532959,-0.662702741575631
27,-2.33391296774607,-0.9412503223512126,-4.253991706815796,0.10089107906610398,-0.14121526632400572,-0.5591694932114991,-2.6478592763120767,-0.6120001090720785,0.31539494701362436,1.236272764559442,-0.6287789282813457,-2.294956371130384,-1.4831164601721558,-2.1140530785389777
28,-1.5968569126682726,-1.1180787167090325,-3.040808379393225,-0.3920180401585006,-1.0818317020122465,-1.0839825196574433,-2.651835002218887,-0.2756611629357481,-1.2468701648323843,0.7481644697946442,-0.9182275878042488,-2.77217982483188,-1.2694147086221261,-2.965240766225008
29,-0.46347751815091554,-0.7702657267502195,-1.214704598673044,-0.7238640764215584,-1.527228376744648,-1.369885116636963,-2.018261480162993,0.07880811643082816,-2.297366889092425,0.14790921450077424,-0.8950295686151694,-2.4959649931614174,-0.6805194718367734,-3.0729350698926723
30,0.7020744887747652,-0.1572417761600161,0.6734592584892342,-0.8696503135523803,-1.4644613065315526,-1.3623167976684465,-1.0154683328975538,0.38895893092687583,-2.611500757101122,-0.5072881329794928,-0.6633019104030926,-1.5497459850520021,0.03250071642823176,-2.5109036386523393
31,1.5482774845783316,0.36763617537340143,2.1326587104569734,-0.8553295108720785,-1.0526789769644203,-1.0708030772916504,0.03804205958699368,0.6074762576540312,-2.2037396127570172,-1.1608823844022016,-0.3842366460593838,-0.21110043783350724,0.5785398642112902,-1.5151975936041489
32,1.8520671895487342,0.5089969017929344,2.8646274210744638,-0.7343284238864103,-0.5368982256483464,-0.5555357238802627,0.8798810022143669,0.7069824747523943,-1.2986784965303397,-1.7335983964046224,-0.19857375142138547,1.1425923629623378,0.7441778297000112,-0.3847649952049771
33,1.5856137696563608,0.15577509671716652,2.819527504420532,-0.5596619494655315,-0.14054734129440002,0.08967782067826909,1.3702236806789938,0.6813320196360311,-0.23849730120107465,-2.110651601138873,-0.1655667172910785,2.152686423056698,0.4822262143361871,0.6205834217915294
34,0.9112868375390958,-0.5678272764368218,2.1658757942825333,-0.36355315156049184,0.02029922173522937,0.7521200475500739,1.5011457661314336,0.5443635297686528,0.6378534102141937,-2.1562312968220465,-0.24372326375162306,2.5810915823445515,-0.0660447628981853,1.3466385701388286
35,0.10902500747441334,-1.3471815867337462,1.1963739918581358,-0.15234638284396543,-0.030319969757099705,1.312128454907424,1.356538656241462,0.32662165964250306,1.1019068982537032,-1.7580006817185816,-0.31941813601162655,2.3647174994650677,-0.6260209720177347,1.7564531274293382
36,-0.5343975420884796,-1.801188305123275,0.21122817651772105,0.08269298611626139,-0.15708238791393958,1.656030258550255,1.0492548623786035,0.07009920667574522,1.0955963284347392,-0.8868506094374464,-0.26840109589515215,1.611879259332309,-0.901862022816472,1.8933311259868049
37,-0.8310046581470395,-1.6380008675886892,-0.5764041854935631,0.3452916058863025,-0.18781226512221022,1.69389705515302,0.6675615053152707,-0.17892024879752463,0.7287031598499986,0.3552264459290319,-0.021388298844701413,0.5509516740350159,-0.7015455982828755,1.8217254345386005
38,-0.7521393170071907,-0.7826100280231646,-1.082063163174539,0.6155738338873569,-0.0005276325715222591,1.3820585787602455,0.2536618928500269,-0.37821364336190744,0.22071503359158792,1.7266431263172826,0.3959488954172768,-0.5446445344226734,-0.024517105440540303,1.5793992328878628
39,-0.4225698396214786,0.573532263600495,-1.332288509355681,0.8431951670785921,0.41331520095448,0.7446462176598589,-0.18167920857914854,-0.4975870158926306,-0.18834716697092296,2.8914770926162774,0.8662266761419615,-1.4284638383751,0.9243813525997181,1.1649586315401421
40,-0.05358464800548179,2.021983834273673,-1.4057515494973405,0.9574110963172681,0.935084163307366,-0.11554942804507515,-0.6232798023989455,-0.5243685185049655,-0.32565939735249716,3.5110941105647204,1.2250649663778554,-1.9309272920642027,1.802301868736872,0.5645256668828802
41,0.15543085159796943,3.070546407754618,-1.3664939655864872,0.8918255314394755,1.3602785195536873,-1.026142705131754,-1.0195954168040502,-0.4646633234481184,-0.1428780091235301,3.3535715042114123,1.3274181064465265,-1.9804799281377403,2.2527229380878535,-0.20024363938965156
42,0.10544719207377472,3.3140826744627003,-1.2225590300088058,0.6146894898505808,1.4787453449510715,-1.777763120350465,-1.2769557476457496,-0.33984531951543834,0.27349691619068495,2.3813089403943257,1.1066806745426014,-1.6006553361582128,2.039868951724504,-1.0330837318242956
43,-0.16045942502300511,2.582580425301384,-0.9289435045198133,0.1521791809970406,1.1626292717324336,-2.174985009792605,-1.2879586481730039,-0.17944335538883763,0.7385951134100734,0.7818537906368807,0.6015357980569815,-0.8931221630165794,1.1422540784739763,-1.7605653945998823
44,-0.47925010300468385,1.0135493999801253,-0.4316420037586006,-0.4063751690199257,0.4278383131245341,-2.091939772991405,-0.9832813011371366,-0.012937818338722309,1.0375406793305149,-1.0737166489255328,-0.05988783096516232,-0.015483863116203886,-0.22991180505022674,-2.1765700485911523
45,-0.6446124468280314,-0.9780268491877155,0.2707581558238184,-0.926191627964185,-0.5554488901103573,-1.5148397611376123,-0.3820844449124354,0.1366611867649487,1.002004091279984,-2.7339082029756896,-0.7102308582807975,0.8428295216128783,-1.6996595067511966,-2.120445201315522
46,-0.5059075612686017,-2.8235220819488887,1.0811831925555326,-1.264008412364166,-1.5090456340989362,-0.5560010214578274,0.38632880260806596,0.25545509169350217,0.5704735085009905,-3.7972796337566916,-1.2045468918951783,1.4883947930501265,-2.8459288797042777,-1.55594219860617
47,-0.046993208631368064,-3.977404411702023,1.8019154854518267,-1.3129372844906302,-2.1349290263976175,0.5676776904074331,1.106251735297401,0.33725844578292724,-0.18574344828326947,-4.025804269489565,-1.4662733774275347,1.758273081407069,-3.3387742851402473,-0.6124658940974929
48,0.5904058449729062,-4.0882051885577795,2.1859372060335436,-1.0399040392446381,-2.215184565966969,1.5874435549680022,1.541897323539202,0.37971763683390286,-1.0777253662773416,-3.4033624997116982,-1.4984522490310261,1.5599143595252956,-3.0391569884597076,0.43760458419467946
49,1.152324817345248,-3.1076009187942204,2.027559209915579,-0.5019393975948164,-1.6890215147655285,2.252107292964083,1.523723388347192,0.3805432697644619,-1.8501986978214333,-2.1225342000142104,-1.3577240037086167,0.9079615357161034,-2.030795108023936,1.2657937269325337
50,1.3725183870694175,-1.303077939856696,1.2583592284007556,0.16575408806542677,-0.6797698241350283,2.3942699625340325,1.0208993051837478,0.33621557809732355,-2.2539053469356394,-0.509504724114796,-1.1063986711364862,-0.056698412895971904,-0.5783549407087044,1.6097495552514585
51,1.0885337947203022,0.8276437784340207,0.007491359423392,0.7875180175559185,0.5382195730546994,1.974598262479554,0.16859098995932387,0.24411096880201502,-2.118913145688809,1.0814022193624397,-0.7688080211288094,-1.0807022412285816,0.9664969573738574,1.3825034351907224
52,0.326391283919184,2.7099525002571703,-1.4049798585474131,1.199257083905732,1.6224130740526044,1.092231680855762,-0.765344819801951,0.10708194814865354,-1.4089257406370044,2.3637323979903386,-0.31689592207464806,-1.8522332630575815,2.2726652619149617,0.7203111886866115
53,-0.6842763101557979,3.862086809339443,-2.5496430506164787,1.2979482310207,2.2675103798523892,-0.04064742899332874,-1.4664415545882943,-0.06197660615136626,-0.2417588487308641,3.1734591958287575,0.30351046507262275,-2.0884503915638115,3.1116578661074614,-0.058281491838248795
54,-1.5774972909721456,4.027107904452324,-3.0232314778382077,1.072200506023831,2.2988269206768246,-1.1523106782356427,-1.6833489040834193,-0.23839609259557676,1.1303726701673316,3.4701540038968526,1.1147281673619065,-1.6335821889203808,3.389829354082927,-0.5742733064481339
55,-1.9814037835549707,3.2283916822168397,-2.593696293273361,0.6035486979696809,1.723384752778011,-1.9785108956233364,-1.3212883951601102,-0.3886750500309168,2.3772641716205336,3.2961661778602465,2.0449531327893933,-0.5343813619360853,3.129874788359978,-0.5476144674981508
56,-1.6658524305998077,1.7374783715481488,-1.3021357665597333,0.03803451836963902,0.7229814848711021,-2.326121905947484,-0.4836201345427719,-0.47801602756957035,3.1711866287873485,2.721771462699497,2.896701749158544,0.9396507219354361,2.4218664985041647,0.06955028604664241
57,-0.6506303288749982,-0.027412510357354317,0.5202470661967917,-0.4621727249674692,-0.40692614478242217,-2.118400468055049,0.5560350477041308,-0.48034194693616244,3.27222591933558,1.8071322299155224,3.372823255917929,2.3497529552772596,1.3742456833089955,1.044817746514438
58,0.7717014529043701,-1.6329100242935195,2.334600257377537,-0.7704876174284645,-1.3509149607551896,-1.4119755020507092,1.4435093519185627,-0.387363418116042,2.596917802217848,0.600273697128915,3.164688818855486,3.209363753394552,0.09026497943969457,1.9316591111765955
59,2.1151833470783714,-2.7471103484806343,3.5560033148613535,-0.8332918420227843,-1.868364885150456,-0.38237556872878964,1.8651751034711488,-0.21325751129943044,1.2512614112719886,-0.830338991430298,2.078841289308222,3.1415266290655226,-1.3216816670392868,2.2340790226385714
60,2.8613539868127322,-3.2068514887156683,3.744161099651241,-0.6805640253006972,-1.8589602465784154,0.7182249545707645,1.6579538443722985,0.007132206255806251,-0.4831317107531719,-2.3500786555345576,0.15572496685310394,2.021984285095363,-2.7162707710484644,1.6122353353125478
61,2.6486379754186857,-3.0227363716044744,2.7595903022764503,-0.40698294594719214,-1.3799494018962357,1.6214528625949336,0.8691614708211104,0.22644980732904635,-2.2095885429165496,-3.7307671740098787,-2.272160827978364,0.05572482582202074,-3.885002232043771,0.049755587245697806
62,1.4224915097587982,-2.3326319608411428,0.8298784477177271,-0.1313423236169147,-0.6133802420497871,2.1077205329729023,-0.25538100524683355,0.39698319472535604,-3.5108732658167883,-4.667954239710296,-4.620224053165787,-2.2481859061355953,-4.563401390135189,-2.087935486991476
63,-0.5120396794972464,-1.331081539426391,-1.501376598175859,0.05014261890125406,0.20173607957080425,2.0606158735065248,-1.3512842322009027,0.4830808886968631,-4.054528503440731,-4.850427253817837,-6.194383588624255,-4.206789572764175,-4.485576128657365,-4.137790906713922
64,-2.5623389658601043,-0.20612013082950406,-3.5316560871302083,0.09901925666801929,0.8469344948656753,1.497232849996715,-2.056102602368128,0.4700344533406964,-3.6812041447371313,-4.064855744314142,-6.401274307939597,-5.165375876484266,-3.4767403514891324,-5.34675155681651
65,-4.028752348410942,0.8940559680962026,-4.615222956821461,0.045125929599046356,1.1852150963376267,0.5658727850232458,-2.129196848924757,0.3668749917165065,-2.4511051211476858,-2.298625588403119,-4.96004628919001,-4.710510503885154,-1.5519113568970964,-5.135475339320714
66,-4.337814709307241,1.8594885524640423,-4.369021357668821,-0.031263176952099535,1.1874868002758059,-0.48996967748761105,-1.5306911169909276,0.20255330369129318,-0.6342866622224635,0.20205603205279013,-2.0404271636407487,-2.8239880062011653,1.0221255065144312,-3.325594228994346
67,-3.2502932964194136,2.5946633983458596,-2.8019228432784447,-0.038455775684156784,0.9205898789070555,-1.3937976752389754,-0.4341077646661441,0.01702344561889604,1.353990298494359,2.9502996767273397,1.7303807101007003,0.07754600827882986,3.7381721789311952,-0.24590089401446466
68,-0.9704574167319794,2.9957059829926136,-0.3242872952968625,0.08209705914876213,0.5069430517803786,-1.9092850786392042,0.8298398341722004,-0.14984279526131375,3.0559103961000886,5.319219219946328,5.408757251812097,3.237997634319131,5.946958534024711,3.327904271333905
69,1.886820597127535,2.95030562768302,2.3670466289740864,0.32390140632465364,0.07470801183429002,-1.9048893421748923,1.8781659736842926,-0.26818988309263997,4.083900277253849,6.701675129798197,7.990441405458497,5.769520123283403,7.024347188267847,6.388432027622583
70,4.4680130924228525,2.3694437010587652,4.493476728710631,0.6099811544417326,-0.281863088969095,-1.3911936167018073,2.394315264964616,-0.3242624866403852,4.213161836440492,6.68246964463628,8.70598763376405,6.912038640420485,6.5604759724257375,8.001038762699906
71,5.941580527703013,1.2417545788657385,5.425927933437,0.8177354234833865,-0.5191676820606634,-0.5188536597165888,2.2230945166034743,-0.3212738693514021,3.4301710923101525,5.168845720710423,7.262745237456544,6.265148726831105,4.5095537421324075,7.599369376403755
72,5.765253089098695,-0.3141923498660822,4.871799035218448,0.8260440977570396,-0.6366063233610116,0.4639157536169877,1.4137202618000513,-0.2752856813553566,1.9268547346575207,2.4362750667695905,3.953281595012052,3.9195300184307387,1.2457273081625633,5.174982532869148
73,3.8729216966736844,-2.02973842652681,2.961340663776688,0.5672792502330875,-0.653697593952166,1.2829497481917311,0.20038270836087663,-0.20774492207996068,0.04583888336274105,-0.9275094866880936,-0.40904116223016623,0.4453621579708139,-2.502770637052411,1.2981460512784162
74,0.7180593124296814,-3.5198212595475744,0.2090641920893817,0.06387184269948724,-0.5866444240876932,1.7177630032788913,-1.070821429017783,-0.13724184554613922,-1.8051359612226328,-4.1656414733642295,-4.7115673933616895,-3.2605782247615074,-5.830562870070677,-3.0379903617969433
75,-2.844196489726064,-4.3724637617371895,-2.6358783083467694,-0.5662243819549992,-0.43740695804672464,1.6647635913730932,-2.0444252524333915,-0.07326011884199095,-3.245563990027029,-6.541396891911929,-7.854492534298848,-6.223901412428249,-7.895525328535791,-6.700646401817533
76,-5.80259052484569,-4.272253309168083,-4.803722491375432,-1.1399156488437518,-0.2006111033380704,1.1642498029877555,-2.4564360167174164,-0.014101227776497867,-3.998973430207492,-7.520010262736685,-9.058190748406055,-7.663547606227114,-8.152361162791784,-8.73929585698117
77,-7.288275368039794,-3.1178894046279493,-5.7186513700677555,-1.4666929110511924,0.1164560422283874,0.38285131925051963,-2.2048922258710943,0.05014353828754952,-3.9395436356973255,-6.893999630849278,-8.072596235469494,-7.205233603718028,-6.508893177036299,-8.647827854089577
78,-6.834685638462919,-1.0895393621986638,-5.152577356713436,-1.4144934239144187,0.47321286851288225,-0.4423698644030348,-1.3720184545957221,0.13044121131207334,-3.1039402513592087,-4.822001458947079,-5.228017219693259,-4.977088947366366,-3.357250879471066,-6.490949653299058
79,-4.519347229997303,1.3657429237824925,-3.2772436213909018,-0.9604088036964992,0.788632699373877,-1.0793191647082745,-0.19455724312980993,0.23003347315450046,-1.6724402088019037,-1.7772471897700468,-1.3179665227344044,-1.563826973506577,0.529905485255672,-2.8640232847758758
80,-0.945205165817664,3.636335110471261,-0.6047437431765486,-0.20720766749540062,0.9563513435091338,-1.37072086512333,1.0066727417465142,0.33758640022564795,0.07165997884319335,1.5738879761234585,2.6430274347701004,2.1621499022092783,4.207219799143204,1.2924037341868964
81,2.9314470704325237,5.111380406328921,2.161608816345391,0.6420370097239421,0.8805579721650985,-1.2758416387642972,1.9165726992238779,0.4256804263448598,1.794537515719382,4.527498891123152,5.707404047084434,5.279932202474263,6.807215924849487,4.960351707957565
82,6.073198931213138,5.360369415515039,4.3205823186762435,1.3444113698391424,0.5204001757811781,-0.8717861815660805,2.3096023288510783,0.45653490572785677,3.1682467843210262,6.492826071641359,7.240102752422395,7.059907752614292,7.76153140072364,7.312309881518409
83,7.6520665105941434,4.269774193245793,5.355705658843277,1.6933311254337797,-0.0758734422873428,-0.3164093668074106,2.1054257903295865,0.3943136574136119,3.925237665320629,7.106118893189763,7.053038413634534,7.138896025195608,6.932174507258951,7.904565945557853
84,7.273603960285136,2.090528905286878,5.058949179356262,1.5849652301567168,-0.7647365107172382,0.21193398405428301,1.3828911097644738,0.22056770204809883,3.9059536903265895,6.289141802248885,5.399940873169931,5.588036364577287,4.621202748853531,6.750246230421209
85,5.072513579220988,-0.622534145901168,3.5662646974899244,1.0522449460252148,-1.3379162387896013,0.575293549445617,0.3507375213504507,-0.05261841120035959,3.093439100365504,4.24806958751966,2.848807640057728,2.8638150999219505,1.4639426346130595,4.265757445625275
86,1.65788077329164,-3.1635769073707016,1.3016825141171202,0.254625259582002,-1.5844962096956126,0.7162247146477778,-0.7148038105982053,-0.377471064855574,1.6273264912941483,1.4199789040971207,0.0853240869359277,-0.33457535869535554,-1.7563757440930154,1.121002622059386
87,-2.069208070039155,-4.875165939820255,-1.1485066267617534,-0.5731025291437959,-1.3658793037240884,0.6643615401484682,-1.5467742173695695,-0.6771585100559477,-0.21031230745247426,-1.6187380797705522,-2.2841331524430446,-3.2551479502067378,-4.31552464792706,-1.953068294179465
88,-5.1675898493972285,-5.3331689847503245,-3.1929935217307968,-1.1956037411688052,-0.677130930780142,0.5097339909458218,-1.956764074143308,-0.864283852489752,-2.041151669175182,-4.264454372020974,-3.87012281129534,-5.276111121658593,-5.718804124334405,-4.341697704424728
89,-6.903453677310521,-4.4609526041468195,-4.380686803226081,-1.450139521037769,0.33012663299608025,0.35549960637016026,-1.8780136951658162,-0.8668990996593606,-3.4653089736594525,-6.000463665646593,-4.546318144351694,-6.036054688492473,-5.793390798176545,-5.663976634384451
90,-6.925997285625665,-2.539795217146448,-4.497939259662439,-1.2937976680938763,1.3768206129415879,0.27002778484067885,-1.372106560811603,-0.6541830498594435,-4.151562374589635,-6.495150305899917,-4.40742728554882,-5.485603005418379,-4.687385149626365,-5.811344845808922
91,-5.329612401865086,-0.11567734352659445,-3.5981963952687344,-0.8099829393585822,2.133629766969622,0.2578385379064713,-0.6001716908648224,-0.2527972894212975,-3.9219944577586676,-5.667441681830275,-3.671783691026262,-3.8593517427427524,-2.7884741076399333,-4.914041169001236
92,-2.5959702337426744,2.165360558072248,-1.9642495035936793,-0.1736394382908121,2.324706731059768,0.26102985010008695,0.23010628105671954,0.2530463901634284,-2.8069810345202852,-3.705957614511543,-2.575671325982487,-1.5879057984750768,-0.5958337802883291,-3.262212336849198
93,0.557312858967454,3.7407713450879307,-0.020341860517177703,0.41129672972066783,1.824850570707208,0.1905170788616742,0.9240008822481854,0.7399618288760305,-1.0510496082082914,-1.0344684543349554,-1.301344799148982,0.8184448490621008,1.413154580044642,-1.2154319366753117
94,3.3726068553500164,4.278773508888454,1.7785797951467368,0.779839355550318,0.7162732703005106,-0.025730663933821934,1.3476976510612149,1.0782105250917897,0.9377976171947489,1.7739938391294474,0.03990660301072717,2.882325572966064,2.8853212150877816,0.8715174153692566
95,5.2378726982768375,3.7488456558176417,3.0516943475574703,0.8560702309806483,-0.7179575604047209,-0.39764901031754196,1.4520448538468662,1.1695941831808723,2.686256559075026,4.119972418769485,1.3751224387389023,4.244595445295013,3.642498038042479,2.6931999766667385
96,5.816477769717616,2.401077604022629,3.56829008163833,0.6694000811781976,-2.067048856704701,-0.8511231049470798,1.2685898582449422,0.9784739828836869,3.776760051002494,5.511679722290914,2.614881855891128,4.711659677178221,3.6786960924668333,4.010979351195673
97,5.0959511171687275,0.6684823508490452,3.282151736965435,0.33338041512796035,-2.9132079206565904,-1.2408808171119778,0.8837985332196647,0.5453930611414685,3.957608105946296,5.678243817531186,3.612300313310988,4.265912099043867,3.117482775045063,4.656654241969628
98,3.354273920267956,-0.9718661292385423,2.322678411295273,-0.0033118359431507853,-2.963632227776553,-1.396799503445426,0.4037055288667807,-0.02202363767284642,3.209575085477832,4.631971565630173,4.164004697770365,3.0476446960578953,2.151742033020302,4.537276637420751
99,1.0629518765025465,-2.1341058545665486,0.9503101085894997,-0.21471920434327807,-2.1511917407326973,-1.188707878661466,-0.0774643970314139,-0.5788724235792987,1.7483344963591188,2.660981980752608,4.061030460895044,1.318393348425425,0.9876418730522528,3.6492558198354703
100,-1.2412918316325556,-2.6160761171964664,-0.5102425426047901,-0.2429054644772061,-0.6689527614465174,-0.5861197685436241,-0.49492253656632995,-0.9844828699038467,-0.03860340416725606,0.25223625566602587,3.1734804462551205,-0.5865550494737866,-0.19267236228815846,2.0984649983839883
101,-3.081692877321374,-2.426831444470359,-1.7431926429193567,-0.11463908329917519,1.0763949487037656,0.3108960475412967,-0.8143342641661264,-1.1425469672248585,-1.7013446294938501,-2.034691896081666,1.5348122103868738,-2.311869368010043,-1.2456252506279661,0.11309762809892532
102,-4.135202432634278,-1.7491137396205914,-2.5063827628535083,0.07565769774254463,2.5811268842066335,1.2847248666866227,-1.0205380562902138,-1.0271054496594547,-2.8500052525758055,-3.7077570235252124,-0.6128071020722458,-3.5387715472235737,-2.063473084444832,-1.9673850354146813
103,-4.278584896369681,-0.8566328262454002,-2.6757619947104776,0.20917169005521483,3.3964317226453145,2.057067665196104,-1.102875051093762,-0.6863765994691766,-3.253396524294545,-4.457094895018399,-2.8394360110836194,-4.039726826843157,-2.565163401475572,-3.738468725208944
104,-3.584559393299725,-0.017715657075093257,-2.2625604686182528,0.19490611121888926,3.2680744146763403,2.3735744127531344,-1.0464383065278624,-0.22393580934839416,-2.8863429912230427,-4.213541457370765,-4.6189988271653855,-3.723252655188221,-2.691696356508108,-4.810565042363948
105,-2.2777852839812742,0.5825662128784167,-1.4015253143381958,0.010272394299864547,2.218580480777173,2.088993796206343,-0.8348230565902083,0.23563137734941408,-1.9156876485380163,-3.138966134193551,-5.469675528800384,-2.658431126478856,-2.4121862476426275,-4.906241055088151
106,-0.6680009937761784,0.8795289068296802,-0.31408012549548153,-0.2860736148469712,0.5443445022368146,1.2236366184843888,-0.4637815109235904,0.5845169644812802,-0.6349105218919366,-1.5580569087430973,-5.1009419884663,-1.0694663362830212,-1.739598384441791,-3.9468011831378726
107,0.9206885693549206,0.9192092989968921,0.7449676545274257,-0.5747021781518378,-1.2727129683242577,-0.029682738124764213,0.04083018572162052,0.76028630151422,0.6277111110064733,0.14186243759145145,-3.51878975470187,0.7042422048785358,-0.7483856236417162,-2.097892692887647
108,2.2090022703428245,0.812498930570812,1.5453647187689252,-0.7218544470204252,-2.711472739192435,-1.3530772461844256,0.6107133484103134,0.7566349147555784,1.5971347831993574,1.6099509692869747,-1.0508833650351719,2.2783308864161285,0.41723078950902376,0.24750072467374643
109,3.001634257380756,0.6750600429396821,1.9313002480426795,-0.634215532636067,-3.3694284048694234,-2.392176855007336,1.1373071795963248,0.6145923739328724,2.110731573987659,2.6023112129827353,1.722645517129108,3.310142774422315,1.5541546722331616,2.552411188374708
110,3.2050786974568894,0.5775132396751271,1.8523146273213895,-0.30067019790596605,-3.08181100486634,-2.8588326430901287,1.4922441801154283,0.39964853106351883,2.136361238087857,3.010258301850168,4.117133620939362,3.5808233685087023,2.434129571276697,4.267786973480923
111,2.8279108211989072,0.5237685546855686,1.368549991109336,0.19580625919023492,-1.9648514284651388,-2.616039179442993,1.5623531022753594,0.17496864396323106,1.7521152717964112,2.8492675444467093,5.528495247809073,3.0503387182153006,2.855095129385768,4.977435078938278
112,1.9690084440670785,0.46269455566535245,0.6296362558398112,0.7018816605535083,-0.3712040088140062,-1.7188209759645992,1.288596273440437,-0.01866549960212738,1.1022169815229292,2.223686790376446,5.600866879299173,1.8685206301089725,2.69682457803703,4.513302852960021
113,0.7979860492700128,0.32471873707713084,-0.1671024172707619,1.0455185445165527,1.225712681459914,-0.39886352530120217,0.6949273831809535,-0.16930502102698955,0.34825306826685415,1.2861967425330176,4.326431816067081,0.3368963253602286,1.9632484028062365,3.0050476640187815
114,-0.47029839994009726,0.06562333964278244,-0.8282203991076779,1.0971305072903905,2.379230970827873,1.001723214331062,-0.10517792181686937,-0.28607457997631697,-0.36815818688812907,0.20633864009896186,2.0473742102674795,-1.1696498318637587,0.7956155614888883,0.8468515566115074
115,-1.6068915991772958,-0.30196756072034164,-1.212040476718488,0.8179430283899584,2.80082115723097,2.126729447011544,-0.9300812821380444,-0.38274447359485375,-0.943635484208697,-0.8473424724219848,-0.6404135710137078,-2.300060383397408,-0.5516863420413409,-1.4102160637535446
116,-2.404722621268386,-0.7028923538354124,-1.260383989261837,0.27764637452374896,2.4348508173249686,2.703113101514553,-1.575366986255174,-0.461622146694024,-1.3142342592688403,-1.7164936834989402,-3.0527908469808955,-2.8157732730185643,-1.769467469101713,-3.208777529980747
117,-2.7159267799084565,-1.0219821776798543,-1.0061511187817007,-0.36556502885024006,1.45676872819975,2.61103976466475,-1.8705860466145705,-0.5061278799724952,-1.4480813353228328,-2.2629391799015095,-4.602949949389709,-2.6459368559519914,-2.5717022256694064,-4.133974062091444
118,-2.4836681486678334,-1.1457398885418515,-0.5556579186972936,-0.9159505990993498,0.20078733782943267,1.9080335275499478,-1.729825915315178,-0.48607113254490486,-1.3389466272886594,-2.3864739090557188,-4.953549835519988,-1.8945075343196622,-2.7712339545331086,-4.017114026822657
119,-1.7596447394555064,-1.006629199888127,-0.0520041034945109,-1.204507276956846,-0.9545314657129275,0.803141919589628,-1.1796323380466691,-0.3734939823662463,-1.0061031764010024,-2.049838836494207,-4.093612750413229,-0.7993835980585838,-2.330735754941576,-2.9658159583111154
120,-0.6996229761688445,-0.6127055119341855,0.36870355048755044,-1.1443046244962103,-1.7030963437225097,-0.408195976470466,-0.3546356140334267,-0.16169914745316924,-0.49925763522599015,-1.3017813709623545,-2.3221837832970853,0.3418185065361936,-1.3731847537835407,-1.3158782157431428
121,0.4659291750391582,-0.05120956312300753,0.6146198327444302,-0.7579898442764319,-1.8935839265480552,-1.42741028325365,0.5384788754239334,0.12192756898099784,0.09797907709286711,-0.2846945040582702,-0.14869979343621217,1.25544977474067,-0.14815420078698796,0.47598785933435317
122,1.4819584463330846,0.5353815916482756,0.6579384717158876,-0.16857529118594378,-1.5549945556575038,-2.0296642662956557,1.2778645930500967,0.41649379600874814,0.6738141381676291,0.7840488094098199,1.8566203853106515,1.7599116796548189,1.036369528519247,1.963046937512293
123,2.1285038163347285,0.9923999928865422,0.5325503021843055,0.44250982192261906,-0.8638631544209711,-2.113923409303597,1.6869902226559046,0.6432262709873598,1.1072924506606416,1.6587247667024343,3.2170664896884857,1.8000630988235042,1.8966288242226517,2.8235514605904526
124,2.2744274198405185,1.2002455531332283,0.3127387227500798,0.8950141063860546,-0.07053460502922362,-1.7154625002310175,1.6807145569986823,0.7312440006993334,1.2979571728156334,2.129439630819716,3.665313997381691,1.4421638756220236,2.2462844982758456,2.929090032234921
125,1.9099618998441508,1.1100760660510787,0.08236735582577069,1.0665276585133128,0.5869090806440384,-0.9817015826476209,1.2840567030617713,0.6438324854207326,1.196913864842468,2.0839723613941676,3.1923896881928275,0.8365091270500289,2.0398151335054044,2.3528331467240498
126,1.1480314315918212,0.7566939013386389,-0.09355722093914028,0.9275011473798613,0.9520618390204714,-0.12224423227601652,0.6196114955599732,0.39470934223611376,0.8270456199505272,1.5451546915808323,2.022751286263126,0.16391657182563013,1.3753736490353736,1.3235665696202927
127,0.19304161343384094,0.24543587403810008,-0.18530606751004491,0.5441785638470862,0.983213510748602,0.6504213749583366,-0.13094096880223235,0.04723939156107287,0.28253594104109503,0.6683790348666289,0.5299022800333343,-0.41543525173877416,0.4586361108363302,0.14613013200481761
