,AF3,F7,F3,FC5,T7,P7,O1,O2,P8,T8,FC6,F4,F8,AF4
0,-0.21151282209410022,-0.25236106507364625,-0.3135013674261076,-0.02981573575865072,0.07376311165284427,0.29909026172720404,0.03130907395924324,-0.08712945642753098,0.6235744096372383,0.750480297935816,0.5902880673273684,-0.03815596212950631,0.7364562184873159,0.21786150715248268
1,3.02336251773474,2.4920967096558453,1.8998307469184383,-0.4704958659303806,0.5093237768809271,1.478301046897991,3.1631615120465955,3.215128353681902,5.705763055958246,6.666951334935918,4.794328459949484,4.5426161786355275,4.040172278004964,3.803491165964173
2,5.518494193349301,4.601793644770679,3.5529609093873753,-0.7180538125701919,0.8552915086558484,2.2974298380949016,5.337827433441616,5.558115164168044,9.296029634027496,11.024308805792462,7.815002625568972,7.768548539530988,6.342590446025825,6.414064265859592
3,6.6997061786801835,5.57464808010368,4.2500182633620245,-0.6424362898023646,1.0591982740601067,2.5314344823672372,5.914274476103172,6.257412022635644,10.430855634225368,12.803671600617529,8.91263251181477,8.736612521098033,7.092441769959828,7.413343895244977
4,6.34984994816005,5.220033603852579,3.903803316458378,-0.22556998028552963,1.0877211596818357,2.1096819372871525,4.761431740187924,5.141273244648555,8.85104756339486,11.641751785930667,7.870355294741901,7.2630831400427684,6.164875138067432,6.638314144594701
5,4.651084936998153,3.6963574141465774,2.742048060308122,0.42600956084239494,0.9304670759845142,1.1366323385535255,2.289962872771177,2.5967639161569607,5.06123966855741,7.902705303573782,5.0351961640268845,3.923875948298087,3.8763584183679454,4.424053488152214
6,2.1097042273033315,1.4473105974212395,1.2041598190425726,1.1086185960233501,0.6029545675317451,-0.13679670650929976,-0.6944782303419387,-0.5638689380196852,0.15734909527955732,2.5538318811265204,1.1949719496192663,-0.15902129213213487,0.8692642517122348,1.4685907803432965
7,-0.6071327575502703,-0.9374218370268053,-0.22876090260800117,1.5824729519860945,0.1485550119228458,-1.3824153197872042,-3.263779668474667,-3.370171032042915,-4.516494892413148,-3.1101973675465024,-2.6633993859771574,-3.706770336184341,-2.090104606533555,-1.4092391078976945
8,-2.8668980429356674,-2.889682185478279,-1.2041123219489354,1.648985982689845,-0.3621253160272549,-2.283813256548947,-4.67104287835935,-5.003934439070685,-7.767152305429227,-7.8085792970563395,-5.6335568891367345,-5.710335414811277,-4.330532260064423,-3.530285228033906
9,-4.237119184240694,-4.007134439063226,-1.6042748102068263,1.2205881055840944,-0.8368984516308637,-2.6194296995126147,-4.58245394221223,-5.05076331040606,-8.880548954905729,-10.582663068919157,-7.12038598380294,-5.746465236533023,-5.442196918221172,-4.543089995041505
10,-4.573083494111937,-4.135773730603717,-1.5527687231881646,0.35989207758725383,-1.1749040024821826,-2.3167370087228445,-3.161981822294585,-3.6124631221074663,-7.781478540767675,-10.991348012679515,-6.957703467738433,-4.077803321368304,-5.344499915830608,-4.479791381020001
11,-4.009505785101841,-3.3756661021498036,-1.3241572853319286,-0.7268571211059774,-1.2870218842778016,-1.464294396820999,-0.9863923977386105,-1.248327078592905,-4.988847479989546,-9.154643759194204,-5.39107876131746,-1.5111163860578551,-4.247611237438053,-3.672166132784734
12,-2.8707041775703592,-2.0197851594863483,-1.1994955226070332,-1.7432750163448203,-1.1206411623900847,-0.2812717824911773,1.1730484494347955,1.2290095084302861,-1.3991716251838135,-5.654603439009738,-2.949250690456252,0.926161667058582,-2.5369681991478146,-2.5723760588979605
13,-1.5387117949202604,-0.4534480405706747,-1.3291456392307925,-2.3890373887351126,-0.682042065856423,0.9441815387291984,2.621697394693435,3.0303116753218013,2.0158942249807157,-1.3418414355542134,-0.26004098776333706,2.3687004125490208,-0.6324675844425885,-1.5558723367618463
14,-0.3279419530139443,0.9521914561138554,-1.6597682885120517,-2.452674127882861,-0.04766087219695781,1.9290519900112575,2.9704442578783787,3.6449741379273597,4.492587576269716,2.8857681287490746,2.1237565711176662,2.4163353045700315,1.1250454900241338,-0.7855694929784134
15,0.5930501427730122,1.9243021534842448,-1.9550013397481685,-1.8810763487566524,0.6432721712332734,2.4621022959751473,2.2461758503806677,2.99142000647811,5.651196513220989,6.270795315731475,3.8370854741900917,1.2517722006048473,2.5263919741324043,-0.1873709857131027
16,1.2130699249628896,2.333908996224644,-1.9010510239210459,-0.802147421181431,1.2173389055493902,2.447292476313417,0.8517566264374108,1.4174418410284435,5.524061272454718,8.312084337888072,4.7323464479125095,-0.4627227919161561,3.4817336411788022,0.46031609611042423
17,1.6288683064601683,2.1999101861728274,-1.2542625237312046,0.508220192132867,1.5120241023260825,1.9159514677569085,-0.6032382985474436,-0.44302388815324956,4.449714497207629,8.8005129420456,4.837472118494713,-1.8645922042853385,3.9667263882373667,1.3673895765882758
18,1.9616417372904034,1.659129294515524,0.029260203800198607,1.7053671388340208,1.4252810393108064,1.0083116261267484,-1.536085723231343,-1.9025452142909758,2.891834605807808,7.791799381935031,4.277315611749053,-2.2386315789509728,3.965103978564963,2.5757493684716035
19,2.2761104007631863,0.915515507571546,1.7356222286108032,2.4764035407402845,0.9535215278750921,-0.06769766980599237,-1.6041419666581846,-2.460235450160139,1.260011775802648,5.546053847245134,3.1999725373308516,-1.3028496414073791,3.442309599535871,3.8773224609474495
20,2.5349693033999237,0.18266867729491854,3.4335306317686527,2.630163565666027,0.2034082153283481,-1.0880584437429923,-0.8231693007132995,-1.9676172036604438,-0.20246668470667722,2.461834806663161,1.7388453045760093,0.6730067329888987,2.366086946380451,4.848042041264215
21,2.606144987747923,-0.36789711608845305,4.602960023630039,2.1485402922798738,-0.6299750809252856,-1.8613296280938976,0.4484871478934437,-0.6664580006582118,-1.4331796881921905,-0.9798219688872553,0.01914394157099232,2.9595397220313497,0.7644223234110098,4.9925317096324715
22,2.319349487844574,-0.6432505639535089,4.808554681465984,1.1843896438870496,-1.3150798887611688,-2.2633049226333353,1.6512730299833918,0.9103469973125501,-2.479180661154656,-4.2610061353717406,-1.805921316951148,4.636420077259034,-1.210067648800559,3.948350050002791
23,1.5494366833173177,-0.6440277292618138,3.8566739640673586,0.008962606592137237,-1.6516204387891724,-2.251415431943458,2.2388808533412496,2.137059108862296,-3.3849073587753473,-6.872103758457526,-3.519023503794471,4.939280875427379,-3.2480820557171626,1.6713799578182986
24,0.2936511613818501,-0.455256725324729,1.8795881479475263,-1.072129311137332,-1.533015971994577,-1.858734232323818,1.8882532652223876,2.5218986685168208,-4.0975673382729765,-8.367607328063713,-4.833217489268364,3.557673984317849,-4.913302753388106,-1.4739999433511721
25,-1.288503046584185,-0.21482075091889152,-0.684654547875204,-1.8064847740504093,-0.982766798967701,-1.1732083410861416,0.629648345184072,1.8834219666401337,-4.437097796967713,-8.435676222619344,-5.4341661781432435,0.7743153419048641,-5.739555934091296,-4.765113870135375
26,-2.891148894336209,-0.06657508270856645,-3.211887973165903,-2.0589209582034558,-0.15158540381779748,-0.3114261026177008,-1.150441279672145,0.4161516446338413,-4.148388850410738,-6.971743559669841,-5.065236683880502,-2.6071945481862926,-5.372295962753121,-7.307279872041557
27,-4.1325850998332765,-0.11008417666153275,-5.071833880907093,-1.8345028897814235,0.7253287129229714,0.6035622242894532,-2.8360156693685075,-1.3760229412136595,-3.017669760586977,-4.135143524701054,-3.629027161822895,-5.523040262108257,-3.708396029320785,-8.301965704424983
28,-4.6602339128986845,-0.3617764013235216,-5.809123666007685,-1.2578119333870839,1.3982259424852912,1.4544327766019305,-3.7947608805783175,-2.854559787753313,-1.0064202373362925,-0.36369462675294484,-1.2664942023514159,-7.007609256269037,-0.9811327933209887,-7.3101731877270275
29,-4.257466519412597,-0.7411866498134749,-5.267051942872645,-0.519966137565551,1.6779991813751753,2.131930952178915,-3.6037736061129517,-3.4682314041169033,1.6546041732913626,3.672632193887157,1.6229412173938886,-6.524192492713632,2.249995628965436,-4.421503945703829
30,-2.918496784661167,-1.0900554906205473,-3.6171119330747095,0.1859020102126684,1.4926141927095957,2.533427231694934,-2.2088489125642896,-2.94600872666956,4.4577112755111035,7.182440089379885,4.440121307799372,-4.1526142585749195,5.215612729725489,-0.26752321035112264
31,-0.867355804949935,-1.2222705568265648,-1.2906662662098731,0.7185836470369316,0.9067495869017219,2.5665253889267943,0.039153301990669055,-1.395276545889917,6.714565063898129,9.411608109097815,6.517576573666396,-0.5693771397591203,7.133698914653519,4.1320938520211365
32,1.4857753921475616,-0.9916394876862317,1.1580934286055786,1.0162091480977926,0.09867931147489305,2.1644216288699623,2.485240474170037,0.7273540652335585,7.737143183424729,9.815832903514703,7.2914343690327295,3.1711072565678506,7.43214820453062,7.647539995344242
33,3.6388604228213404,-0.3560635985756304,3.2082892235880553,1.0922537647412534,-0.697514979110903,1.3130580594330565,4.3759000011169045,2.762033923743961,7.051892899924846,8.203652335812066,6.4647239587496985,5.9770018414981925,5.928037189354528,9.35707832365407
34,5.116765746052465,0.5855278705472358,4.496645161759239,1.0069353859707098,-1.2650323892503645,0.0816334986612763,5.101182923239633,4.0589660691578615,4.579257511437512,4.809590118697127,4.111639852460161,7.06405237811287,2.9046969774883915,8.808244983955941
35,5.582846613362413,1.6011489155932943,4.8760023756744015,0.8289833179135732,-1.4686741555772416,-1.35825414774421,4.392989675309669,4.188069944944857,0.7161265435598533,0.2721744101090973,0.6875186102904791,6.189992319251919,-0.9423921326826002,6.143180876863432
36,4.915803859158358,2.382941985140364,4.401843713116943,0.604740090285339,-1.2897707328099695,-2.7400275904325913,2.41456370527945,3.0768318459324515,-3.715167887520759,-4.485070423179048,-3.063653634227645,3.7052557321839856,-4.679416070610398,2.0526773877553626
37,3.235503338309897,2.64087228034724,3.2674239402096097,0.34693537494872434,-0.8214620495034353,-3.7445240873078096,-0.2869232772855757,1.0333364730150212,-7.64856582855456,-8.446445657972186,-6.282228838016936,0.4125147131783827,-7.378846743947489,-2.4228543290623694
38,0.8754270676690008,2.2052195970940645,1.723347179769871,0.04615039062161459,-0.22784535331023326,-4.073502048459812,-2.947429946538644,-1.3501758268574555,-10.04366728908212,-10.727711998602508,-8.200949344109807,-2.707602895435392,-8.364108088408233,-6.181485012259619
39,-1.6884203320070967,1.1029131807655537,0.01572863461211075,-0.3024206449170662,0.3170497590300462,-3.537089345830239,-4.817261935484608,-3.3796656327311765,-10.170780377320206,-10.778628193882033,-8.333208794379788,-4.806154127141166,-7.384408047326459,-8.349660669514503
40,-3.934868393129543,-0.4229578514934727,-1.6393911776354786,-0.671667139364393,0.6877446971985335,-2.129008691201963,-5.382457490352702,-4.468440035439886,-7.831154602102522,-8.516774664022645,-6.59356201127994,-5.408132722942985,-4.672621590878417,-8.492147516628236
41,-5.401585087680622,-1.9651712623490338,-3.0502167179821718,-0.9905840868793436,0.8420262775958347,-0.06273749851067532,-4.508708155922518,-4.308512786799429,-3.446892315695733,-4.360967370458513,-3.3224145076922467,-4.515928856631383,-0.8753719997633954,-6.6906556412755105
42,-5.777420115669246,-3.067123146544374,-4.0341048813878295,-1.157435575270101,0.8201022662765898,2.2495803718868412,-2.467762992608613,-2.954522314795212,2.0108072259886383,0.8445347782509487,0.7875633958807543,-2.5554689159716055,3.1184058222403155,-3.4827665581240073
43,-4.967741819842257,-3.3679122050241297,-4.419044635046946,-1.0766640267285554,0.7105076041950249,4.27794666038727,0.15539406675033246,-0.799486195293914,7.2429107116401354,5.999952368897086,4.842512078173554,-0.20019303268876176,6.3981603276974335,0.306921109523314
44,-3.1209294444601667,-2.7304247045017895,-4.075943084064281,-0.7061972332002178,0.5985314014941386,5.4994583259684315,2.640320395593469,1.545480441945884,10.940506361520331,9.979463156440172,7.9401423311167285,1.8564727114318218,8.24173293632688,3.786500650083695
45,-0.6085307307955174,-1.3055454192154452,-2.9750234796896016,-0.09436220911819548,0.5203584171230087,5.536898708213216,4.337013084139666,3.428705674660817,12.119714539240196,11.873884356164524,9.363469457653283,3.1024881758064065,8.26540179342802,6.206127790340544
46,2.0420700805614858,0.4966232876817841,-1.240181350158981,0.6133976018933978,0.44415874232377156,4.27338482251362,4.839536938355651,4.3404974711801145,10.387352089711015,11.197222930598612,8.738246978721424,3.324885187658718,6.4873439093329575,7.1096443909318205
47,4.254598720677463,2.1270597583727513,0.8322938714945401,1.207671774791573,0.28824230164751535,1.9087296750072782,4.081373875567277,4.0503347131307486,6.066442644986095,8.013071685232108,6.12509367632051,2.622335580687087,3.302985404905201,6.404403195757143
48,5.53182251424574,3.074759621240052,2.8144845290519696,1.4817257194626285,-0.02984818675561704,-1.0635705309028312,2.3324211868678972,2.6634540631680257,0.14385973043819295,2.9494742747744667,2.0275942220846646,1.327835818534976,-0.6103121787793112,4.348385830807673
49,5.576411730631854,3.0415978532133687,4.247084615946705,1.3096026120667221,-0.5342659496069806,-3.9596262615808175,0.10617683669374574,0.5845793002033743,-5.95420145703963,-2.9100270866603237,-2.690717828673014,-0.11898605658547762,-4.432944831819498,1.4698694598341655
50,4.372848572241611,2.052269393648388,4.771380645060065,0.705324625912253,-1.149659495157858,-6.067548509336031,-1.9912579597426823,-1.5988549465663846,-10.709415766782401,-8.247169938505253,-6.973554494997343,-1.3043403139281473,-7.360741799979093,-1.5575382576865306
51,2.2038333079414993,0.4555879503351416,4.246608228888468,-0.163571649922389,-1.7008996838151127,-6.829686614283306,-3.4264092703816065,-3.2812372199937823,-12.897697529142834,-11.802972833937028,-9.79909762094729,-1.941647055969802,-8.757883307374964,-4.060016919987177
52,-0.4101880106589736,-1.1894071117942493,2.8063194210763234,-1.0195432762653795,-1.9612896105767204,-5.996691708789358,-3.873969205635864,-4.00648546559435,-11.916052770127745,-12.682854310688874,-10.424605522725315,-1.923721514594429,-8.284878708949854,-5.504574327676318
53,-2.838107869978447,-2.306744037133068,0.8274929189097205,-1.5650956996561283,-1.7363064345805064,-3.709335715731871,-3.2895163142050325,-3.5935513994040535,-7.960441162370226,-10.597971492027261,-8.591490049143992,-1.3249110743948491,-5.981349001587696,-5.611836359502679
54,-4.50024358805119,-2.5089500627909054,-1.1812998952667142,-1.5891600904964456,-0.9527701087203713,-0.480854232636106,-1.904253416321495,-2.1850316065739586,-1.9991315769036297,-5.973123137696536,-4.631557183158098,-0.363403671642294,-2.2833424659848784,-4.417461676633983
55,-5.020503780184235,-1.739674359595829,-2.7347768258916694,-1.0504279844533937,0.2829084966981747,2.9212910578783124,-0.1471379615952889,-0.20440129015119773,4.461739982699612,0.12177473499989008,0.5693817340964913,0.6620866628623989,2.040076804527713,-2.2644495629024077
56,-4.32403270115884,-0.29895281992037576,-3.5138124815837624,-0.10426977397663499,1.6856104056440913,5.666806562562438,1.4818502275404637,1.7673942710562256,9.76606817328673,6.215186018753757,5.760516607848518,1.4474811765282325,6.032559806783295,0.27896971833580037
57,-2.650697590032401,1.2615219388620456,-3.445899609504471,0.9405416297742941,2.859489529348575,7.07721057807496,2.5515831522675585,3.1616271992133136,12.54817902477805,10.799993556133957,9.632993567845249,1.7577296683090156,8.758629459152843,2.5624362393591404
58,-0.4800769181063637,2.3376516505613183,-2.6974629879040353,1.723105242777438,3.4159608074614614,6.80479775008947,2.8144624754164855,3.5885122624192096,12.104350480490762,12.728207730774118,11.168612712500149,1.487667673821222,9.531226907482512,4.024159263380265
59,1.6090719573810135,2.4952061139995094,-1.586641089785583,1.955162219725648,3.104249613522229,4.92518495844366,2.265185773334601,2.950992971302353,8.58836093250938,11.523899023066953,9.93143163135001,0.6958880467963038,8.100234789872456,4.342485851567614
60,3.1017856211152353,1.633705747384059,-0.45505374775185026,1.5249977400236079,1.909426047034913,1.9164945587648468,1.1289580695201693,1.4703889380228976,2.9711310113390454,7.52065021457673,6.210862278213944,-0.40024656500568573,4.744490152460966,3.5219958116343033
61,3.6831316539114396,0.030831520715722906,0.4494581537955134,0.5426502123667818,0.0813090713970999,-1.469250396280929,-0.2153124440517766,-0.38475452290408535,-3.2281528177866776,1.7773645176279917,0.9635388070173989,-1.4738851308756789,0.2303759233116386,1.8844222924085954
62,3.3083705892634345,-1.750516531940461,1.0350314416524886,-0.6908145677317139,-1.920408877957386,-4.405770129521585,-1.3527964767811405,-2.045051258170487,-8.364624318717974,-4.2089219862599165,-4.439175111161896,-2.1761092750984803,-4.363828430199867,-0.03633069869252083
63,2.189941567013027,-3.060295968191952,1.354182362731985,-1.7802365082058853,-3.5515395450529303,-6.206468176191384,-1.9561196695080123,-3.0162660429448906,-11.122779435081362,-8.912851742852432,-8.589642897800049,-2.2415341420481276,-7.917828773758135,-1.6639499173596106
64,0.711087365649551,-3.3938236553997747,1.5315522079682784,-2.366373320063155,-4.341845582123067,-6.493307694415272,-1.8781359976821792,-3.029569808993385,-10.87232160292037,-11.194492633948343,-10.437559102525755,-1.5814824256244422,-9.561632016501367,-2.559961914085798
65,-0.7016556893677514,-2.575241395474566,1.6691688921926213,-2.2445180482252187,-4.037188861293985,-5.276482106951734,-1.187811183798251,-2.118922592440847,-7.822714015666327,-10.59659111015562,-9.580055295606122,-0.3322323846472592,-8.907454924274102,-2.5549133112251914
66,-1.704310199886902,-0.8260653536703721,1.7753436373226648,-1.4318030550646998,-2.680462080327953,-2.928413381900326,-0.14045463379633516,-0.6021008593701704,-2.9350294864275694,-7.440903192965701,-6.360378641336106,1.1642831279618338,-6.1531544948600665,-1.786594663984898
67,-2.121008661734448,1.3057606478167665,1.7512707342575466,-0.16160352615301007,-0.6056180667239811,-0.06648196783735852,0.9067764814117844,1.0268563926474472,2.3774094674233512,-2.7013524450398765,-1.7469779909817393,2.449881398489341,-2.0258479565063983,-0.6332201586798739
68,-1.9670828237794795,3.1311025869238702,1.4427671160010385,1.1914632794981679,1.6535486014515723,2.6168488687143823,1.6073626106616365,2.2576423000154864,6.665866481489137,2.300266795460617,2.966184899869701,3.0880994577017273,2.4184738692074874,0.43375511926091437
69,-1.4099395901293832,4.053743331851425,0.7346583353161087,2.229633840966773,3.5119654505915188,4.527104747616532,1.7318083715280486,2.7239254915692843,8.854448891812023,6.278594185542276,6.5421623579615025,2.8096700001282393,6.081151404453986,1.024127916067479
70,-0.688378152072904,3.7714965048899183,-0.35544550159089117,2.653954064326621,4.494551819243766,5.299259557462142,1.2367112281892865,2.3129729234620515,8.520693070277447,8.33214634319463,8.147316964152864,1.6172440346086339,8.110432006153712,0.9681880882914418
71,-0.022732427553632303,2.3751410296547477,-1.630109888741703,2.35149594306465,4.363180409330563,4.8594156441437235,0.27699692284746774,1.191559431862946,5.9722973963715935,8.154783956490103,7.558105507451147,-0.18991975341077458,8.113007950772385,0.37108019826709937
72,0.4520344222805186,0.31264456827002746,-2.7412317501990353,1.4222835045724929,3.174254641044551,3.4105603584287665,-0.8414364306844548,-0.25707057745347806,2.108169860635328,6.059562556630028,5.173408858481165,-2.0871148035641633,6.2313508868831855,-0.436597464874252
73,0.7095057513950433,-1.76664166394519,-3.294675878320419,0.14072553438442592,1.2535527767979429,1.3563860395349299,-1.7544429653407447,-1.5619342810009766,-1.882927859796926,2.823818101725191,1.8412958725893738,-3.4760299309021936,3.0715607635085798,-1.0333478352576781
74,0.8083996363502652,-3.232004522696248,-2.9974162052139097,-1.1329853954557445,-0.9006440383416201,-0.8099585883049734,-2.15078755507182,-2.3155839975714,-4.887017100029437,-0.5820725256615507,-1.4330941760559672,-3.8736617193991667,-0.48992251760463407,-1.0770161123044797
75,0.8376666542692436,-3.678779583589254,-1.7925102269567021,-2.061561534077219,-2.755467033588197,-2.6217541911111093,-1.8695158891572299,-2.2994477162553477,-6.180318789634196,-3.289622663174234,-3.798663404458722,-3.0786192366223073,-3.5590693955753157,-0.4479179583753104
76,0.8567257634770321,-3.0522481867555418,0.07460115865977962,-2.425213547444293,-3.8821809687789424,-3.7334009948882323,-0.9547535398988793,-1.5450015769826242,-5.6045908022082065,-4.759444475478165,-4.789584072086153,-1.2578673853086062,-5.461165369077816,0.6890255649312393
77,0.8583047902904231,-1.6475288453296897,2.094588351844784,-2.1746147642106473,-4.0580361035004415,-3.9776323611019517,0.3494171125533103,-0.3143529680515783,-3.559783417079554,-4.879420019801049,-4.410922942049377,1.0809079097962364,-5.8958386079812835,1.9287976293856441
78,0.7710411434556467,0.010946109259735607,3.6369687414672063,-1.4294670672808711,-3.3066305020524154,-3.3797956584072772,1.6646343081108688,0.9902308243683257,-0.8299815763618674,-3.919744325137028,-3.065604873872621,3.2304503386105408,-4.972640574990234,2.7651454317934814
79,0.5013752813025454,1.3645148123074233,4.156274285311686,-0.4276572514482264,-1.8711483653661345,-2.1330035588620553,2.5873829166638775,1.9565671642909213,1.691270547663699,-2.378384025953153,-1.3631668957897973,4.499584247313915,-3.1278013313149557,2.7769407995315483
80,-0.003696494718994293,2.0184780728689757,3.3922293788087075,0.5550300684984517,-0.13382364587831164,-0.5442441817512486,2.8106785156536547,2.2903650545399894,3.2836814609361276,-0.7826485678642111,0.11308559988654396,4.436690018786631,-0.9584702359172568,1.7962738469187796
81,-0.7022578626296305,1.8720319814292323,1.4896354669055494,1.2870783560092889,1.4915024054632215,1.0352962045236616,2.2219778382102873,1.901155977157489,3.6025308132657714,0.4804951938401247,0.9965546570416755,2.987568444723303,0.9671614473580074,-0.0036413125130248533
82,-1.4394582400086604,1.1343326686001631,-1.013525972090683,1.6395326403761272,2.6622408935010946,2.2818651421040457,0.9462769988084403,0.9218518912222211,2.743935072676026,1.2515608634123745,1.223883712131808,0.5322098231034853,2.263352137994747,-2.13670593318413
83,-1.9802345608402836,0.22336381510769174,-3.337130919242178,1.6047999388445788,3.1786914411269764,2.960251214805214,-0.681305627282539,-0.3407040437691913,1.164180205722253,1.5854515527700819,0.9985386448906681,-2.217099305408969,2.800900004912655,-3.944650481031797
84,-2.0862498363503916,-0.41215859525218235,-4.70609662141248,1.2749670129311494,3.009851582585894,2.964656347091389,-2.207851330847739,-1.5052502223820625,-0.5081689418046715,1.6596740556441973,0.6587804752976546,-4.428210064521206,2.688994210229801,-4.806816770586131
85,-1.6106583941936632,-0.4787776880660291,-4.612756997908762,0.7925121700592014,2.2737066741209078,2.3333836691176533,-3.1935410001221927,-2.232312223944047,-1.6967680389183706,1.6529691345197817,0.5104099356019713,-5.406164345230941,2.183893800852554,-4.349832405124004
86,-0.5739048091086789,0.04002396767766537,-3.0030260424209425,0.29450223459862723,1.1851666624755017,1.235699718233872,-3.341717858815703,-2.3207711335973147,-2.0615282687041887,1.6496045822739693,0.6928453945625043,-4.812563502531696,1.566042076908558,-2.5857645364845077
87,0.8122676390191349,0.874496466632865,-0.3174453454792783,-0.12876943535943416,-0.008238184329079329,-0.0663701967946194,-2.588082020494563,-1.757300692481143,-1.5849218829514486,1.6081265540787186,1.1287145830407053,-2.7762196593472708,1.0332183990238877,0.07001109435446327
88,2.1879279910231646,1.57687855972424,2.633245887615275,-0.44769470305270226,-1.0832530166707883,-1.2744652241796974,-1.1214534101670441,-0.7081054450506341,-0.541099487925029,1.4022031887636384,1.5707328294019596,0.140647411184278,0.6459869415456876,2.9101011620612875
89,3.1458990183338016,1.7069526020655537,4.920842728612295,-0.6790364643204151,-1.877365206323128,-2.118282107193073,0.6699588916550988,0.5388842406064898,0.6300555604768353,0.9088637966828655,1.7203053810571594,3.109348627459975,0.33855409067257636,5.141248264216276
90,3.3589555432327667,1.0236998794018142,5.797890326596713,-0.854092445885706,-2.301347585957083,-2.415456688466683,2.3095821145558397,1.6591606567080845,1.4912970400050742,0.09944576449544892,1.3654849601366439,5.280987612201622,-0.017446279526733277,6.119711621232103
91,2.690482257951603,-0.3923770149872926,4.941624322378127,-0.986263061512878,-2.332938001132861,-2.1140391790206867,3.366394466686186,2.3768214450640626,1.7567321780390606,-0.9112020565666243,0.48133760228261535,6.034610914217846,-0.527314324040356,5.54146415187093
92,1.2500988589736843,-2.1371753314015782,2.561928446283137,-1.053729326222136,-2.0013533534309214,-1.306775261646356,3.5716751456712235,2.526870331515859,1.3721106230090145,-1.8821195226296885,-0.7461926332546146,5.152186869788182,-1.2024027816115708,3.5290559050611106
93,-0.6259721402991439,-3.607668492733754,-0.6619516351483963,-1.0052096220758069,-1.3720427897942649,-0.21141812345083835,2.885742843250827,2.082591503222889,0.5071537777453158,-2.525180353881764,-1.979740440523748,2.8714703359765923,-1.9322983392493864,0.5918065477681921
94,-2.464659458612971,-4.2120897918140585,-3.7932340970566254,-0.7860339121195747,-0.5369246012039958,0.8811672700651316,1.4987359473607904,1.148270178305702,-0.5265630504075448,-2.6133870860979735,-2.847509883224316,-0.19252175787362819,-2.510473958533994,-2.5233669402912193
95,-3.7876555050259633,-3.5911148634683703,-5.926435696725515,-0.37261303024387477,0.39020733475392333,1.6807208304568348,-0.2301106683244515,-0.07344097318021035,-1.3942776751309973,-2.0734453115105405,-3.071629069407417,-3.22731408155941,-2.7035320322608283,-5.040689584577667
96,-4.2438369184171005,-1.7692417536320384,-6.458700486859293,0.2005188792904638,1.2776737065794335,1.9753722063832053,-1.873107757781143,-1.3269587423917264,-1.8476491165769309,-1.0239647544989878,-2.5604788461570234,-5.447147274171862,-2.3387306367715968,-6.359818946644624
97,-3.7029104964764077,0.8212731229977753,-5.258786524495452,0.8341659874343945,1.9850017208654787,1.6922785340375854,-3.0441796246225685,-2.3514774215933714,-1.7895307572924188,0.2569465727319731,-1.434389324329806,-6.297186364587837,-1.3786778609319497,-6.198714451661277
98,-2.2849605766160543,3.4572703410503287,-2.6862076738124165,1.3834626676076398,2.3805791413331336,0.9223181323247923,-3.488853295289586,-2.924918798190153,-1.2795618829132038,1.4223838225953214,0.01920258091781889,-5.585146901577701,0.04310221963107867,-4.641902786992933
99,-0.32173816371293057,5.3462056527237065,0.5363169855479268,1.6974201335438606,2.366891178621071,-0.10131296638302817,-3.1338518107365516,-2.9017418644047877,-0.48957411608904017,2.170647229182503,1.4395909099502093,-3.5125221394739876,1.6390727525792206,-2.091856925382705
100,1.7341386423763305,5.879238302679257,3.5479307408394294,1.6660290511048708,1.9077259827830988,-1.0677040034352643,-2.0893514154986486,-2.2429308800754693,0.36606636294477335,2.3396922094300097,2.499399939054146,-0.6064797653817238,3.0339456762093944,0.851571353200813
101,3.4229741399087863,4.8313515229336135,5.596672153202439,1.25882430556446,1.0488466732324913,-1.679400362649334,-0.6098819061655509,-1.0343750373688974,1.0961962967489283,1.9485518513203184,2.9880584793520115,2.422093993908588,3.862332222523,3.5432113233012537
102,4.383284340917993,2.441761935445842,6.233247926428158,0.5415688592019126,-0.0763369152313926,-1.7436510384591846,0.9713397735221115,0.5129228969050655,1.5735963846261614,1.1741546898766133,2.8495745879653733,4.8545355464585525,3.870598038007186,5.434711332842701
103,4.424266820797352,-0.6517872420142262,5.400639861873858,-0.33499469019213823,-1.2615215092256555,-1.2350961016065665,2.3167507179390987,2.0878994395332677,1.7442340433586494,0.2769361760176115,2.1714216148831267,6.131586807055508,2.9942585920068123,6.176362289842039
104,3.553750355326968,-3.6027897484195655,3.406319688283258,-1.1713796188552923,-2.262960567295251,-0.3084334567106505,3.1515666729271468,3.3330142612380214,1.6126580052981803,-0.4933411079116239,1.1384262162996772,5.9758101563008035,1.3884453293693262,5.665022577720393
105,1.9628138760279776,-5.607874470405989,0.8008836750348828,-1.770066026400168,-2.8500665880316953,0.7454491303207051,3.312802315556011,3.9214652557968606,1.2190264485966216,-0.9755976804223253,-0.025921929024764218,4.44598824141028,-0.5989638987814427,4.040272033882256
106,-0.02262737065978263,-6.140723049906741,-1.7887580991158696,-1.9862954699993216,-2.860654860620257,1.5882144211013387,2.774857496993669,3.643066929106048,0.6223832480050283,-1.1328890908906386,-1.1101235771224178,1.9155001212381313,-2.50698373510641,1.64073775215566
107,-2.0092433041950706,-5.096463409902539,-3.818071934630033,-1.7651309997621722,-2.2474781541636566,1.940725673407996,1.650674508397223,2.4759371873010174,-0.10306936771218365,-1.037676150119684,-1.9460098956356713,-1.01825522828791,-3.8750723841106156,-1.0647774610910763
108,-3.609439310058325,-2.8061892693804507,-4.934244587230295,-1.1553295806080226,-1.1028906616908574,1.6736740513293586,0.17004022666096452,0.6194943454178625,-0.8622245351107174,-0.8192218741738205,-2.4208418858122527,-3.67315940516086,-4.361773570077406,-3.5590710480306424
109,-4.509781445468632,0.07634998433963953,-5.017972778092947,-0.2971139349001932,0.3479073150188394,0.8523682146894389,-1.3619210875244971,-1.5288608870689817,-1.5347421994276902,-0.59873748051232,-2.478122307014101,-5.440368176084449,-3.8368624101270465,-5.362465478672894
110,-4.5267547225819165,2.774667672199782,-4.163430191261748,0.6123114663667946,1.7878623204815052,-0.27992852231708165,-2.6213888603840174,-3.4563403574042275,-1.9837781702569226,-0.43996196486424877,-2.1164468773097083,-5.926097693410734,-2.4210516171633607,-6.115479785442691
111,-3.6429861834032264,4.611284621585956,-2.618533401713348,1.3663891713615406,2.877428629284925,-1.3759461206105865,-3.330286198864264,-4.661044607808545,-2.083039497330145,-0.33372535833347583,-1.391084024804475,-5.044038258570883,-0.4603731965115436,-5.648880544857677
112,-2.017309554752078,5.184938818065494,-0.7122773317905202,1.7981588284545902,3.3377667311431902,-2.0926560213661047,-3.3177684619386247,-4.789910404178936,-1.7569448723400198,-0.2191663525327507,-0.4157821749125482,-3.034628759252793,1.5603003060500322,-4.028195488106108
113,0.03671477463826133,4.455934071262028,1.210102776502723,1.8188674619185081,3.0271285070989244,-2.1993495423892786,-2.5653428016838355,-3.748230667189141,-1.0192404382227325,-0.02852622074770956,0.6428929096242968,-0.40386596306258404,3.143043125440965,-1.5583043311056834
114,2.1052017383819113,2.7239550083983155,2.8349563841229037,1.4373267350287222,1.9885893301893804,-1.650873160706302,-1.222347357856935,-1.7448769003050928,0.008014564577746465,0.26673950827246595,1.5862576677732558,2.2052591207232988,3.9084186887991326,1.2621815140179766
115,3.7554512959022093,0.5156510048759647,3.912568787085026,0.7557258012535019,0.4524144731011649,-0.602549605741397,0.4169982379713464,0.7460844091802693,1.1083310769766954,0.6300032627016372,2.2209252211277706,4.176546262026752,3.6961098566377677,3.8362923318363125
116,4.630024699951957,-1.576799603966384,4.280698932361377,-0.05687473237686689,-1.2126099522581515,0.6378182867505778,1.9749700308401055,3.1022200626304435,2.0191673511709047,0.9652941091118041,2.4057158083248873,5.075939498150539,2.6053658653618257,5.598418156186157
117,4.531892861549042,-3.0561712446052764,3.8842436766846324,-0.8068511897214344,-2.590073043995622,1.705215388596151,3.0790351740418602,4.718094926888855,2.5027379394279254,1.1522984232684388,2.093540236328846,4.755602186263451,0.9625707975928963,6.14912722152018
118,3.4775499252901363,-3.636530237108986,2.789799529030471,-1.3236940873316463,-3.3264932417496067,2.2893493693195683,3.456815220037323,5.172512420771285,2.4171966591451213,1.0954702312560118,1.352133839632525,3.3780041644251644,-0.7753663392972708,5.359109842555438
119,1.7007523874171668,-3.290161154632198,1.1877565811089206,-1.5010887499133907,-3.2306031024972723,2.227801344170863,3.0113042109516015,4.348194210463638,1.7641055761781126,0.766591062677433,0.3531074585071705,1.355031270020367,-2.153332953559898,3.4106142654189537
120,-0.3980623330411041,-2.221940779157531,-0.6273431266420876,-1.32088814266655,-2.3310615506461048,1.5516185617867917,1.8530203268715684,2.4671954275824857,0.6950332068105274,0.22324850483910696,-0.6703724977892576,-0.7771713808723625,-2.84602495200344,0.7601677388066983
121,-2.34618965009867,-0.7875488751694314,-2.303234560846179,-0.8537942956196906,-0.8728249718778227,0.470380196628425,0.2764226149847227,0.03003029162245782,-0.5265424307193337,-0.4042466632107383,-1.485310015988717,-2.5080030062819683,-2.7426505995818253,-1.9713928621916545
122,-3.713081278991158,0.6159013275870895,-3.499120429536843,-0.2367935138555844,0.7496409118218196,-0.696667891901917,-1.316047860297513,-2.3244892295705153,-1.5970481472045814,-0.9524786506298175,-1.9205249492164016,-3.481701354994316,-1.9632301911365988,-4.1536988550677965
123,-4.2143864100829616,1.6551953867588944,-3.9634087000046465,0.36615004663375905,2.104208969880791,-1.6199875014500849,-2.5224676263563706,-3.997525471791922,-2.2563971594316437,-1.2762209992019227,-1.9085720815285891,-3.570508420854991,-0.803918074683258,-5.304510240855667
124,-3.7777591809254427,2.136004617506448,-3.5990135318834295,0.8088689015125164,2.8447323630929797,-2.05753112079704,-3.0513785664724185,-4.593886672429328,-2.357935979947254,-1.2930380493660478,-1.4955697108123494,-2.8767378997779085,0.36774277186736676,-5.2069673449674205
125,-2.5534204811157504,2.0322949130723753,-2.495276022667168,1.0004422168237357,2.8083873186772466,-1.9208173176732064,-2.8003516485567665,-4.02325008627813,-1.9042921155563006,-1.0064235868362235,-0.8181875194319227,-1.6725115464633382,1.2306873770921138,-3.9549265111177734
126,-0.8680715004933134,1.4683741288781518,-0.9132745109146106,0.9248812054761043,2.0563865559947017,-1.2907182444656746,-1.8792961382268094,-2.510797966667724,-1.039928295183859,-0.5013044166015486,-0.05814021429267976,-0.3040415788819969,1.6016922140829708,-1.915860111440052
127,0.8637377059368316,0.664202272174912,0.7753845534506676,0.6382113087461914,0.845913066084955,-0.3812592988967067,-0.5717079798504685,-0.5172924767612085,-0.004741753389528383,0.08446093666873516,0.6092383894282107,0.9060263745616444,1.4721998170033772,0.37576268574689187
