,AF3,F7,F3,FC5,T7,P7,O1,O2,P8,T8,FC6,F4,F8,AF4
0,-0.16189485146694382,0.08320270151624237,-0.07739866612324893,-0.12733474953863635,-0.02010367744005309,-0.16086225930118422,-0.17719882532719258,-0.17166149008354822,-0.6331193537409708,-0.48030460573922046,-0.5411442409112007,-0.13903304735255875,-0.37921227482376585,-0.378419537514148
1,1.0787550284336418,-1.273535192217517,0.5708136302498635,-1.8736123336340962,-1.1223040614964979,-2.069452431978115,-1.2285786391677442,0.3065240456698114,-0.24851619193841243,-1.8904410856833966,-1.5365128553176115,3.11009137017785,-0.5376329628444714,1.2146826798674215
2,1.9952968797491355,-2.3035103269654753,1.0222279470548508,-3.0869555096706676,-1.8565120219968827,-3.2883664475496355,-1.9435255440951744,0.6755486154352724,0.06461706515024197,-2.970784036361569,-2.2297710737116714,5.6293406659537375,-0.7103772686393698,2.522355305340755
3,2.32211837791339,-2.738683782774513,1.106557554210338,-3.431852421314785,-1.9838903497547717,-3.3824126696031747,-2.101846528450417,0.8299780723948561,0.11961628308540175,-3.5355913663643674,-2.5002284668997627,6.833643885629188,-0.9496024620159381,3.2537886295337777
4,1.9799729081847217,-2.4577646440711773,0.7893061446553528,-2.826567580909757,-1.4454012125587679,-2.281182196320626,-1.6303584518739644,0.7492619333747965,-0.13290917538051847,-3.464298601296128,-2.2990028081949165,6.473961462148538,-1.2180502504120467,3.2603713498688163
5,1.101150932240077,-1.5172419922248346,0.1872277282626541,-1.4607858797863476,-0.382416471948122,-0.30700500748490944,-0.6281727773987477,0.5038916198984296,-0.5722726996954552,-2.721813199807401,-1.6487940214029762,4.6950207025955795,-1.3878880687051443,2.5731162200977296
6,-0.016142250383794642,-0.14124942852435604,-0.47369948107344745,0.26710029788045264,0.8990671196612785,1.9224549095490382,0.6518551559757823,0.2227699850985342,-0.9493308775269744,-1.381251350785446,-0.6407994431212166,1.983802794705841,-1.2896244004735071,1.3908489744014427
7,-1.0093731778146717,1.3284988551354673,-0.9429277109429299,1.8714189597283408,2.012561103950192,3.6870519915348234,1.8631039784361092,0.03454884765003494,-0.9905525002204009,0.36040709430459583,0.5694531951954186,-0.9739632438502202,-0.7941492852094352,0.021671499256203906
8,-1.5746264141851258,2.5129218952092995,-1.0412146065307506,2.9206869534677207,2.6018682374760194,4.392190509468149,2.6537524823739047,0.007506717379839749,-0.5258679349371106,2.188491080778559,1.771249668969249,-3.4846718820467855,0.10529230713001168,-1.2052015544849635
9,-1.568299013402952,3.088852696157983,-0.7313422004125598,3.1562347965135076,2.4480464949126364,3.7601725042138296,2.762779679696467,0.11453354655049651,0.41156663732157606,3.711276737843909,2.7200949792144664,-5.027543231875244,1.2481782489059612,-2.030390595460052
10,-1.05185368099494,2.8738954781762547,-0.13598611923046544,2.554438692731602,1.5412529796397738,1.9240455556712588,2.0984084137043317,0.2406171771797178,1.5591686900399373,4.537660218460674,3.177075563630218,-5.373125213335972,2.324823740190458,-2.329916998419432
11,-0.2636983622695596,1.8813646838238978,0.5056233542032993,1.3181618745058554,0.09445052063237515,-0.6064171751597366,0.7763300372894028,0.233072246358327,2.492732839024363,4.379363775178016,2.964894608808523,-4.609282854704476,2.960941549069216,-2.135273854353968
12,0.47194664466391373,0.3290358634678335,0.9276449859970102,-0.1947308460838747,-1.5081474019553285,-3.0966112628658955,-0.8961420652598714,-0.023751556213620108,2.773093497436798,3.15077203309475,2.029298247478594,-3.0747718171388634,2.8457360354559134,-1.6030493223912436
13,0.8666584125082247,-1.4044929520753207,0.9414834982892097,-1.5798397886411266,-2.8157242541006338,-4.80948510549063,-2.4901144122020407,-0.5398397772264373,2.1231762519560147,1.0321238866334463,0.48599511973851145,-1.2293741215282734,1.8603521017822502,-0.9464386389045448
14,0.7760077681531125,-2.8690001873198208,0.5144948020022154,-2.4972421344300124,-3.4396143824224255,-5.22877263198309,-3.5642312058609478,-1.1881164779393658,0.5690063304051438,-1.5339718241201599,-1.3693381602086656,0.49250182471806475,0.157560188631241,-0.3543111792467739
15,0.25469748321003643,-3.6577128237586036,-0.20752500502630625,-2.753538235783846,-3.1684766643487285,-4.213633663527378,-3.785367517789596,-1.729196370841936,-1.5158418839072658,-3.926113006949256,-3.103790786992652,1.796404633335801,-1.8444170037951388,0.07217139061176661
16,-0.4623788695873954,-3.519503552505741,-0.9453056659652198,-2.33564502968493,-2.0349431671533136,-2.0377613628980122,-3.027857449538959,-1.890022149337591,-3.492831282943658,-5.496131608398684,-4.2432366768643766,2.5771265852915644,-3.5637255436051016,0.34209952394580706
17,-1.0475918479736335,-2.4373040282279828,-1.385060171164996,-1.3935814735081613,-0.31263700307098335,0.6968123894476034,-1.4217952218018468,-1.471724026939284,-4.65339924135739,-5.7523105367571015,-4.402520780342385,2.894687258021529,-4.4281791918040705,0.548958138114728
18,-1.205879314916591,-0.6481527171491339,-1.2973347381686966,-0.18449468886363513,1.5566941048253082,3.2415466407355122,0.6665942331333539,-0.44722809601196517,-4.467057085646227,-4.519810524880591,-3.4137821407146247,2.895774987953944,-4.067218549914254,0.8078691633020619
19,-0.7927353072895186,1.4055740921799171,-0.6327829408952961,1.0009241451727782,3.0848838185310035,4.920372101277037,2.721117539416858,0.9915671351502684,-2.796736894974208,-2.0240990501675595,-1.4100713631993491,2.7178780593467393,-2.457480512683004,1.1825382834060065
20,0.11875007400800658,3.185453429046747,0.44165132433197946,1.9075768019673303,3.8719946662558846,5.318172129651665,4.207633627581762,2.462363260052217,0.0016019626647673982,1.1381524744546592,1.1708468661197333,2.417119132595403,0.03296373491042484,1.6335481120480244
21,1.2481892487512225,4.200281578841165,1.5828415446926112,2.3645647540838524,3.7144528612914844,4.383835621912448,4.71692731918889,3.4961508991252157,3.1439494453100996,4.143076443370863,3.6760175946451032,1.9489898424821597,2.7260971167042194,2.0122350266035687
22,2.1949232177637663,4.144663112448653,2.3781786150304267,2.306718267167971,2.656038225402936,2.422424009469891,4.078755174001746,3.687333567209516,5.641390279195675,6.163524179056564,5.404264570791067,1.2085661419234717,4.824110084175014,2.106963160191884
23,2.573898391062322,2.9927139062117245,2.4853508934440622,1.7715767499392698,0.9691901207450027,-0.013317888849539638,2.414289265449986,2.841713087942252,6.617337788690139,6.609056098713004,5.807145049519467,0.11201857765241338,5.6528607466342,1.7275947196369084
24,2.154607224872209,1.0171699261255627,1.7587809486727084,0.8798559448526796,-0.924714233802459,-2.2920188554257805,0.11099647047419105,1.069823575410334,5.615559146225416,5.308515576837042,4.664509551397378,-1.3163822299638028,4.881820441144229,0.7973773359236943
25,0.9550511981193952,-1.2754858113118959,0.3188607776127465,-0.1917544326319127,-2.570136740031741,-3.8784703611180755,-2.274180190943957,-1.2124305088789458,2.7904334166857985,2.5757170447765345,2.177539989901164,-2.8914516115521094,2.6473321880513843,-0.5841277520086594
26,-0.7431441330914494,-3.2787761740381027,-1.4625447675774823,-1.2394905927186581,-3.5931081039146626,-4.463152509151347,-4.157212964152537,-3.3849476048009564,-1.096145576425769,-0.8670390602131192,-1.0567202464692105,-4.276803373594338,-0.46550017234641994,-2.1355167234444985
27,-2.46662141558356,-4.452557766669534,-3.0603886702288268,-2.06122682489978,-3.7867120274728685,-4.014862243926808,-5.076258376700218,-4.801348956157732,-4.884682254403499,-4.089099280824561,-4.190900195314358,-5.062826926048495,-3.5825209357276346,-3.4547787411720323
28,-3.6887498345521217,-4.474548586915823,-3.951465937111908,-2.485743799254144,-3.147034664666219,-2.751730667272388,-4.807842204091845,-4.990628784196373,-7.376978337243444,-6.217320448667938,-6.357012925443771,-4.892796094625844,-5.796128433303419,-4.132911246069254
29,-3.9921178696333635,-3.332651559139862,-3.779889821756418,-2.4028593819941686,-1.8563546150434795,-1.0507809693559067,-3.4200370691336537,-3.8177182419426265,-7.730322081183065,-6.687726747279088,-6.915851780459651,-3.596968405498334,-6.43888770237366,-3.8854093832566705
30,-3.204080761583856,-1.3302658552649778,-2.4814990636725294,-1.791450365249618,-0.22494134504795482,0.6687911496125051,-1.2506375554750189,-1.5474716315765331,-5.7536908004383625,-5.4060039640213,-5.6515711644329985,-1.287627927391927,-5.289703449239577,-2.657997246013832
31,-1.4622438111689313,0.9977585390182023,-0.3262956197636405,-0.7382389053430813,1.3883476355930775,2.0517044529389667,1.1813757047385458,1.214846263266862,-1.9988418150414133,-2.767530308170724,-2.8499686563091577,1.6228367713400418,-2.6470932197132226,-0.668685232314072
32,0.8116978643297994,3.0342875267380487,2.1384115676007633,0.5620619086374896,2.6550668651665705,2.8752145791167654,3.3059572362721688,3.69418442200036,2.3952282920348003,0.46849342682292394,0.7678127033589518,4.495992124370601,0.7545591927983375,1.6324683164246017
33,3.0231795535934984,4.250613983002692,4.23186488692186,1.8328622696480728,3.3389968278915663,3.0700483522761846,4.639528032400807,5.177690226578927,6.061914409018939,3.4102982666859365,4.2408255568216955,6.619582044098062,3.9605711928545047,3.6778950116845435
34,4.568737867784214,4.349209827003585,5.331654458189309,2.769318610709125,3.331974853413555,2.699874038533742,4.896179959242465,5.235661764689902,7.854781696569599,5.296782342206178,6.637520851015223,7.397929679373215,6.076942622581463,4.938554349659727
35,5.0050919734530375,3.3383031695143797,5.058599228168975,3.111327201018956,2.6626505578316833,1.9162767866077308,4.047605349818246,3.859598650540277,7.231829144578813,5.710466387883099,7.319318181682457,6.526247842800219,6.530549962843578,5.074338845260912
36,4.175013956656493,1.5193104053076474,3.399956347638263,2.718572396358405,1.4821032252672228,0.9086907149775965,2.3206970046900044,1.4700733563742798,4.441266846882512,4.675941695411348,6.120018758780561,4.096700943298285,5.230006253494156,4.032790328859717
37,2.255044173030157,-0.6057520109739357,0.7323959943168713,1.6251312862972063,0.0320465307787062,-0.13611022061675,0.13671285692669244,-1.2115398790342389,0.4392622952964042,2.618200921606271,3.387768182890055,0.6019390535775334,2.5806713191461834,2.066044183524958
38,-0.2872637403891264,-2.4771617706325797,-2.26601074431471,0.05287657516397298,-1.3989958028389597,-1.0589885382276303,-1.9916025251663,-3.3887681412481694,-3.437295695222173,0.2012274022628217,-0.12195645805160628,-3.1699753934109203,-0.6470896631987817,-0.3387809670095227
39,-2.814013517584633,-3.6285526855915626,-4.79389959537078,-1.6276162943126402,-2.5267278358449943,-1.7399342717966149,-3.580619381083494,-4.4413653121570675,-5.932455764486107,-1.8948700816113926,-3.4687001196880636,-6.325047703642449,-3.5527388600375223,-2.5942974331422315
40,-4.682705498018532,-3.804613299713037,-6.147313264147298,-2.9847383714915696,-3.1238052892900336,-2.1022459356148095,-4.287140049289093,-4.1203470231178425,-6.305924331683658,-3.1824044788325656,-5.79660706323567,-8.089117174756916,-5.369955649592585,-4.172271423057569
41,-5.413309853651095,-3.016079799195151,-5.921500594237995,-3.6416887504732136,-3.0665677557900795,-2.1149033419338363,-3.9857690027459483,-2.621732225972637,-4.5850365882545665,-3.492769662629158,-6.5699113795379285,-8.010606409195942,-5.680437963335216,-4.7411717709116985
42,-4.813476565884598,-1.5217502953190998,-4.135300371367633,-3.3880433928659843,-2.3659141819349014,-1.7947482616599093,-2.794562946792509,-0.5130651945745515,-1.5402490804478528,-2.9842317670193257,-5.7050856477269765,-6.085429579634467,-4.514907884299332,-4.243148881006613
43,-3.029853853123446,0.2527999276562948,-1.2394106073088325,-2.2519754645390027,-1.1724555397409118,-1.2059962808183597,-1.0419607562860316,1.464321460274209,1.6111972645805224,-2.036231770500124,-3.563823588328309,-2.7683699315288317,-2.3155316450105037,-2.890832154603545
44,-0.5122091171896385,1.8346368158023425,1.9983322762928686,-0.5070119744052365,0.2500482423394696,-0.45301113368996654,0.8186546697773222,2.651734839793432,3.668540073209467,-1.075213429267895,-0.8152233693086,1.135605001063304,0.22265983410039236,-1.088613064390677
45,2.10117295997674,2.828210415045152,4.702214142041169,1.394055203615949,1.581259616429905,0.33585207437615344,2.3269201712150713,2.7009948917556117,3.9074906928876714,-0.4002350803353487,1.7836801202702657,4.674687504314006,2.3769471416381527,0.6947429910514163
46,4.148437385829154,3.013703718132036,6.13520716559713,2.9425448696456,2.5197167278149997,1.031353491389834,3.1360116944025695,1.6939672970455546,2.3622586825296126,-0.07525465804448526,3.6157296584261998,6.996367213612979,3.6154210095606985,2.0617423594466193
47,5.117567871169233,2.3957725591968027,5.9121470668853435,3.7194201639205384,2.8583473368727836,1.527469272879625,3.10262862845738,0.10923903875169329,-0.18422229563126488,0.07082086607479353,4.3668330880967305,7.570810444234543,3.740300003215061,2.7885878048877575
48,4.782679268672092,1.1926472166529316,4.1155925803372035,3.5186497416745826,2.538611741968706,1.7591423374940922,2.3195774016290045,-1.3563843410208247,-2.508907320652965,0.3367097149046823,4.076131602216486,6.329519880159587,2.914181867389592,2.8645862317747
49,3.265370402224828,-0.2297814089034075,1.2766434060351737,2.4090964769124628,1.6661336434870044,1.7085341206283444,1.0793592298786079,-2.051972420532078,-3.4480794329947444,0.9769677114320257,3.065172549802969,3.6784595600715573,1.567047133726112,2.4596749218959353
50,1.0017131920343465,-1.4611786306785515,-1.7779757264794884,0.7140303612713519,0.481229860793741,1.3994939892284253,-0.22205646239125226,-1.6290165044954443,-2.399235628248273,2.037072241525204,1.7804213938964804,0.37897097264258345,0.22158883703235288,1.8350177961455725
51,-1.379228652290335,-2.1605728527298877,-4.170424188937587,-1.0865060304721001,-0.7085226456029591,0.8850687996940003,-1.2120759207222516,-0.19496288875129827,0.37591353621496154,3.269081866544737,0.6127988973297809,-2.6719329215536782,-0.6989761760834556,1.230760380548125
52,-3.233632111953715,-2.151011065257518,-5.235598876157529,-2.5000784716537026,-1.6142117840043817,0.23543208936819568,-1.6577302932965972,1.6999104843204178,3.7845020335713304,4.175346118153263,-0.236306415588458,-4.699145068419882,-1.0121438987168618,0.7729208928967704
53,-4.087569710438108,-1.4692809823145119,-4.722976379741636,-3.1671390446604724,-2.044040384996167,-0.46803728263986977,-1.531614629695698,3.24875416891587,6.286232785456433,4.180084247947497,-0.7933204648768145,-5.268403081356807,-0.8176019338719972,0.43471252579394787
54,-3.7730077161956865,-0.355611921656214,-2.8713935446904704,-2.961215524307269,-1.9502892144161819,-1.1320927948191566,-1.003920266975118,3.6900746767087726,6.5039289692005235,2.8756351167849767,-1.2448668215442211,-4.399486489374136,-0.42715098327597445,0.0678104204288078
55,-2.472158595025795,0.8162098253951785,-0.32983333586162433,-2.0134088627869193,-1.4308749331142154,-1.6501180218669214,-0.36314201894483594,2.619811123847219,3.835080771713015,0.25178954161724904,-1.7973396207033696,-2.5377695908801283,-0.21258560681840447,-0.5074972014844408
56,-0.6538306785501926,1.6510742453563023,2.0539552402997954,-0.6561282117382629,-0.6865437887401867,-1.9088726907542823,0.1049352782942865,0.19498415715372336,-1.1838902781971326,-3.190345099239709,-2.527488746111333,-0.3924167104076441,-0.43172337539246103,-1.3883479547667037
57,1.0808385751289307,1.8563573622786897,3.511280627541654,0.6923063569926029,0.05057847640771113,-1.8103409319979158,0.23314082463845107,-2.859580057128773,-6.935458692112418,-6.507300649348111,-3.293411847736516,1.3071386704071668,-1.1013939771403467,-2.4988575344050754
58,2.1955788332145647,1.3405784085502384,3.606855034123904,1.6619470615999594,0.5921308212333314,-1.3076410459016818,0.03722563300637343,-5.4637356658741485,-11.22573943503535,-8.570281729726858,-3.7525081826723876,2.056695020648038,-1.9692734993320458,-3.5654537031537856
59,2.3949678267177803,0.2545071266393145,2.3843153273803916,2.039768492436511,0.846924672273211,-0.44355585805762704,-0.2987335053147771,-6.554917831386018,-12.08582395237441,-8.442750759332245,-3.4895804890754394,1.742329634279509,-2.5998309161084876,-4.178437933008648
60,1.7191509602529216,-1.0430075501405087,0.3508970530108413,1.818730498433274,0.8356425181189212,0.6273264206127666,-0.511603433054723,-5.495857986373596,-8.585565079906583,-5.75443224358419,-2.210780282455179,0.6674552168610323,-2.546445233959931,-3.9284371120107187
61,0.5222450493524773,-2.0902887547564677,-1.6982949503484184,1.1754005850431073,0.6642220009134927,1.6515114141346479,-0.3872473328173697,-2.365807836656255,-1.3401518379483544,-0.93102698789538,0.07368761249181997,-0.5700847974050257,-1.5475375920504668,-2.5755932325295574
62,-0.6616644490449348,-2.471639078621532,-2.9610199551379712,0.3890149038334233,0.46840030288583906,2.3327978857105345,0.1270100921905688,1.9867083276389916,7.523533688019295,4.826366060508325,2.9592308026268337,-1.3109778227299906,0.3280988643122335,-0.19088243525116294
63,-1.3206963680675277,-1.9647942644766785,-2.919391782702907,-0.26592023837563267,0.3521849416121828,2.4222545286683044,0.8764506330036343,6.173051287216755,14.987050372440905,9.839223111033728,5.701765122328188,-1.0968590327944703,2.6475103138244043,2.789248607464167
64,-1.1640211686106356,-0.6373300281593245,-1.5395303916793928,-0.6141378621404713,0.34472744605436895,1.814312619294428,1.5451665096536853,8.716622977927758,18.170282033862218,12.455706675165798,7.418840235010865,0.13302788612247995,4.715263031130586,5.630267061353193
65,-0.24287287615921202,1.1462945352434397,0.6961376220664209,-0.6286417078280052,0.39252909216532544,0.6115461300751499,1.7820474988519803,8.579953925307706,15.419106077698796,11.606583433598772,7.3808152994771605,1.987661144173704,5.786931120214836,7.485165630154108
66,1.0562124968117692,2.8192834037748873,2.9439505717862744,-0.41964680884545685,0.38982220908251203,-0.8743565273546036,1.3588161052709746,5.5778591447406995,7.044101840338695,7.223296432622428,5.294766923287796,3.741813412626729,5.32840020710938,7.651752425122442
67,2.1505141086446375,3.7870367243439933,4.295238690992777,-0.1714585774756589,0.2345430804191796,-2.1978740147433915,0.2945462575891739,0.5148402742296198,-4.599380120664726,0.35860604220583714,1.4753942070099586,4.593011202422568,3.232895945560575,5.823269223789483
68,2.48663994060243,3.6295257901750935,4.1135764120002785,-0.05449269749720169,-0.11359088571132878,-2.9149524718155413,-1.1106074051979422,-5.025187383405188,-15.776080351450135,-7.059453888745763,-3.1728346580746454,3.9712816733506147,-0.08527250858470577,2.2456400493648285
69,1.7699642575253496,2.2637148066044204,2.291904666914073,-0.14837600337463538,-0.5983632483192544,-2.7359760382983835,-2.356996786721657,-9.185343487056354,-22.593805243821144,-12.786785611081017,-7.377678798208515,1.7889566972406068,-3.7653759305530543,-2.2843999900435907
70,0.1084367315872818,0.005179119547666982,-0.6696674482090801,-0.40710864997343466,-1.0730044735970565,-1.641838366195845,-2.9214600930597983,-10.474156077226565,-22.376000254435418,-14.968798596336976,-9.8695154942288,-1.4682167757548945,-6.734016936275527,-6.599593411625872
71,-1.9914617221133588,-2.5022254747757486,-3.8047404240276332,-0.680378084586567,-1.3484439843660327,0.08330638433920082,-2.4661995149490727,-8.312619223373387,-14.692862866850648,-12.763210406523049,-9.78732653915718,-4.855508859302391,-8.033048328706688,-9.481575603608865
72,-3.785415994831183,-4.475760817923445,-6.001480591492406,-0.7825628530004682,-1.2680377186634129,1.9220789394862965,-0.999997326134767,-3.286862196396158,-1.655927019628359,-6.665157659585782,-6.98586144849225,-7.262918210738722,-7.139046185997074,-10.0286896526333
73,-4.557113162812378,-5.245845480408759,-6.3962983721757,-0.5812928374429357,-0.7804246633524214,3.279795947163279,1.0773485053495202,3.0003737927033147,12.671159217887046,1.5902424687616434,-2.1333323354955134,-7.793560974929324,-4.166290958732878,-7.95607256967786
74,-3.8937027938593993,-4.487436055372345,-4.700445480777232,-0.06837660207015668,0.02005634921732874,3.677220278513767,3.0770219766585813,8.445751842458222,23.57891666765679,9.534852603903614,3.4473704043207847,-6.0946059294056125,0.12361487468155032,-3.7241000780970372
75,-1.8659014216962515,-2.3487248032574897,-1.3369382422846112,0.6185299588200185,0.9061196120772885,2.915527973953502,4.2452652507883455,11.160406485093535,27.302360882683825,14.731585500676376,8.157260447286722,-2.5180131124369045,4.52249124163559,1.5595902967871722
76,0.9614999216179726,0.5736600682447373,2.671127772034141,1.2364440379641235,1.58506845814408,1.1561413649635148,4.0364461703635595,10.136688962767659,22.343950557626393,15.550931625517087,10.60704788985427,1.9561285822193835,7.733631157161476,6.4472577667235305
77,3.701954013091194,3.412113457015836,6.031314112607873,1.52765546336751,1.801013577098835,-1.1141790216226017,2.337477796007371,5.6273793381319654,10.055345967434974,11.703845400759015,10.056028481696353,6.017665769387385,8.777461337389397,9.578830218338167
78,5.4466419794586916,5.303206739842097,7.6207948038399795,1.326663552644101,1.4357100327525523,-3.224257423582854,-0.44365867857387514,-0.9064984155988117,-5.745352439221053,4.350499223958561,6.6588103574628565,8.448996947515418,7.31261934299544,10.096394864806593
79,5.5851644508852525,5.668907333029896,6.879387297834228,0.6404577048912976,0.5686131588567208,-4.521382662757652,-3.4690606570246745,-7.272751449150023,-20.008140736919486,-4.257006595447406,1.4330754908927659,8.527289274763387,3.7620338124539208,7.9099284793687685
80,4.029874807573025,4.407291132710571,4.014692171766087,-0.33323477641148547,-0.5314347762369928,-4.571938538500481,-5.723257575256253,-11.291485815625506,-28.123184448663416,-11.484954802830776,-4.04846613929303,6.264984696953094,-0.8053420887822927,3.7239042774699844
81,1.258950530288961,1.9258039286837025,-0.057873702271653525,-1.262698386227083,-1.4867671844003472,-3.297013482931763,-6.349196613415865,-11.548213181461863,-27.458399397488407,-15.150128231667962,-8.147100045730637,2.4026007010420574,-5.005527307385264,-1.187636271125652
82,-1.8412626762619162,-0.9956265263076075,-4.02288553925765,-1.7978597050810228,-1.940209122332191,-1.001889936802499,-4.955866723997884,-7.892108934677681,-18.234250380001917,-14.20195492967743,-9.671315128605244,-1.8447130365398183,-7.578342282151065,-5.385572206991386
83,-4.280214753210642,-3.4647596306456383,-6.613616982247321,-1.7041089287310371,-1.6889327087667245,1.707858261383899,-1.7891876892672829,-1.5019290633462115,-3.4377364533001336,-9.034038172067653,-8.247139588711134,-5.197706585773567,-7.789739646229616,-7.716623539736223
84,-5.304559613395407,-4.770305103204965,-7.0431037474210765,-0.9634800340838485,-0.7730771009720003,4.096471335279827,2.300440620965947,5.506625321470187,12.188206922823985,-1.3294057365475551,-4.424487929040446,-6.735868896652034,-5.662812814816566,-7.6617174901632
85,-4.653857153043997,-4.606869843413999,-5.264898920888736,0.19862153345313002,0.5178001490918915,5.502856107890496,6.0940617205300365,10.796940642400362,23.72511114377541,6.500790380269551,0.5144465138276536,-6.184723946958708,-1.9591490332513957,-5.468378710721883
86,-2.638842589503729,-3.1552532214675746,-1.972278696282307,1.377231160373088,1.7296861936854977,5.521297814318573,8.374939605934873,12.60239181368998,27.68445423914673,12.093025155894976,4.9798502612359945,-3.970156919150769,2.0832413663384006,-2.0283694077940195
87,-0.015902733391759682,-0.9940423293028322,1.660931153648562,2.124823028895718,2.3965865780812132,4.109275446477604,8.31808471076226,10.31874642383039,23.097053938517636,13.86465721349075,7.590244962982929,-1.0273771841408794,5.165964610131053,1.4508756969977823
88,2.2938658568055983,1.1211543091597138,4.402059228763289,2.115309007139438,2.209989397004004,1.5966068917060723,5.772619825502332,4.696590708129185,11.736518501814402,11.470528962052684,7.609296921583375,1.5596995771066808,6.358316093442084,3.863322921448498
89,3.5364794413548704,2.5281143658727587,5.390902436179929,1.2757493138176212,1.144973009308508,-1.4019530165608758,1.3426098965478235,-2.425976665916037,-2.5666972664360093,5.848520643267088,5.161928069088753,2.9537639767209716,5.3923795101939005,4.565284380219128
90,3.38632685613571,2.8798036330471133,4.426723661248302,-0.16524300749887133,-0.5058333818535506,-4.143953473371913,-3.765333012027089,-8.750181846669062,-15.253883656413722,-1.1402586196500648,1.1641241779406606,2.8502502376509047,2.7275475701291216,3.5595233566783446
91,2.0434949387277705,2.239926802722432,2.011696547310518,-1.7358754654818789,-2.209322892909549,-5.944349322178638,-8.085880094826075,-12.28163639122461,-22.53711485126059,-7.3395714095235975,-3.002734146503903,1.5539044388678402,-0.6322589899429989,1.4470184992806145
92,0.13571642868048361,1.023125546114968,-0.8588028158124966,-2.872245074153913,-3.3604836039760104,-6.342962005091535,-10.3278015198978,-11.971714541960539,-22.562742192751916,-10.97837432075537,-5.958418423166957,-0.17553129747989743,-3.4998984131173967,-0.8266252006286962
93,-1.5341745851055844,-0.19119430233705353,-3.0772031609055457,-3.1136746024256294,-3.4892804330108773,-5.215953467926714,-9.764589759790352,-8.024834692117008,-15.874378591408068,-11.184173348255591,-6.773596351305811,-1.4446464256625327,-4.916144887556164,-2.3328038049700854
94,-2.298464642354817,-0.8964340036796407,-3.83406009945571,-2.275251398588042,-2.43589232332069,-2.807451077675638,-6.463596867166605,-1.7831691962496494,-5.067690042627622,-8.179211910539374,-5.25600624860341,-1.5906520222448073,-4.468195503005861,-2.498304446207417
95,-1.8763057859058356,-0.8557265483437757,-2.908030508747101,-0.5348953894693584,-0.43118980776795196,0.32467782733841793,-1.2827908713686353,4.7530666195703315,6.193192997775781,-3.122334609589028,-1.9855970196821502,-0.45083937668598423,-2.409196021800402,-1.3021492355655548
96,-0.474459054676855,-0.18388608369538842,-0.7323928428476073,1.6008938147883174,1.951445749641019,3.436996956691656,4.365993239497348,9.592528992380963,14.427125935094493,2.324447344182944,1.90297795013083,1.5636903187756424,0.45561323715704655,0.7337545574747677
97,1.2982991815435792,0.7145622021924153,1.7819619353794478,3.44773431959222,3.964330585595636,5.775222773413973,8.918543655071591,11.377743014821794,17.424219130470036,6.544949735985321,5.109478730668371,3.617537093443831,3.068925512323771,2.750550956301916
98,2.6691486029927427,1.3244958202320067,3.598193232565691,4.364721986397889,4.923350866430358,6.7571186925089926,11.106641167944602,9.7678611691811,14.829281943743462,8.451622286462372,6.59546157133111,4.768489210776264,4.4977751939128865,3.876889563921086
99,3.0017122215256244,1.2446463358528204,3.9482909676083415,3.9738967176134796,4.438681143689061,6.120891005706345,10.321608803963443,5.4728149310191,8.075105269606826,7.758617393439529,5.91019410549986,4.335689893299705,4.25398964967954,3.554524064936058
100,2.0469009831943943,0.3681419304857424,2.625347622243754,2.3025397713861366,2.5601903497794885,4.000877032862059,6.786667330064475,-0.04533842508110654,-0.2525682587747601,4.981557427054905,3.314576862871986,2.1821962405718995,2.450234262565776,1.7500565448236702
101,0.05090793959566901,-1.0534408422029218,0.06662168266190462,-0.2037320591740434,-0.21528522346450213,0.9065076948374833,1.4885001043342296,-5.081274998051864,-7.357873727201474,1.1922808147042732,-0.32778780101590926,-1.19382769171488,-0.2564263939698215,-1.0202535020057228
102,-2.3201340047372954,-2.490590834944185,-2.80213961993194,-2.8069897651601066,-3.0831920217958437,-2.3969159773711737,-4.110319190583364,-8.225872779248501,-11.149766569642335,-2.3697956297910148,-3.8471732015528723,-4.7964502468646755,-2.9068269494208336,-3.859743369960111
103,-4.212381785378631,-3.3333595711426125,-4.903590101418979,-4.704969025349273,-5.176391431497117,-5.080670747232648,-8.491894113898574,-8.763698241652257,-10.83605951996752,-4.694185418555536,-6.148977668746458,-7.453310115022862,-4.578422326194327,-5.794916915978094
104,-4.8901253991842655,-3.1323872179212437,-5.403915391007122,-5.287951746945893,-5.838579356387892,-6.470262838633336,-10.511954244793488,-6.818150763780198,-7.037534566371056,-5.280059530442322,-6.5546570901360175,-8.210853709738982,-4.701151516837508,-6.108460473414883
105,-4.005539909795359,-1.7913365018239187,-4.0227420800333284,-4.339627387268718,-4.836676026489898,-6.22857413599251,-9.711670205375079,-3.225164153379687,-1.4347502023964065,-4.2265715129315655,-4.99627007778687,-6.666989829432894,-3.2432513286280082,-4.588173483077644
106,-1.7356986658006721,0.3654253677094144,-1.1457620714113277,-2.1139758069302905,-2.441222815543843,-4.45022563705501,-6.423730982481476,0.7961311166768325,3.890421342231369,-2.1253545523991058,-2.0103506572548944,-3.1262785989786703,-0.7081206146709914,-1.6081759593148264
107,1.2624034734384626,2.6809292142110603,2.3004832514083073,0.7391608051736522,0.65329852871542,-1.6360344379299632,-1.6473731871133466,4.0513692216758495,7.17507491087349,0.18947676579115388,1.4566837450616383,1.475951317324707,2.0500753036081183,1.9837066032021253
108,4.063672215541439,4.382729457916193,5.166736887810446,3.3765661001476017,3.5432713778819664,1.4484893629620124,3.263062370653895,5.722864829520842,7.519169430491792,1.9392242707638567,4.360238937354119,5.855330485910305,4.123002959071355,5.133293489734267
109,5.780162354763862,4.853345404344593,6.478640452588983,5.025910295604242,5.395982621634134,3.9905703353968978,6.996904914723231,5.5641764426740306,5.095661944048613,2.6461203033744716,5.88188321920218,8.772143065446814,4.8525618367610965,6.912347999248635
110,5.854659170996731,3.856665284487388,5.77324318648754,5.225017836504593,5.703755533905893,5.358708697231409,8.651704434575565,3.897154889938586,0.9920842719934589,2.252812500981897,5.663999558363653,9.407947426331868,4.040349670317528,6.806516801667011
111,4.242981533168573,1.6369876936125607,3.2571126678941624,3.9585127518614693,4.430735416366577,5.2731971079403115,7.95793349800807,1.4375059602400946,-3.2301185148145186,1.0898530164976676,3.8871801646619675,7.605205599412456,1.9958977556024355,4.866938646850644
112,1.4252180025056893,-1.147814634543556,-0.2667647352988353,1.649545939972062,2.0078381424385974,3.867827301832844,5.306114301161997,-0.9753443580192678,-6.090563525823155,-0.28302695011543977,1.1769542512919373,3.8984898639924115,-0.5854109112651908,1.6808088003184332
113,-1.7544836619781699,-3.6382492556188075,-3.674250826418761,-0.9867213633604909,-0.8176058743892507,1.6271599215932564,1.581977576566693,-2.6484940968287423,-6.670800287996804,-1.2971388247090796,-1.618711212505242,-0.6644108273634011,-2.866267842363226,-1.823456899202337
114,-4.362079222032301,-5.057444724447975,-5.898676883630809,-3.1757064010964204,-3.2236874252935306,-0.776317550832566,-2.1268805363713414,-3.2228337003852126,-4.873582486274923,-1.5771928046869725,-3.701945258386832,-4.846422842459886,-4.146324979276316,-4.667996819725154
115,-5.66781587599779,-4.968954398610812,-6.2807019577847125,-4.323395026940984,-4.565829859009821,-2.689840338477399,-4.855128192096497,-2.7309755633924255,-1.3965895714638668,-1.0589402735874538,-4.558712029591892,-7.583179075413331,-4.0818902315577095,-6.117748426145273
116,-5.363314728560311,-3.4189710989272957,-4.771151703868306,-4.186044338269725,-4.558102928393796,-3.665929500467064,-6.015681935713317,-1.5258399858277492,2.5473699114600965,0.011165868290230948,-4.084449187266743,-8.271089585926036,-2.77696854751519,-5.881624990032086
117,-3.6342745661443816,-0.9150637682123234,-1.923207859385223,-2.918988199584588,-3.330795268004274,-3.5700720504941734,-5.5184350113997915,-0.12019875601480849,5.654339979101848,1.1854333604756657,-2.5724069101643585,-6.90042378443771,-0.7227739814750317,-4.165581697362358
118,-1.0728081429523166,1.7487573560047944,1.3149254554409517,-0.9966690244507913,-1.3547600242504487,-2.5836729292720495,-3.731435859921105,1.0000634064712601,6.951816688516079,1.9884478102065575,-0.5815483952992989,-4.006411397949968,1.3855218189396399,-1.571474385013616
119,1.5324532327892155,3.7576615672778826,3.927859813206075,0.9610266698664883,0.7328667301669282,-1.1113440175540117,-1.3146861438301667,1.5263484795301543,6.08680504907551,2.0908381254047517,1.262505127885526,-0.46934306436638273,2.8869016345680314,1.1148271613353515
120,3.4521369787680958,4.539539754159381,5.1648254845363475,2.3926097233685524,2.3374837952079206,0.36827984129556895,1.0075819198190463,1.3986337438927547,3.39905798696465,1.4232733658870946,2.4638842171132582,2.762340327044374,3.3653131715964713,3.170698558794848
121,4.231461141873959,3.93734765855746,4.76357570568577,2.9604415742073864,3.08048911906141,1.454588752976007,2.6594475979667846,0.7857435699923326,-0.22730053553878107,0.19438927267958683,2.7885369175596684,4.936283214297423,2.7650931953636557,4.139107509719012
122,3.7988551766655188,2.2359428538835067,2.9977961198577203,2.6277851703791493,2.8856487750789674,1.9312761552804714,3.3488598241419947,-0.006505778075731818,-3.6709428047165096,-1.1889778074644213,2.297547948567185,5.6720625510137594,1.379170446599414,3.9275561860612815
123,2.4427817775669576,0.04166249734397148,0.5441348200282237,1.6314866802910337,1.9605425321486918,1.7990993675339155,3.0972366288459154,-0.6594372996720246,-5.931910196377816,-2.267366354592137,1.2832702959188642,5.008999788217853,-0.2767826892569672,2.7842983621780535
124,0.6780635714801619,-1.93622319085902,-1.772853054287965,0.3708291401190695,0.6918327992312837,1.2353082037671048,2.171843855857359,-0.9525144143513087,-6.426542446703548,-2.6871119971718644,0.14159223726108736,3.3303296980862886,-1.6532393260510132,1.1743888634113824
125,-0.9420715473006821,-3.1219365585663046,-3.2617613419878926,-0.7408864819747722,-0.500569535804016,0.5043848494762736,0.9590662320107001,-0.8257470772970044,-5.132491865574235,-2.316653881683595,-0.7691896870210784,1.2048823348554563,-2.349849216382736,-0.39183460938535347
126,-1.9999278423931863,-3.2461385862463277,-3.5738408883942894,-1.4081504824413258,-1.2973673822544527,-0.14246070875408612,-0.17101662652617827,-0.3785804153053789,-2.551023655166849,-1.2827653635291199,-1.234373415495222,-0.7941023468440576,-2.2309724811605074,-1.51628169063069
127,-2.3179119674407005,-2.401774740920096,-2.7764532203156356,-1.5267435740917648,-1.55980463738861,-0.5435486767665529,-0.9648084143226224,0.18639045363012682,0.48665807076702994,0.08186014735789672,-1.2236541379921604,-2.2367159372673573,-1.4404714610360172,-2.00822605896629
