,AF3,F7,F3,FC5,T7,P7,O1,O2,P8,T8,FC6,F4,F8,AF4
0,0.8238569377725041,0.30722080314730815,0.9015044508503743,-0.10258404615457488,-0.2434616581929932,-0.4011221002900387,0.13758579169968876,-0.10580293528799127,-0.26164013262028807,-0.012012781043476507,0.1067140313662949,1.2428097061806975,0.15050918952262493,0.8375185201449165
1,5.986052845602323,4.223809224868515,5.332955099412917,1.7000626794292353,0.6327204352386184,-1.1098039486511788,0.9007592254261675,-0.40901521904081706,2.326076975040294,1.3189031338270714,0.8205503473784954,4.587138647292072,2.342319291786112,5.6938726244556195
2,9.808924777740057,7.031756550936965,8.678884917068777,3.0167877272382744,1.3242963017613247,-1.5601501908193813,1.6208365614415416,-0.46911503127262777,4.384472332509809,2.1543504744847057,1.3069499643146243,7.121038989425772,3.876653255750586,9.277392896746774
3,11.438289922849332,7.988711730338828,10.243779526599207,3.4822470712343034,1.668331750434396,-1.6017814039751648,2.2689479800987655,-0.18085877069456824,5.407041713542515,2.1842796668106237,1.4407208957750708,8.405611406169367,4.37778825021301,10.802851080420682
4,10.549777594268177,6.8772480688479245,9.72739315332297,2.999865109126976,1.6135780879143538,-1.1920686317109732,2.754596239129369,0.39686279310537664,5.128867951453113,1.3829682581845146,1.2019005305557502,8.215503076248954,3.778733360329371,9.967406290478745
5,7.4102653695507374,4.056054262800079,7.27866519183147,1.7655043420135104,1.228249458321591,-0.4103301389242457,2.933458163697139,1.0550139323060923,3.60243498612865,0.019904736989410404,0.6782388033569764,6.570221392724331,2.323694871708593,7.007726249174323
6,2.790603840017596,0.34069170802499643,3.445289015466291,0.19340186049051647,0.6660605880708513,0.5614053977066141,2.6551484869275086,1.5131509906287677,1.1966671097591284,-1.4308861134738342,0.03442517285008022,3.7307201126984793,0.4735151544953481,2.629423708304886
7,-2.240484356685719,-3.245579811782198,-0.9628266957942038,-1.2280236956173405,0.10524485034140264,1.4847237040901802,1.833162838845341,1.5326590773347397,-1.4863194312200387,-2.4524521654575717,-0.5415676432990503,0.16253407752998641,-1.2500723828186884,-2.170395061996331
8,-6.581866522519172,-5.771513935850997,-5.058328870428663,-2.099052287696012,-0.31516123826683323,2.1247877358514824,0.5077017143037604,1.0197239879463003,-3.7607804486497605,-2.662721888422311,-0.8973633834498715,-3.5313332911696635,-2.426477490773657,-6.34167600184484
9,-9.35403257401048,-6.655944419018811,-8.063405108304526,-2.2336437149001096,-0.5376965921733564,2.3079051881538146,-1.1273457924020982,0.07632794584348278,-5.037478971730765,-1.9481623608818104,-0.9610646047615442,-6.701869231089994,-2.8504505217010325,-9.021837831508758
10,-10.079739741029904,-5.808686207921014,-9.457372108425405,-1.7049156296046695,-0.5929869875696733,1.9627989441003342,-2.7495605789496573,-1.02289746176341,-4.986597682323525,-0.507787973385847,-0.7577921879625682,-8.760051095459248,-2.564112074763245,-9.720337494863065
11,-8.754120694684005,-3.6184850653696126,-9.057526502704086,-0.7987905483303254,-0.5706056451008298,1.1371657126583377,-3.9823355405427625,-1.9216270234448716,-3.6360862323578025,1.2077137478759585,-0.39333973879826173,-9.283040338988366,-1.8035783602491506,-8.405724510224408
12,-5.799354709923743,-0.8013607800807293,-7.024832314160284,0.10375647710247259,-0.5684530274037635,-0.012221993658203227,-4.496874189248658,-2.307856621110195,-1.3727340915366306,2.6416615812789805,-0.011769025796736634,-8.10252579704439,-0.8875648356629092,-5.479934935936037
13,-1.9287975970144464,1.8349255179551864,-3.803798513237871,0.670930784384951,-0.6425813010100649,-1.2518295406647546,-4.109475734271569,-2.0281603244523243,1.1605287804338538,3.313469638701086,0.257331780385146,-5.356210137890592,-0.09416923492097282,-1.6540594326047904
14,2.0352429094255853,3.632113485901092,-0.018109345072253952,0.7381506696803686,-0.7782371259384637,-2.318382947513731,-2.8425059005516564,-1.147164028111782,3.246606512051455,2.976896860030389,0.34297921263329906,-1.4868002016609516,0.42747911382755577,2.2358739030099604
15,5.341087353148062,4.253897279921878,3.651748368419358,0.35841902175682033,-0.8937072857405672,-2.9714893334014696,-0.9292600170921455,0.07053758883554943,4.304608480934559,1.7025252810685971,0.25296012974645815,2.8189431212840192,0.681201684463604,5.422177922358365
16,7.444502990359918,3.742326803965034,6.584863839682807,-0.23075054296727848,-0.8752049835963599,-3.042914983348332,1.238863115912161,1.249850448046851,4.065150255480153,-0.14210110072495036,0.0637571379718069,6.746564749952184,0.7813474976991313,7.359541735466399
17,8.080545123297673,2.4516127039814224,8.31304355157383,-0.7090241179509074,-0.6287735945497938,-2.474451278238471,3.2065881466622073,2.0333436503182125,2.654037586402706,-2.007518609623607,-0.11481253842300264,9.507898357986397,0.8685966552595317,7.807524733563913
18,7.268506428764975,0.8929174708385761,8.58161160234069,-0.8042066024334422,-0.1285822934531101,-1.33743035069188,4.562721011574295,2.201408554018888,0.5539067890854336,-3.334541174038916,-0.18604725119438956,10.503703076145609,1.024105637575272,6.832806660309911
19,5.264470121966505,-0.45003332655234085,7.375618065924926,-0.40330835281215627,0.5577108396251317,0.17139056680097808,5.032491082137292,1.7413918987733392,-1.5483555119959145,-3.72762865062432,-0.10584976349099402,9.46020432132555,1.2206870005028592,4.745673669273026
20,2.4844145913176443,-1.2703315833473587,4.913375571955997,0.3973639703905245,1.2774123366751202,1.7599752731351117,4.532307330627374,0.8423266619236133,-2.9823418499128094,-3.07405984936749,0.09984150617638275,6.506752050270606,1.3324416508879404,2.0005618933810454
21,-0.579559784668537,-1.5058138545231858,1.6108697108864953,1.3214600263366323,1.8336627088492885,3.094974362117947,3.1776217285516792,-0.18026782826684454,-3.3120167359433403,-1.5722510003731822,0.3461227105405871,2.1720447302168453,1.1983947589489246,-0.906270649421931
22,-3.434289003311785,-1.3115031559134305,-1.9790248776931647,2.0105900814134845,2.0456793360116574,3.871298058182033,1.2475975456907331,-0.9996953909210807,-2.4779404913429044,0.3371008991731151,0.5240410133385186,-2.7067907846386343,0.7117867659917834,-3.51729447015986
23,-5.645652939712906,-0.9574172017881938,-5.247736297971581,2.155738504333541,1.8083889475750867,3.8831862952693212,-0.8803609863089371,-1.3902663057569071,-0.8143563656854231,2.111722627645086,0.5453829410623141,-7.148112622597064,-0.10548835293810084,-5.463064205349077
24,-6.884791875785322,-0.6974624985666282,-7.62530420080806,1.6149465960101306,1.1314922726583296,3.0792533876444894,-2.80912048498713,-1.2962241606419687,1.066692389115423,3.2727300943331943,0.3794614818927888,-10.230307405355324,-1.079042685711234,-6.48576656596763
25,-6.96390839073298,-0.661711413883904,-8.676449915940607,0.47520074429157444,0.14478870732205157,1.5853402268324919,-4.196897140067786,-0.8350699108589533,2.486245218490087,3.540708178640935,0.06718204069427118,-11.292670902017512,-1.9243748750045906,-6.450279628324605
26,-5.8625826227879445,-0.8114382649352943,-8.182953732130276,-0.963792969606198,-0.932381563982695,-0.3140282812853993,-4.815843691963166,-0.23811800335599645,2.9327028166415516,2.9022052858642162,-0.29325105559574427,-10.086199322527998,-2.343509325890234,-5.354346707531352
27,-3.7405130622849256,-0.9698407664772686,-6.195118894402228,-2.2791737422025067,-1.848303192687177,-2.233714678568723,-4.5855851493229975,0.24599777755680188,2.238884640256867,1.5912779320890342,-0.5832058509383984,-6.837007035301612,-2.14011506356281,-3.3401858256924317
28,-0.9288374570812712,-0.9119260382256985,-3.0377398698146445,-3.058207839262745,-2.385375669035527,-3.772119379520501,-3.5779186252645427,0.44691462142155813,0.6405528584201209,-0.0005739064379834038,-0.7082205624344636,-2.204282109494357,-1.3073194490923252,-0.698834179819825
29,2.107259432120499,-0.47549375251463677,0.7363329289622967,-3.03141381059624,-2.4164676784421313,-4.600092397830717,-1.9938348934823587,0.33166084202700585,-1.3039065762996647,-1.4508827975100687,-0.6325488946516091,2.8601881797389286,-0.05085741602913548,2.1475826501438164
30,4.8362455052418065,0.3512470706646339,4.4406331028698816,-2.1623063700060183,-1.9356427967785335,-4.532136574028011,-0.11897496633553407,0.0071391398312111555,-2.9047940670003727,-2.425943057473902,-0.39027277938614147,7.319233501808263,1.2658480311543274,4.697525658087836
31,6.750810377363666,1.3998489582538862,7.381313498394202,-0.6651798368164132,-1.0561431028415285,-3.563383086569754,1.7321672799600443,-0.33208910430126193,-3.577332243186194,-2.7580219709106895,-0.06937551357030737,10.275355685991626,2.2379618988014616,6.455995034878411
32,7.465093323810046,2.3621236749488537,8.990339190235211,1.0543855434231415,0.02169370483954367,-1.8664256139447801,3.270870759665018,-0.4884123679812044,-3.041902561426107,-2.4627963158676693,0.22386779413590743,11.160231261287622,2.555899736536544,7.0398168344833785
33,6.79751323694213,2.888096461017631,8.93812352361127,2.5174959299367305,1.0618603642973534,0.24684828295538064,4.276377082705837,-0.3446145716345349,-1.4207224859623495,-1.7016188270785917,0.40523229228336344,9.845117025565962,2.112743051115485,6.275237666808168
34,4.819304735234039,2.7084213947791653,7.202155845799941,3.312144109008197,1.8486596666787198,2.3858449124916867,4.618976217640258,0.08581613389433272,0.8002705456103254,-0.7103420007913659,0.44144470799637053,6.64994997133913,1.043173669666253,4.257707518869895
35,1.8557165754674638,1.7397511631730673,4.077602307129492,3.2135438224338877,2.2330509395814886,4.14991120270589,4.263953247772143,0.6601605736858033,2.929463474820206,0.27654472082889636,0.3568498877270481,2.2552560085660733,-0.3200378325856911,1.351670519303177
36,-1.5629796544907337,0.1367405329203133,0.1278326089007915,2.24935727491943,2.159552219456913,5.193807102078057,3.262421125293437,1.1585648398601234,4.292928961700875,1.0817556372557013,0.21652480818144476,-2.455663118119933,-1.5558710330430163,-1.8753648270669845
37,-4.793099095657185,-1.7290746230854281,-3.915752097392367,0.691425068343564,1.6700987100940436,5.2837872474339305,1.7378547471315298,1.3667511958795544,4.448411885410024,1.6082887936277432,0.0940641348399125,-6.583004586043021,-2.291866896578389,-4.771085103941581
38,-7.195978177493068,-3.3608372606429002,-7.286568264668222,-1.0228307394843295,0.8871768323912124,4.341423400167485,-0.12475845469651321,1.1583066168209002,3.3208879596839918,1.8313612546704252,0.03807852098082984,-9.382649278756872,-2.320620108536121,-6.740384258821197
39,-8.262445805186886,-4.27407830733123,-9.325350573919556,-2.4160621008917507,-0.017374837001798024,2.471885561718185,-2.086092131399878,0.5461342884042343,1.2190350940848576,1.7719684863685123,0.05147078174950615,-10.391411031400791,-1.6580599622430852,-7.376063681534397
40,-7.720704409313649,-4.141567398830077,-9.60774261335458,-3.1072534622457293,-0.8598542507392164,-0.03007369198549464,-3.861891064904552,-0.31561302308834954,-1.2674894933515704,1.469138332073012,0.09205832354254098,-9.488343532882494,-0.5276860306526222,-6.546790644571956
41,-5.6060754528534265,-2.902478708701575,-8.033932518502025,-2.9193328897754385,-1.4808429311416993,-2.7063544665291985,-5.144743346373368,-1.1795593487105038,-3.4516310968765915,0.9646930684147056,0.09437923024094365,-6.891170866176024,0.7192784566141989,-4.422737982841708
42,-2.2753396036663442,-0.8013492387197866,-4.861834797231936,-1.927226823507836,-1.7739871111913443,-5.002425493509134,-5.646641731245788,-1.7856418960696643,-4.751549545862908,0.30562060344122943,0.0038715279525061708,-3.098694545273396,1.7176591741746294,-1.4353307563977549
43,1.6435141399383553,1.6590880677847275,-0.6732221743078369,-0.43269419556845967,-1.7033455866998137,-6.3745767145658006,-5.162434947226602,-1.9456526161787977,-4.848875968680299,-0.44109612119917124,-0.19079429857739832,1.2042076888592788,2.1975886702372365,1.8169494175783028
44,5.363389489010177,3.842837474096666,3.726528350375652,1.1263563345374,-1.3071062798376498,-6.422050173051228,-3.641885554388843,-1.6027972281466651,-3.7585706727897894,-1.173825461243017,-0.4416170597449825,5.261662307368577,2.0558811604902227,4.693523998194452
45,8.095045536341592,5.151610645724955,7.460923026282905,2.30503782488497,-0.687276541981426,-5.012437948289489,-1.2468666639673482,-0.8470942896456115,-1.7983183439340453,-1.7559242592619284,-0.6504237401021683,8.36649576017902,1.3713692453025375,6.639512863809471
46,9.218676597600657,5.194601628271216,9.75981580067562,2.7806680787663045,0.013079031839257875,-2.3593494732445457,1.6338011291804098,0.11647320659848347,0.5220556263538494,-2.0382951992710905,-0.702946186104408,9.971128175083713,0.3653060929573023,7.290452469336451
47,8.431848548627743,3.9074776310715964,10.125501650387834,2.4435759026666024,0.6412467298575114,0.9843370898871452,4.4322670666849096,1.0338770146937166,2.648766243515349,-1.9028748354992562,-0.5171680912381459,9.77727377217171,-0.6753262096032343,6.5354026192120545
48,5.836340116741423,1.5834573724374155,8.449475117107664,1.4229496826730617,1.068889366751439,4.2339636371509375,6.514704910539733,1.6782710851179605,4.122506928346719,-1.3134939499022067,-0.08783624241311358,7.792369018042197,-1.4844697709930614,4.530095292282354
49,1.9374357437256664,-1.1962561090427795,5.04964319071759,0.041144370308297935,1.2211289751177556,6.565682955989369,7.338137080639626,1.9112886206225834,4.671190001998873,-0.3531353113634543,0.49225787239665236,4.341651441670541,-1.8866597619459278,1.6618753432216398
50,-2.4512949309564354,-3.715973242058765,0.6142176626755539,-1.2881749755158944,1.0931550634509475,7.345567397845197,6.608888374228121,1.7116285536196738,4.242124429359665,0.7726247265391539,1.0472578100413539,0.028180309151527565,-1.8313310044401236,-1.5241081209924792
51,-6.381274768087592,-5.320639020221111,-3.9398126394777675,-2.18570463904793,0.7490625198784624,6.325884721734112,4.3917820231962175,1.1660369044623236,2.980097917826986,1.7761982981259716,1.3698349761605455,-4.3601122084866955,-1.3867474086849443,-4.423611176868144
52,-8.982647532765867,-5.596675495286786,-7.664237954430283,-2.4170496162484105,0.30202533396342723,3.740944662762746,1.1279939893906898,0.4308683895062894,1.17136618883102,2.366416512042152,1.2949256114458512,-7.987227571763113,-0.7018796787342525,-6.4814132143341885
53,-9.668009580044943,-4.485712746038597,-9.78840959421908,-1.95497475208959,-0.11950173508910049,0.2618124689480975,-2.4549928578306295,-0.31908226429106146,-0.8240506204673532,2.3420505691732494,0.7699929163328445,-10.129145056675963,0.04659723894413867,-7.293058794190894
54,-8.275282245672006,-2.297635557330676,-9.88977071968132,-0.976228270600689,-0.4098827353806967,-3.1860373734594574,-5.523296261802277,-0.9363776202331044,-2.635966524171754,1.6680302847050086,-0.10611349075966992,-10.326620017771086,0.703250146514228,-6.684481201083139
55,-5.1118717562144615,0.380788006039915,-7.9847104242301965,0.203244134930195,-0.516686677143295,-5.690609172934257,-7.356790640380766,-1.3284905682507844,-3.9375611577213747,0.5042311688212268,-1.0950025029235744,-8.495867358399014,1.164920100437959,-4.754459118589779
56,-0.8861110070950439,2.8541142125730303,-4.517607446349166,1.2318218864922872,-0.453035246256578,-6.622858018574312,-7.5433740109886935,-1.4632005713334753,-4.489860381059595,-0.8288151297328584,-1.883332017745956,-4.966559302344059,1.389054242690318,-1.867792956925384
57,3.4591702801403588,4.512696086336833,-0.2515782803372416,1.830447622940238,-0.2872872637984797,-5.819538321315784,-6.086846329935611,-1.3566420728901052,-4.1789378899365,-1.9410127999346416,-2.1823841266551973,-0.4304756563973233,1.3835013294477891,1.406018941003987
58,6.970031230987537,4.995548953395013,3.9106249513116755,1.8716133539491802,-0.11343032900836189,-3.61832608311403,-3.394758673857487,-1.0539362262009504,-3.042934772944977,-2.4931110185215237,-1.830108332289588,4.194788914347785,1.1872780149407116,4.4026794657281485
59,8.905143493266182,4.2745275889050385,7.130025728968449,1.4059627795381682,-0.012921618708106207,-0.7339043938304333,-0.15164139431784895,-0.6123807342690445,-1.2800921175704203,-2.3067362530378372,-0.8594759195797704,7.960017640053307,0.8521034059842155,6.502350422417313
60,8.902870753805418,2.638116400699231,8.809176551904082,0.631124923761098,-0.022449974985053838,1.9814929919839805,2.8796498503644217,-0.09293056806305411,0.7729896207815657,-1.426219009097991,0.4934954741280161,10.092207198721205,0.4307014354021105,7.267850205795349
61,7.050265490347701,0.5848191986024913,8.703502653051132,-0.1838757297076981,-0.12034573506177546,3.8098994084431306,5.063629385725509,0.4403308103960233,2.6985527975591674,-0.11003095067693999,1.8489707975603078,10.165882919556164,-0.027399252363235555,6.547099653826379
62,3.839701161642578,-1.3362005010024671,6.945156515832098,-0.791595727716498,-0.23741763732101437,4.378867750758345,6.0410649154022495,0.9178654659194895,4.08460407878854,1.2465536164005961,2.793702673016202,8.195638523925677,-0.4757403067585132,4.511000635587953
63,0.029612652800623647,-2.684865166828886,3.982175623280884,-1.0450728025229916,-0.28834059953644464,3.7430864949215197,5.780403002588755,1.266099749614067,4.622625006714934,2.2327153883339474,3.0085045364887817,4.627440549736931,-0.8705442777317052,1.6137087798858754
64,-3.549057647099543,-3.24074999737282,0.4565911163667689,-0.9371770624445703,-0.21118111257973543,2.3157297251003826,4.527296631654236,1.4168078610500858,4.188532128582765,2.5480490967404874,2.372082055114606,0.23215968517866542,-1.1722599963742006,-1.5162738876863273
65,-6.1870105858036,-3.0338348533992776,-2.9427832102338924,-0.589109050636071,0.0011921322020182058,0.6836685943882084,2.6831037020282915,1.3237991065126853,2.8803266135917927,2.0933010869798743,1.0076133809827494,-4.070762460175771,-1.3484480139591293,-4.225538041709011
66,-7.441684822986687,-2.2930204808459544,-5.6163433794264765,-0.19424924660550114,0.29143459887285483,-0.6187871083048432,0.6645248679260254,0.981323407926143,0.9974923466500263,0.9985342133112733,-0.7433787608342419,-7.415505353353777,-1.375836796206267,-5.985203866873703
67,-7.201752708343762,-1.3376231464545676,-7.151108437517836,0.061384764424645744,0.5551436287898998,-1.2915640532716164,-1.2034364323172886,0.43605626775076894,-1.0343005084540302,-0.4178432968498393,-2.4125311280583555,-9.170147127994511,-1.2401562726443058,-6.500709325412877
68,-5.665223358851903,-0.45471643330848566,-7.367090759496698,0.07309658041864105,0.6799414668036889,-1.341302589767443,-2.7290520877331104,-0.21436859335151,-2.7713740411599868,-1.7442673268375108,-3.5344265109189443,-9.055892203518853,-0.9348967193715008,-5.755830399147744
69,-3.250195186827331,0.19287456204826806,-6.315240323252794,-0.14100778208917328,0.5917028343448789,-1.0253487376202015,-3.8289215589159706,-0.838894911445699,-3.860613287303855,-2.5953415595654445,-3.7769363290346,-7.183672710994114,-0.46248330122719766,-3.986127041482211
70,-0.4733925878790202,0.5971328147269664,-4.240022169004368,-0.44663614684519226,0.28965950046706446,-0.6991854978577082,-4.464431424319943,-1.303299514976472,-4.117042014310803,-2.7203744993118684,-3.0354487109282053,-4.007402591227498,0.15867026711526577,-1.5983060598086585
71,2.16553135994589,0.8678254379439627,-1.523016704209317,-0.6467251831484436,-0.14457823023470368,-0.6362646999090937,-4.582509884990024,-1.5046875598195482,-3.5510832651445643,-2.0717577726149754,-1.4656541260405558,-0.21148441701293044,0.8811208764009116,0.9344126074273251
72,4.265951553697769,1.147991257195916,1.3792457408098138,-0.5632931531344493,-0.5696621000218838,-0.8977416477224461,-4.0984258714956985,-1.3994939172333443,-2.343897888833904,-0.8166245020742467,0.5530527329179157,3.4382432740207993,1.6147835426434394,3.169351564664801
73,5.564265161590866,1.5201227251062706,3.9965081600432963,-0.11802573777116948,-0.8323279076312212,-1.3066630851369898,-2.9355028661065137,-1.0158223830976338,-0.7853311484917874,0.7091707446468503,2.5132604756036945,6.247556872545251,2.2227997889651383,4.7621475195571
74,5.935445962453059,1.9443286365485748,5.903992925609265,0.619425673154363,-0.8237548241124151,-1.5362367759440558,-1.105927019718078,-0.44583285774151793,0.8022866354490029,2.0913853354950014,3.909427831209566,7.722013660244264,2.537206500109607,5.4992607895917285
75,5.376259227981269,2.2565800523194315,6.780055807038717,1.4366087063728459,-0.5235680506768619,-1.2732427669850908,1.2080895157054132,0.17964657796932887,2.1320380113831914,2.9484178991190335,4.3690398933463905,7.649391971365789,2.3987590454199355,5.303230738479055
76,3.9881018132591444,2.2305685392612307,6.459486574944575,2.0398054400527768,-0.014145531554097585,-0.3852756888991124,3.621035188031674,0.7263301239997791,2.997783145044867,3.0347461697292637,3.7518475599563272,6.12525565925763,1.7143133101737622,4.224861431599105
77,1.9680628509192353,1.6801483296869686,4.973751157093665,2.1541515662845176,0.5417964351615091,0.9823434159715554,5.592406010355223,1.090493774359499,3.293620152928851,2.3099972947600027,2.1913339421827382,3.5201472322360856,0.5136049662616348,2.4331712502396474
78,-0.396118649784042,0.5612044276040505,2.56495345007246,1.628812382525153,0.9539773922208584,2.4261715342230596,6.558340294707475,1.2215205443403883,3.0126656878192346,0.954473697549746,0.06609192839180188,0.39599238027385214,-1.0191163584466143,0.20430890519145606
79,-2.7408193590324617,-0.9705102681116882,-0.33898636442427327,0.509067197277146,1.069847494347559,3.419416422070188,6.1114307859513985,1.1269451918383813,2.233855262537605,-0.6753016303909738,-2.093965551087413,-2.612340793886074,-2.559804058677277,-2.0988713835442767
80,-4.665029369481281,-2.5740762037492995,-3.192875813612541,-0.9538296106372897,0.8293746710310106,3.5126547434446826,4.166996313421816,0.8602057797338695,1.1038655586185222,-2.1417649711616744,-3.7443398340415617,-4.927458804178716,-3.713068205609869,-4.067996929393146
81,-5.797179813235534,-3.8122440708959333,-5.438725830500684,-2.363860119441319,0.2894891816308933,2.5224145976745493,1.0497833127655518,0.4972216049440346,-0.18306593523838546,-3.047940165986278,-4.470414440927501,-6.145155010956232,-4.121462789399255,-5.316348507133888
82,-5.879703819649411,-4.287248805744368,-6.62496468575284,-3.2965491095096,-0.39111156360298416,0.6314391917589331,-2.543389259244436,0.11131506369152684,-1.408573718135501,-3.151434933687547,-4.09993951699361,-6.110105190765278,-3.5836485486249026,-5.563866777074769
83,-4.8469834779139545,-3.7769675004407364,-6.510641392199735,-3.4338446404944034,-1.002051323942011,-1.643406671389791,-5.708616446343738,-0.24436234449131702,-2.35916977113839,-2.436231361621697,-2.750358403141148,-4.9340264290876945,-2.140094662880586,-4.717759729682917
84,-2.8672178686168577,-2.3223980735772,-5.1253688736844,-2.6725410262775324,-1.3491598752179292,-3.6096821715058742,-7.585217237048512,-0.5416327640662403,-2.8609182452220505,-1.1182714806822778,-0.7949705722881947,-2.9522562043722314,-0.09076937494680326,-2.9194536327286835
85,-0.32600389863832197,-0.23343112352315296,-2.7662471571288796,-1.1683946807248355,-1.3169434210466615,-4.630067641898509,-7.615182623115744,-0.7698566153892016,-2.8153798016239437,0.41954765569638874,1.2443812362709328,-0.6307275902785832,2.0700909545512065,-0.533805849499083
86,2.252631841766244,1.9915996639509814,0.06952102420868922,0.70107445796421,-0.9046884304287561,-4.342680087050868,-5.7268396098170395,-0.9220906870297554,-2.2279348699777057,1.7445393431609209,2.8473034284980607,1.5509847839880646,3.788212496916337,1.9264457573276348
87,4.329992598365913,3.806841250145606,2.7990642074688985,2.44477589548451,-0.22485712786776493,-2.7911494094375353,-2.3785037090389167,-0.9832565003276814,-1.2176501270800164,2.5069656885033003,3.6421488136457216,3.2083594656939,4.612293502216632,3.9251191690855016
88,5.486182972658844,4.773901107917966,4.884877062471422,3.602796968319056,0.5342983265799751,-0.41709321942898453,1.5582460804427665,-0.9275259332584358,-0.0002914816178874978,2.5451801007964834,3.5049619753040906,4.1236189424543195,4.332335103179108,5.040547586657908
89,5.522770361927165,4.68079613032032,5.948526799702438,3.88093875884352,1.1679393389358794,2.082426576528068,5.043702394334636,-0.7276417566815591,1.1568580934101844,1.9281204700720678,2.5794552724138757,4.2643083793183445,3.0455914335358534,5.074060193744041
90,4.503135654288704,3.588857147698715,5.840017941565276,3.2320463360362295,1.5151316035305413,3.981356613780464,7.16879319523949,-0.37300971768622315,1.999922563775339,0.9207741675764606,1.2132079852289381,3.7502124381566038,1.1259192374726323,4.094026570664438
91,2.7194369634437026,1.7974923545477017,4.650129044041219,1.859558605104449,1.5010610260550346,4.754930547032136,7.414347835201878,0.11140811634304974,2.3557376720265375,-0.11538096864214598,-0.16684153615830696,2.786350943769865,-0.894637485220947,2.40174586815049
92,0.5994446454203634,-0.2555047396193466,2.669494804756974,0.14513161698019875,1.1491540251760566,4.234698601100096,5.79041664325501,0.6550361976079404,2.1801821594424293,-0.8520842665539478,-1.1963311048064014,1.5890987299701689,-2.492556519160277,0.4320630091461292
93,-1.4142529863277935,-2.12087183096004,0.31132714077860807,-1.472755569231404,0.562602921636582,2.6390392454900593,2.814605718385874,1.147745241311067,1.5697165209907726,-1.1082230154246357,-1.6842368007602115,0.33168185123633537,-3.311445027297181,-1.3764579820617235
94,-2.9730384563952037,-3.449900588052208,-1.9792099259353904,-2.6273587030871046,-0.11464913764368881,0.47638783736431817,-0.6591202923481682,1.4635841847761548,0.7292176454174192,-0.9071544079794288,-1.6554858390640943,-0.8749686674093838,-3.259243036236273,-2.697896151026728
95,-3.886679481608913,-4.059730400678422,-3.807519516367753,-3.1176300514070365,-0.741465858172958,-1.6363987842813041,-3.702220661824119,1.4966731433384814,-0.09572447000568012,-0.45642702516218403,-1.3130694397348386,-1.9656498050487525,-2.512750615214553,-3.3849800863660984
96,-4.12941241201779,-3.9403170574666677,-4.889640936702124,-2.9403454799091016,-1.2122052513965575,-3.1710756985315087,-5.578498049729976,1.1980514600564993,-0.6999826699308636,-0.05674258461236684,-0.9362924277358613,-2.8831494452639173,-1.4311607008082978,-3.4680203524728244
97,-3.7959039219439967,-3.213181709377548,-5.084510696041834,-2.256344354054371,-1.4695769110458667,-3.831311255662717,-5.933518357401911,0.6003259809932106,-0.9844624417041736,0.026913508475660403,-0.7548508594892459,-3.5423498695948523,-0.4122876895564492,-3.0955351089897714
98,-3.0326857125013174,-2.0670030224505926,-4.400435915068487,-1.3100491628407154,-1.498115844287567,-3.599255493678791,-4.85395480180895,-0.18017775648807963,-0.9806818195108078,-0.31601602644340715,-0.8472708464620338,-3.818051522480199,0.2550922497358072,-2.4464453369919985
99,-1.9768734739932046,-0.6985142445579489,-2.981570833890063,-0.3363649238044114,-1.3070649549249584,-2.6827948396429595,-2.7901328906836973,-0.9671382866155691,-0.8233558997139582,-0.9794691349827724,-1.103549680273373,-3.568146587309904,0.48878189688853835,-1.652536803107484
100,-0.7271064882069214,0.7209583180381065,-1.0803171701353902,0.5093887874666623,-0.9151862411794969,-1.398927617635868,-0.3801378834296288,-1.5685595734897848,-0.6804486642960546,-1.663013570313351,-1.268435368312914,-2.688251627816167,0.42528786598463336,-0.7631815984570269
101,0.6451433516681989,2.0482099800771723,0.9803647362630761,1.1747930680732197,-0.3474884432138299,-0.0491807404928052,1.7574278102550063,-1.8291098385478448,-0.668782348593611,-1.976796253926364,-1.0517078272865306,-1.1789219641007835,0.3427655194414739,0.23521802100033282
102,2.0553941258039443,3.150525968957924,2.852511069494968,1.6836622329120967,0.35384541040307815,1.1614448031571296,3.191591709660398,-1.6746156629100655,-0.7918204582595444,-1.596372562467362,-0.26566784824872697,0.8021336949697444,0.5243645141700883,1.3571812200570115
103,3.3629367838144466,3.8873874506254897,4.214229336683361,2.0770780482727327,1.1113868235210072,2.1365514428189782,3.7590510411359213,-1.1348455397362853,-0.9297131146525586,-0.4130574740642439,1.062693073372004,2.9291554791858103,1.1148112571375683,2.545292174293692
104,4.353379633811289,4.1106632605614655,4.8216583310408305,2.352943214922886,1.8007508047740068,2.841211356031639,3.5438365915636267,-0.337331443622608,-0.8911479237240709,1.378176866603221,2.6516079041819776,4.753609025595812,2.027592490668234,3.6249574141122722
105,4.76594406173866,3.6927064135319827,4.554061586741329,2.4351207861674085,2.2588135095175903,3.233700306163463,2.7818893885388416,0.5260859262580602,-0.509393038451679,3.2942678149744293,4.0202955709947155,5.802285767088727,2.943696560018328,4.31574830467155
106,4.365598133292736,2.577200165423122,3.4424984783462236,2.1904823514249956,2.3182832232296633,3.2228611876439266,1.7402015768293022,1.250064428316164,0.25748225091172033,4.690853986765723,4.631312031564119,5.705858183628664,3.4106208934386313,4.306049476382001
107,3.0393854350675036,0.8342740586757548,1.6736532940616338,1.4912911307048218,1.8630664937245802,2.6830613242623476,0.6229441896370271,1.6690893720401998,1.2691380131741772,4.968697510627224,4.078042868654675,4.322032714320659,3.012989272611501,3.3709120574704894
108,0.8817970784532794,-1.3052316828419877,-0.4353493080215006,0.2992971566137829,0.8868675263823775,1.5271983812207706,-0.4615791634799376,1.6982987563812797,2.2215536786116368,3.7957870518182286,2.2555325382152573,1.814145945541327,1.5565486195689648,1.4917398716168049
109,-1.768302852721964,-3.4585414961391536,-2.4892207255518253,-1.2649497088815265,-0.46910998480934724,-0.19543052031938302,-1.470569813057874,1.3510887833515288,2.7446284811873554,1.267831894176479,-0.5479489496906164,-1.345391559622689,-0.803502333095183,-1.0708343312369997
110,-4.365023718913273,-5.152912848125529,-4.0859189917420515,-2.903090824123922,-1.9208082604697425,-2.2292670197184568,-2.360647047715438,0.7300008032921894,2.5466211970072794,-2.0576596473169246,-3.680586595611034,-4.458682193382443,-3.5456849423248884,-3.788986713358706
111,-6.270162670504536,-5.9333725659436665,-4.894832839094731,-4.190169256736028,-3.097463796091579,-4.11883101599061,-3.0299154137306075,-0.0048549026968616295,1.5487637665450054,-5.281638020625474,-6.282985930327598,-6.760563198390869,-5.898149270301541,-5.976718044669318
112,-6.9214566099344825,-5.491168086105038,-4.727303291996379,-4.690425011772311,-3.640106951450313,-5.310619271887925,-3.3071563062404237,-0.6796449627475257,-0.048571078914183476,-7.415036132894831,-7.533146760314875,-7.615669281381445,-7.062935204120836,-6.974307793796918
113,-6.008206132387858,-3.7760379952925285,-3.585213549871529,-4.105368237735399,-3.3154256492782053,-5.3281223496004415,-3.0032051648601126,-1.1502233771585837,-1.8034919750752636,-7.690044342341706,-6.909260028779712,-6.702786485421819,-6.482693987706938,-6.35669502637999
114,-3.598447537024846,-1.0538957183626794,-1.6755198554975665,-2.404061233149045,-2.107711441633537,-3.960474164890619,-2.007177957612171,-1.3337458966303002,-3.169107581408528,-5.831358749203424,-4.385869076631723,-4.132245792865264,-4.061615910519562,-4.09880266789574
115,-0.16966449491211605,2.117740089179258,0.617148240953458,0.11559199146345527,-0.2537944035676318,-1.389721511966521,-0.38391604677744146,-1.2215442226546553,-3.682958466187548,-2.1916925643786254,-0.4927084962592745,-0.45493545341256103,-0.25876181020528405,-0.6367267217561998
116,3.480050060057262,5.002782778547647,2.8007806435598104,2.8678266705667435,1.7987436058106545,1.803750729820468,1.578677600172437,-0.872174847658508,-3.1387683851871513,2.306141404205111,3.7957671484964868,3.451680913099709,3.9922545270542287,3.208707837785656
117,6.427540640141983,6.867258618746054,4.380422603948686,5.122903191260338,3.5053923424650835,4.777088257061763,3.4079486947905044,-0.3889921322094767,-1.6729847177158064,6.416780330434994,7.319270169406739,6.600286281427499,7.527957298557313,6.4372669443504495
118,7.877705447607002,7.182090115408528,4.976850557205688,6.217519834621489,4.3804522315431065,6.668881671216624,4.571960107084965,0.1098887759052527,0.2707085600722771,8.940617524669902,9.067605433224609,8.159501887399458,9.297462177212596,8.150649789199656
119,7.40067789895527,5.788763271778343,4.430401042675248,5.767272707728809,4.147243954699327,6.873852000492783,4.65503743242996,0.5205107814869059,2.0890946019905363,9.09821433009016,8.491525945659125,7.694031582822024,8.696796513162125,7.826155329837628
120,5.077058356548708,2.9726220150757703,2.858292486124745,3.8090035302236074,2.8331599513834353,5.253555481089432,3.5197476403049195,0.7738178498895184,3.225801808428336,6.787414189301371,5.68759981263518,5.304636859613169,5.783521480722248,5.493690990756305
121,1.4981164371314841,-0.588371449792834,0.6415261004169215,0.8186631340197883,0.7749592320164472,2.2055533129333846,1.3895777403399916,0.8445388475228817,3.359912301452536,2.6335203317877647,1.3914414511597963,1.6179484930799388,1.2929205685811695,1.7520265408351194
122,-2.3888080795484576,-3.994622502197907,-1.6642234171040453,-2.410597593384265,-1.4721456865161138,-1.4397610395552534,-1.1883434368019563,0.7483686377292617,2.5076221998784134,-2.190525433701356,-3.2266497404887047,-2.380115335753777,-3.5603603658946,-2.3906103785812025
123,-5.548974613079149,-6.371335080453908,-3.474987467528183,-4.997761569071326,-3.2960209422470723,-4.665821509699671,-3.4975596197113745,0.5306709253022126,1.0019771846989254,-6.319908652072569,-6.904642632681026,-5.623470978056577,-7.4392720368348915,-5.808418699871382
124,-7.161955638841095,-7.117872181791035,-4.341580789947339,-6.2392713711497345,-4.209500790447924,-6.580442337271267,-4.875453901106376,0.25140239678666415,-0.6374009511180059,-8.615127276885415,-8.663563639326735,-7.274334733781092,-9.287809102308058,-7.592455005066865
125,-6.8606792595149235,-6.081926026151146,-4.07869958664597,-5.823427312372777,-3.9942434614494076,-6.687576103883936,-4.9283569914193395,-0.029309298739019937,-1.8920844522035745,-8.50432376682586,-8.094474402475914,-6.964332597232172,-8.649670037365693,-7.319979046627786
126,-4.830083110941216,-3.601321147589613,-2.8167482395354555,-3.9219448229711134,-2.7600673716123025,-5.030654639152518,-3.6616063742588816,-0.26200870531643855,-2.4189597303047288,-6.139887671953137,-5.46579239216603,-4.890750990847263,-5.797140856460478,-5.170508620462962
127,-1.7335217563403627,-0.3980069813353692,-0.9570830334191389,-1.1278315989139627,-0.901422061007022,-2.162299458237977,-1.4769876639944346,-0.41413367682487506,-2.1489896315585,-2.322210685340245,-1.6187346744001267,-1.7372925596985889,-1.6287990031332409,-1.8513763365175966
