,AF3,F7,F3,FC5,T7,P7,O1,O2,P8,T8,FC6,F4,F8,AF4
0,0.3794539404928701,-0.11560311142687645,0.382676109483752,-0.2804973362943935,-0.2443103817855914,-0.3358433511373276,0.3626546588503518,-0.01742672209025347,0.17883405348828094,-0.609432672338693,-0.4398940015116279,0.3579866199033083,-0.5312792446330878,0.22939301261782805
1,0.7838103614181646,-0.8306704448638111,-0.09199614264626713,-1.9921734723086477,-4.083274239841797,-1.0086590330144811,-0.6965632532940464,0.34276595390433146,0.8456052922650784,-2.9442021178727034,-4.194648946434029,-1.4723827172773563,-2.522730560137212,-0.17374355851321863
2,1.1337972129498568,-1.36151391690343,-0.4117549438834338,-3.20667819707185,-6.8817011877575505,-1.299307801581267,-1.3600776341663317,0.6677918062295156,1.2229836438345223,-4.533340591929647,-6.922469048338389,-2.688890142588126,-3.983243018856098,-0.48133176596477756
3,1.388715684734991,-1.618504758941891,-0.40648081066460157,-3.636078893031892,-7.94089175084101,-1.104524896121927,-1.33695550319986,0.9136019996878264,1.183410190727399,-4.959000507707481,-7.967395611324887,-2.843353687153203,-4.6133560938471145,-0.6297992479301603
4,1.4608678255193148,-1.5807840123194556,-0.07447499052461104,-3.2097970465330894,-7.034803471313786,-0.4953790443943508,-0.6059246265325806,1.0365489540896375,0.7607111863478432,-4.128539455875936,-7.129885146041093,-1.8877574420894148,-4.310999137427295,-0.6357300877967811
5,1.2453620988907623,-1.2878934764324357,0.4165450395400609,-2.080022599763465,-4.457509486798469,0.3091521628147347,0.5746647367895265,1.001870289607183,0.13454520890784283,-2.2905649167182918,-4.699695362819347,-0.18479100213081306,-3.177408419587435,-0.5762160364113496
6,0.6772908632382462,-0.8159741546556087,0.8032179703109729,-0.5625224754432334,-0.9233869731623053,1.020254984248464,1.7568743147914205,0.7950349241540419,-0.4424079689811719,0.04951350894269323,-1.3478588891439087,1.630781848981679,-1.472487033847983,-0.5392321455684219
7,-0.2101641606075606,-0.2507743359267621,0.8437463054303528,0.9631845855528774,2.644785910544771,1.3815836227588583,2.461886567948581,0.43192261457723213,-0.7460845434540533,2.2836141710842077,2.0803882582322726,2.8858960460784058,0.45943906207646795,-0.5686320497025819
8,-1.2570733930259737,0.33090653718953034,0.42967338699570945,2.1594168555939217,5.372903538231919,1.2599742375128602,2.3527436557877666,-0.03676517988464222,-0.6717256681655651,3.8735096451379696,4.801657335864674,3.1112931834176405,2.26708977220623,-0.631659005986964
9,-2.1980676089459164,0.8656305320955601,-0.3543625909178832,2.8089680813769653,6.661448306452546,0.6927092083605939,1.3617135024258078,-0.5301971525644117,-0.27764880179892776,4.488203255495808,6.286514831262865,2.205097720881807,3.6518413383625368,-0.6272890738571857
10,-2.7340812115166906,1.2962247803226874,-1.2486013839155097,2.8473735352298712,6.318584479435639,-0.12546118349820878,-0.27189187691824906,-0.9517690887830524,0.23625298899130065,4.068395832090209,6.356488845707588,0.4624563146416087,4.400908335120822,-0.43499271013171475
11,-2.63286278062178,1.5625279147193054,-1.908565035059916,2.3478127520370218,4.571199225883104,-0.911237827343749,-2.0676275056307167,-1.2103538457876808,0.6086502775770071,2.807418174701804,5.17153582554798,-1.5340029094877932,4.398803985166376,0.016307147871255576
12,-1.821735898657383,1.6010097104992278,-2.0338701265509225,1.473763100696445,1.9631574208760265,-1.3934560284701358,-3.4530736685233903,-1.2429756885156176,0.6257972330709294,1.0660107711952618,3.1306962839916195,-3.1185087887831964,3.629385599532366,0.691098437114028
13,-0.43527215212771164,1.3597718591375938,-1.4862524168257936,0.4224416213551742,-0.8181210882485501,-1.409694649512256,-3.9479857467502493,-1.032392360124796,0.21719244013778585,-0.7428734841641295,0.7327896300746803,-3.7659500993470174,2.179337064626385,1.4317588895136584
14,1.20503791909104,0.826473493206673,-0.3517265022344721,-0.6202196448936029,-3.129830193434546,-0.9638500051811376,-3.323458574207398,-0.614119042840402,-0.5010831037311756,-2.259314288117797,-1.5522324587605316,-3.257763917278514,0.244775134544539,1.9982090019492174
15,2.677353987325881,0.057370677575752045,1.0767322648845448,-1.5025520942201476,-4.523153116234276,-0.2232141901837454,-1.68420778911811,-0.07030497669118847,-1.255897989765958,-3.2427110719212937,-3.365989887589857,-1.7382497856096246,-1.8687545677264086,2.1523809502166884
16,3.5850373297750884,-0.809370541203092,2.3894894947566105,-2.1103944144956017,-4.819492795365607,0.5446468469758602,0.5529065398625903,0.48832931129938145,-1.7128240513026356,-3.5897451542720975,-4.488933644956509,0.3483372322405225,-3.7692964363161074,1.7557404433414698
17,3.677902071000777,-1.5702658804060117,3.190250896994088,-2.362252948921112,-4.105966917068616,1.0724777556150384,2.7775052442703547,0.9477999042338873,-1.6053918438836843,-3.3141523529447796,-4.8268190376719184,2.4081082223787837,-5.037623959046204,0.8390254294494492
18,2.926308187698737,-2.006545115942121,3.219377865474569,-2.209687339976661,-2.6671898538552767,1.1938176451924,4.364105323986129,1.2166761972702635,-0.8500766949950872,-2.509849302035428,-4.383354288196054,3.8779010288233584,-5.321693514042744,-0.38831646866717495
19,1.522595464934227,-1.956046142811385,2.4292657816359733,-1.6497827022726193,-0.8851482179259943,0.9046434110624305,4.8549503033658725,1.2457112618812378,0.3984895113610413,-1.3185711470571373,-3.242434139181212,4.376351819504829,-4.4460557476240385,-1.5981835570443412
20,-0.18801856429252933,-1.3821763753235274,0.9907408442463904,-0.7456274020237946,0.8592087707230285,0.3611670546391812,4.091975125849582,1.0366405141279478,1.7778111078729415,0.0870433683334587,-1.5677429547972457,3.785572425028502,-2.499717616898932,-2.453565776371154
21,-1.8183661537941844,-0.4104865337407217,-0.7644533908528169,0.35875528506120663,2.2582875169621026,-0.1869810513420567,2.2599596939993805,0.6388083916826474,2.8282579336256917,1.5077598261759255,0.39077234315147297,2.2531137760563578,0.13757779224571698,-2.7260198542151195
22,-3.0489585814827884,0.6889467719557897,-2.438908001394779,1.4451498150308282,3.114514809949156,-0.5030530311901958,-0.16891244705484912,0.13568468227179137,3.1485765765356026,2.7223110797831955,2.3047682328478327,0.13089598315340892,2.856808298151416,-2.37373538015935
23,-3.696995791481772,1.5765038136411116,-3.6681077705054643,2.2591693169992397,3.3456920271366686,-0.46647515814707413,-2.5693088120539995,-0.374301071737771,2.541996682642295,3.506443960568536,3.8080089503828165,-2.1180077061675306,4.966404628342823,-1.547954078255139
24,-3.7256163308020676,1.9553845683095392,-4.194034263220087,2.5757015789813544,2.9714427131369368,-0.12944921107060212,-4.334230492971812,-0.7975113669052966,1.0998721300898104,3.672881433552852,4.5722312327373995,-4.015200044824258,5.888289920097572,-0.524877688169696
25,-3.201722392616283,1.6829877892540384,-3.9013103800846713,2.273263144440132,2.0935982254234853,0.3000636187407755,-5.0341108853481735,-1.0613185543174963,-0.8093476618766775,3.1255063611553986,4.400273618350288,-5.148069173480763,5.342335666556673,0.4081680715519967
26,-2.233000310318938,0.8378264841846438,-2.8201566484221043,1.3897733433461052,0.877833379146506,0.5466543121229229,-4.520905691547413,-1.1245853436123388,-2.6450343383524064,1.9090164265561658,3.3027890142343153,-5.232857829427677,3.45365166145352,1.0634253300768493
27,-0.9215196723777874,-0.28945302965808295,-1.1101528778949405,0.13403482840126746,-0.4636568451740753,0.3941613504077009,-2.953039775293086,-0.9820928602082681,-3.8595019381059923,0.23049845285154696,1.5231713402984188,-4.163760400754193,0.7373084250698636,1.4120846432757554
28,0.6407866538777753,-1.2860766684142513,0.9621814825859566,-1.159501208472299,-1.6937930122619154,-0.20135000162457586,-0.7404317605629279,-0.6637060493276453,-4.068860799348195,-1.5649262059179374,-0.5097945103814976,-2.0493745442565143,-2.044984750152582,1.566287880497082
29,2.3348397549151363,-1.7619580716381,3.048245755562869,-2.124560437136309,-2.581928087550238,-1.0631541802416162,1.5701939469605706,-0.22919596179135407,-3.173716389640982,-3.0672656013780397,-2.2955344795716877,0.7719259645019172,-4.115820964215794,1.6922699313666112
30,3.9619153933514397,-1.4989806974137483,4.75144034215588,-2.477412722396233,-2.945122166364306,-1.8379273038386628,3.436272858515072,0.24079592822771498,-1.391683162349382,-3.9076818244314073,-3.4080569812074404,3.754968830488031,-4.925806714066304,1.8953967204550113
31,5.2168114554358915,-0.5479184418048043,5.681284610558986,-2.112801550139249,-2.6921103232413985,-2.1236776537808963,4.449965899689868,0.65743717880216,0.8063193667839892,-3.866221353554261,-3.6251557519896394,6.225925139591251,-4.32646096495677,2.133241724020106
32,5.721370526870284,0.7685349080627947,5.531786739507441,-1.145810588396768,-1.8566791590480136,-1.6369200941678617,4.427528833802228,0.9393371131177671,2.833004799694421,-2.945096038128971,-2.993004944181682,7.518691688193801,-2.610615984653343,2.2035302435087982
33,5.127279677030985,1.9554130240791388,4.173112122819162,0.11857195877948427,-0.60609732205204,-0.35403924628499006,3.43889995998299,1.0291611407207002,4.1505444515641905,-1.3795379970098858,-1.800464900215362,7.148791956628188,-0.40429516528164805,1.822379585384423
34,3.2619985940885385,2.5180410231698254,1.729402168828095,1.2810304910904315,0.7845410501426574,1.4336518578800403,1.774056377941755,0.9077366538668845,4.41550782068306,0.4224142156490909,-0.4705894647941644,4.979921595765713,1.5529822607621906,0.7672770913645506
35,0.26285192231165183,2.1480945407601917,-1.3921700213500834,1.97759737790785,1.991066848049714,3.182422602882293,-0.14240151114872537,0.6013539812781525,3.563705482437444,1.9958376595368674,0.5915664028353648,1.3258616230065823,2.6620809373094603,-0.973853416090181
36,-3.364042468837779,0.8549322414594924,-4.548793499217915,1.999262417223765,2.7195644129316987,4.263895193631534,-1.8649836078164808,0.1787110674394172,1.8168005425678864,2.955166183210197,1.1384965634233766,-3.061330966915332,2.662497918952786,-3.116265307029593
37,-6.804869872603706,-1.0095977908117728,-6.991321904754946,1.360186888303938,2.7851526261389763,4.184278551476906,-3.039164967871611,-0.2635324229721213,-0.38402634053913626,3.1068652786136184,1.1551853516554202,-7.136231648965443,1.7056576797150382,-5.104590665352718
38,-9.123575482959943,-2.848273346027267,-8.050969659539595,0.29101715991826776,2.166802104633177,2.778013417076387,-3.481575470948312,-0.6239917084249762,-2.493851106204798,2.501230185178548,0.8420902729810844,-9.8145497785058,0.27967509711275823,-6.259702055351251
39,-9.527963906865846,-4.009538683411153,-7.332959905891105,-0.8400618561117008,1.020044790236941,0.30327894943193856,-3.2071703774654203,-0.8225835915851558,-3.997019775829949,1.4057383758232,0.5141708198865558,-10.27264914620764,-0.9841905610564713,-6.005380828999462
40,-7.635796403692782,-4.0098826330256205,-4.856130717690116,-1.651043357818303,-0.3590483124956219,-2.601735721678371,-2.3973642852828587,-0.8216548385198031,-4.526252286062082,0.20861811852062745,0.4563258399518582,-8.204125191466346,-1.551236269850224,-4.0973859667821575
41,-3.6497741444840246,-2.711772112976974,-1.0881918365660506,-1.8723474502387891,-1.6108869508235197,-5.095375258733323,-1.3216296704533284,-0.6354678398560945,-3.9444222840532817,-0.715001894749846,0.7924894776880902,-3.950124719461213,-1.181986225620643,-0.7685788346927884
42,1.62785381525296,-0.3943926604108173,3.1440641924302675,-1.4335367911219576,-2.4098589138527378,-6.388778535828652,-0.2408994990822999,-0.3247634796760145,-2.3757606718755606,-1.1289893589071236,1.4206600174539359,1.5466829758526426,-0.019222855731896894,3.272688040525006
43,6.962228071691936,2.310745732801108,6.851502521178465,-0.48287750285633974,-2.5546415646657112,-5.999557665057673,0.6719453124449973,0.022051805859986114,-0.182590490163614,-1.0109992834279562,2.0412646156659418,6.962584398587469,1.4659724036386728,7.0052175787981605
44,10.997095571227012,4.60261139812941,9.13372236426584,0.6647164775226979,-2.0246460304355494,-3.9192170634814048,1.365121856307641,0.31511507372304626,2.1087054125592037,-0.549877357467971,2.2708826510265996,10.931882090161366,2.648032407263528,9.376727125487491
45,12.62420271927287,5.755679099604201,9.413624877442263,1.6321697130766206,-0.9851074639043508,-0.6375614238425661,1.883199661080625,0.4883448514749203,3.9219229180317456,-0.06551685089073374,1.8006024266545935,12.410574978154186,2.97772896287626,9.619200299257443
46,11.30236466149001,5.349822867678934,7.588850148461019,2.1017441275465556,0.2617014314197152,2.986686627004374,2.29742777598613,0.515878312270489,4.767299896992354,0.12202165924939302,0.5401564956246041,10.961124484062397,2.1883432864783994,7.49717757768723
47,7.22961441646363,3.4116322788501394,4.058377453579527,1.9142422663663259,1.3653088811304115,5.970379649680347,2.624704383315283,0.4150992738611393,4.373220440615832,-0.17166205537524387,-1.3079662185672267,6.876866385054024,0.4052178945012539,3.407211547046064
48,1.3143651995286088,0.42126582781639627,-0.3804774443950511,1.1155834625689633,2.029470435569611,7.490320474801214,2.77657554269817,0.2363083366806381,2.780219807929247,-0.9046553576222157,-3.277004363109505,1.1111844833162983,-1.87926587307712,-1.706870352639949
49,-5.049072612007969,-2.8189217852876975,-4.732673663955992,-0.061458392276583416,2.096999926553043,7.1203575807352,2.5696459667855485,0.04346039393239288,0.36419610400166713,-1.8006705280055957,-4.764214455709763,-4.967276053005854,-3.9571415899754405,-6.6001933947334495
50,-10.33795674699389,-5.414656259434079,-8.046474661615266,-1.2717239995869716,1.5909031724743794,4.950032861279038,1.8032956565764153,-0.10703156473644772,-2.233021253136121,-2.434189162601947,-5.220865785959009,-9.923684029250254,-5.132262194610858,-10.061658000452063
51,-13.291372311702613,-6.639198472577623,-9.630876894623347,-2.162939602355844,0.6993512814407387,1.5516901862305152,0.3790837993294951,-0.18241412378753427,-4.263904280898082,-2.3863979805695807,-4.342672316701725,-12.614242446024589,-4.948608419866345,-11.23837349032165
52,-13.226094388505325,-6.143805373610381,-9.197277368686793,-2.4786125418390315,-0.2899510459816697,-2.189689227139719,-1.5881229439839983,-0.1799699369341145,-5.092908390758367,-1.4210073856515963,-2.1963145341150145,-12.45746123253085,-3.3451541176027124,-9.856257517132361
53,-10.19512417287751,-4.05667745168653,-6.8981517566468975,-2.128297723216368,-1.0839517278578346,-5.328463789486064,-3.72293393855656,-0.12270678652913697,-4.409583404286433,0.3843709013169155,0.7640092254001207,-9.553522795706295,-0.687728802733155,-6.277306664305727
54,-4.95272835722611,-0.9423021048494254,-3.2645655443607144,-1.206833519634797,-1.4756552920407808,-7.114598558395244,-5.444023069897139,-0.04711311838850555,-2.3626718083353775,2.607221569249122,3.8020540180504603,-4.630071001948059,2.331706606559668,-1.3843284439587156
55,1.255804031575386,2.3645606462326714,0.9313784183061965,0.03946025217375776,-1.402728055827448,-7.179980756575729,-6.121767607280151,0.011851762441983861,0.445272814181972,4.575351751185116,6.100063201857842,1.1605048764056007,4.896050417386739,3.665827715776876
56,7.01551169032871,4.99876937124231,4.849504938209631,1.286110312212039,-0.9549410354824137,-5.606694249073522,-5.2973151587126,0.03296949707343551,3.1220089295316846,5.570553525362387,6.995858145598042,6.531126072736641,6.301391821082346,7.744540886810589
57,11.084883555896957,6.306189146742442,7.749113504669306,2.2198054351032663,-0.33007849931803,-2.8682386839613376,-2.8889273453707354,0.014214581732527473,4.77058732453594,5.080155841061583,6.18419644069668,10.359586434952602,6.159610409955025,10.02304580793547
58,12.672464059909414,6.015706155403295,9.119064776832545,2.6180316413063673,0.2440703332706869,0.32691459255014815,0.6964165686914776,-0.02964773139731587,4.8050599865823225,3.0102663744143903,3.8189427928234037,11.92496875529665,4.504953598048878,10.143183263807574
59,11.583409971595266,4.294025582514332,8.752320022338195,2.398812549914093,0.5924503244985901,3.23461860431404,4.605111791499353,-0.07541403764177457,3.1822161698536915,-0.2221329427014645,0.48175757151186666,11.03144922059381,1.7753066495290504,8.252109658870609
60,8.212041518916095,1.6724365978210483,6.760940303469226,1.630812675098157,0.6500759138152095,5.256864724042281,7.74278500722905,-0.10181902636153695,0.4525571162599026,-3.766332607005689,-2.976258520663458,8.003015899408018,-1.3220807646237154,4.907787854190464
61,3.398595327400363,-1.1260168611569679,3.5382627779996176,0.5058408234907574,0.4739276920094601,6.05969750464047,9.094923333668035,-0.09763866679611558,-2.4069451986920263,-6.575647541123432,-5.673823706291683,3.5657195785519162,-4.015889132198684,0.8976863521627925
62,-1.798771188427518,-3.401412606325139,-0.3189857855953882,-0.7147088088195072,0.20688557271176952,5.607112577406804,8.065219175599688,-0.06454968172634021,-4.333978479647207,-7.73741083974958,-6.947492746782058,-1.3412229504626323,-5.682738428593661,-2.967859230994396
63,-6.350459821839428,-4.666425878320318,-4.113834200609137,-1.763112261915727,0.009576740854984136,4.118946995648086,4.716601711149186,-0.014204650819840757,-4.578492393566009,-6.7865064523874015,-6.532751863182664,-5.773170520144264,-6.002609620821586,-6.028002836889921
64,-9.459049829003817,-4.75500679790537,-7.162902725516123,-2.422361761384073,-0.011725276939252035,1.9808836383824195,-0.17837072308130927,0.038499741794422324,-3.006232284493525,-3.8901137505432373,-4.623295911180742,-8.958263634543977,-5.0153402515696754,-7.869982874754641
65,-10.680030859924653,-3.8242959615097916,-8.907173242995603,-2.5657162493414347,0.148277983513922,-0.3587323955091817,-5.313988865100138,0.08243315049435322,-0.1823430297707076,0.17076015959650148,-1.792585078767398,-10.413586020108928,-3.069528644805001,-8.344626757258027
66,-9.948907633068028,-2.260250063934834,-9.006424581860983,-2.173992654725266,0.39188696316694577,-2.4771336958089782,-9.21609727098929,0.11406936279879071,2.813044307573231,4.228860679552112,1.193560993515131,-9.988497465689896,-0.6901349595693284,-7.518437154473008
67,-7.530981707169797,-0.5282593415168769,-7.404380284692728,-1.3317883251334623,0.5620893672608157,-4.03661679867475,-10.68908314907376,0.13637386197774568,4.781846141744551,7.097881187033338,3.609343452238438,-7.844584540687405,1.5845810348209912,-5.599570046137843
68,-3.926460812843915,0.9752369917542931,-4.352708204832634,-0.2074497510603395,0.5143546279534188,-4.816010769116945,-9.203797400244936,0.1535053588803773,4.873532021909445,7.955767208164675,4.969093094555754,-4.394183536330497,3.3406557647544135,-2.875571017751816
69,0.23473310928459631,2.020068613071794,-0.38507839674550504,0.9775761964607564,0.18695692381976486,-4.7233870644257365,-5.095906426379653,0.16436522992835198,2.938453198090277,6.609944019345712,5.131812755395684,-0.22122267757381978,4.359356762937119,0.3149421386539319
70,4.285140012475678,2.562147205992286,3.7616009586228962,1.9855143986817874,-0.3600533100773224,-3.7993235273493218,0.4999662063145868,0.15894336295202066,-0.37733434482960465,3.5493728916732,4.283404531123458,3.9994790919755943,4.609624085751667,3.5791265619367705
71,7.59269569193863,2.691205007047796,7.272812720953749,2.602131502709576,-0.9552889971284583,-2.213612336280517,5.971183555256061,0.12041742543558481,-3.846521187444605,-0.23553688308072424,2.8155464663279997,7.580207105270998,4.18230472937229,6.460268673708554
72,9.622483390885687,2.539533185159602,9.412204230100981,2.67688110051293,-1.3744202652857627,-0.2504929500635262,9.709806299026726,0.03333709965179636,-6.1138485164783845,-3.599038944577198,1.1574911608396141,9.900652070761181,3.208242261108412,8.456132211258083
73,9.999681692187263,2.1974958424495923,9.680267614952253,2.158754966039542,-1.4255105998391906,1.7261509748737673,10.60764161744048,-0.10498264564132338,-6.219262700199286,-5.624882656004613,-0.3689153674694461,10.496494191458027,1.804445601090912,9.090415294478797
74,8.57827636230556,1.6746626498887378,7.941612191777022,1.1203453032845423,-1.028543169005861,3.332441383583752,8.405839177877544,-0.2750857790484354,-3.987230226265026,-5.909762302143156,-1.6157566178321734,9.153369109297481,0.07394365332370569,8.03642632325983
75,5.5042820789490365,0.9221728306642422,4.48639882013244,-0.23940385933857014,-0.25732540425312644,4.243475254485227,3.7845410114877014,-0.4335113650568946,-0.12442583832186702,-4.646453413949558,-2.5797410838385253,5.988503690246309,-1.8463329158734947,5.259828219944277
76,1.247182484537299,-0.09753722140072474,0.0008788265370342698,-1.6219684927312465,0.6745237877446553,4.273806388093775,-1.8403405542157623,-0.5216760041772363,4.021321383373804,-2.486773452968781,-3.3041566040786923,1.4896545514969506,-3.7247633860612006,1.1235451876770393
77,-3.4314358105462213,-1.3306431025401297,-4.559159762989595,-2.687694310196486,1.4807800206959274,3.4338492199130086,-6.752618712219195,-0.4845698179597834,6.955327790408664,-0.24992867846560413,-3.770754683314107,-3.520852827856632,-5.209570871694589,-3.604376440205309
78,-7.5918406486550944,-2.5853301373568156,-8.173329663697432,-3.1380098691432843,1.8998437732203886,1.9385364406685754,-9.467979960355198,-0.2937918530196342,7.596439583187471,1.400601079588099,-3.8446707112165788,-8.01526762525423,-5.875772904358083,-7.874883700818201
79,-10.306633458854957,-3.5499176791762057,-9.99684333694044,-2.8025367529220317,1.7868750195609537,0.1574706631539835,-9.195124542407948,0.03358554722469978,5.687100551282669,2.1816067734619495,-3.310087002969698,-10.97313026312868,-5.349190715138745,-10.603961209484414
80,-10.889840128310128,-3.8797370955379926,-9.576848100628656,-1.705004956897734,1.1669051639263446,-1.4840714235514383,-6.079726291808103,0.428888389211903,1.8928369326864765,2.2320745178252173,-1.9895763851543808,-11.634801758077872,-3.4715942002307476,-10.980536932410768
81,-9.101771708603831,-3.3259321675563154,-6.984821469448135,-0.08260795340153784,0.22894432407328316,-2.6243345061648644,-1.153356453300361,0.7836382073596933,-2.448852285044168,1.9678206086735321,0.1045913798503594,-9.72745755404092,-0.44063481923348335,-8.741020076580703
82,-5.260769679756683,-1.8575072793460417,-2.8217703287769633,1.6561180233448027,-0.7374163149732245,-3.06509159600035,3.9969867118773705,0.9784991842920835,-5.833126430291489,1.8238322516871488,2.6630797898681315,-5.589206403628508,3.146582555949894,-4.311236868257341
83,-0.21165797489194674,0.27547420161818337,1.9152290898213156,3.031608141548555,-1.4404031111387938,-2.8173943452009227,7.7341221451543705,0.9219739480725772,-7.1495029921893725,2.006085969005259,5.083153950485046,-0.13677928843568182,6.390944164927635,1.2505980433672232
84,4.859141876694331,2.572187064017759,6.077950926018109,3.6280897450231318,-1.6842294748194164,-2.076726930807601,8.890026423285574,0.5865738045035959,-6.082386305642739,2.368912923596063,6.609741072983852,5.335137533882105,8.324007136274336,6.514606061965864
85,8.722443523634801,4.406761502468706,8.66198858352953,3.2239799526527317,-1.4320445839163618,-1.137603619558835,7.133618445598159,0.02913275158338899,-3.197004663525939,2.477961759974748,6.582381377422343,9.481476890740595,8.214041707887223,10.078042216618964
86,10.438001522850943,5.215128978609643,9.071708828163892,1.875302994497193,-0.8117191411056439,-0.2810682569930549,3.0694872332805816,-0.6143911210461335,0.3170100931932357,1.8357150948973235,4.704851382535155,11.27350670180718,5.844295947176379,10.982732171524754
87,9.61992827632145,4.682666668441276,7.2792187136428765,-0.07960257043605391,-0.06349088936508535,0.3209536765593503,-1.9636681587690676,-1.1615920496606509,3.136066696084845,0.17129187193838166,1.2311823436308802,10.2951183935842,1.6577036256601088,9.015704421715503
88,6.550748056903875,2.8669040391975855,3.8287458848352083,-2.1028058429634604,0.5504051476833041,0.6478199552180245,-6.329268205549309,-1.4363085100326431,4.32692018328651,-2.338747709076731,-3.020136436976672,6.872340461680749,-3.3021451955742855,4.7882039064041475
89,2.102834714340318,0.20794685327566098,-0.3184113177604662,-3.607433943066168,0.8405164600238677,0.8048001076762761,-8.622081544525866,-1.3259065476290866,3.693967842654702,-5.030420805255717,-6.856095817279832,1.9868437451793328,-7.657823239429457,-0.44228070783322204
90,-2.513813680779302,-2.5841470418993877,-4.055808184715627,-4.132792213195309,0.7547735766930372,0.9447293157351481,-8.11857689565458,-0.8242931893594657,1.8130737815213334,-6.933964659387851,-9.060663626361588,-3.0083710252626057,-10.10242306717149,-5.15676120895319
91,-6.101995279394045,-4.7336715028299405,-6.441911392025238,-3.4895068556257063,0.39003674750950884,1.1737558312289391,-5.002517412623137,-0.04464923673437904,-0.2554329842868946,-7.125060651668821,-8.799124370662328,-6.787347177702675,-9.815949297230016,-8.044267124487705
92,-7.817441556048506,-5.63134042343855,-6.956716176291037,-1.8269449246381833,-0.052378009689709217,1.484802036297643,-0.293992841012227,0.805345475290417,-1.4505744745176103,-5.116592543667833,-5.935587801549262,-8.439357144775308,-6.753982528483873,-8.402486688598243
93,-7.392906984870182,-5.019251843311094,-5.628955801775807,0.4016972553058193,-0.3495273999013121,1.749849200619737,4.492054882295198,1.4808857341556871,-1.1869503517854,-1.1331631535129738,-1.142763225142395,-7.722881711886566,-1.7035249772207877,-6.337023775091478
94,-5.178710238639461,-3.0687814643086826,-2.997836421136526,2.568827028405663,-0.3465759123448247,1.7757831746613204,7.842701404248399,1.7736607683495849,0.37781812674866383,3.855834722274271,4.251998892826243,-5.104076469377845,3.9252266655989247,-2.6944445808169757
95,-1.9931543090094654,-0.3270045454964842,0.07502449350534914,4.0576596668489975,-0.019921022566256736,1.3997134428647993,8.733874504726973,1.578712702785811,2.3999190004938002,8.38334448509705,8.65062784841806,-1.5700031683519826,8.514044579206958,1.2448327123731904
96,1.1612884400360124,2.449262292160711,2.6810071386122307,4.445626288320353,0.5097030955263832,0.5811050998500863,6.947148320472913,0.9323077237829065,3.712208806117186,10.94472480460422,10.681476145282835,1.7172289471342557,10.729572709389528,4.2057901223835135
97,3.4178867155856274,4.516722018907685,4.138504377809237,3.6284154175388568,1.0191991884057419,-0.5518945350483643,3.11573049322039,0.006979742482293477,3.347060803660507,10.517440315634781,9.647339206817477,3.8059283453497015,9.935058275545131,5.338320927903305
98,4.29585622622225,5.354912340298193,4.179745692584381,1.8461526846544887,1.2653179739707794,-1.7256788347544902,-1.5085308978746625,-0.9365909756458882,1.0031410475169755,6.954787557869854,5.771782218937856,4.248744723992835,6.386139576202575,4.47485291363731
99,3.8038576210578663,4.7986946395843155,2.9956632707455397,-0.39498036776447243,1.0778556087771998,-2.6080868600229308,-5.481401059555961,-1.6269702434843178,-2.743299986995427,1.1039299722927653,0.15478071614289582,3.2082149040779964,1.1464244626641282,2.1434063688428364
100,2.3738710243631105,3.0596628958024312,1.1323934210336837,-2.4786685134484294,0.4305549464093701,-2.9256201912369306,-7.637321843820573,-1.864615849433688,-6.584271220455562,-5.408849223956957,-5.555048645431935,1.345109384171629,-4.248606115812641,-0.6591902440340048
101,0.6619705944464227,0.6398372370311143,-0.7179544330912175,-3.860746606504087,-0.5360458539772218,-2.5641586621367254,-7.44659643137637,-1.5833538753197092,-8.943641948726961,-10.666233782180763,-9.6686782490162,-0.4620175783010153,-8.267909392095575,-2.845524322287156
102,-0.7039898418960737,-1.8260416405121236,-1.95661985246931,-4.22014844889329,-1.5492654053697832,-1.6127746474767022,-5.144795158085076,-0.8706440923621857,-8.5900531866725,-13.06369719971849,-10.98085240704458,-1.4590325681170144,-9.845581076673867,-3.6287011036849504
103,-1.3370723024771864,-3.7457994478370966,-2.2658730079813107,-3.533705362783347,-2.2864120484851376,-0.3335891571116215,-1.6031434398774342,0.06017674941511986,-5.1645359630272845,-11.827537673486294,-9.139865421669572,-1.294009120212361,-8.679146756207581,-2.788175691460031
104,-1.1928269876555786,-4.71099330201158,-1.6854485945039779,-2.057112126882622,-2.478258462932046,0.9293831721344857,2.0012086324474225,0.9367719627429687,0.5881901693712555,-7.272114680190009,-4.744381540687698,-0.13123267783955883,-5.276863837599826,-0.7215351655965718
105,-0.5339570605076098,-4.570697203502838,-0.5598550022304734,-0.22579025193464441,-2.0002288732954296,1.865679030275439,4.590742471128308,1.5120393501763822,6.990124468507621,-0.7089515668580733,0.8600125861044126,1.43549006015198,-0.7515184852404818,1.7273523792150716
106,0.21547687946098368,-3.4307220075523164,0.6152991282722172,1.4859219687291434,-0.921222042338473,2.2935774787739245,5.526151063284545,1.6383750862821367,11.95898384697322,5.9619294512473315,6.01282086913753,2.632264551188106,3.5583605011026243,3.593551595123116
107,0.6608220092464409,-1.5944458351930293,1.3860022137202284,2.6988971304309133,0.5066106928011613,2.201091189748058,4.767807137220702,1.3083132397676025,13.71706517039646,10.841874691457923,9.25456599909622,2.8196914037262015,6.506767206727527,4.147361667806118
108,0.5952128098944174,0.5258137703803545,1.499701713033942,3.215604465733334,1.9149939529978337,1.722413001544506,2.8194517859188917,0.6494984339399333,11.429579397092255,12.610231198003403,9.759240693808858,1.7524831582024114,7.460641405265977,3.1529861942868456
109,0.06664969989835853,2.498417957285734,0.9771742010421038,3.038439368154124,2.9233769634220637,1.065587741965695,0.4927701281411065,-0.12259930294877695,5.5414699124755575,10.902715044833009,7.549568281059984,-0.31346025997036586,6.427993864821983,0.9407858485743218
110,-0.66505367784345,3.945037732298915,0.07730748886114251,2.325476074588446,3.247930136893406,0.42499489806083807,-1.40833673599534,-0.7769313035199129,-2.3145688491240333,6.377945518519122,3.43802645406937,-2.705488850305853,3.971599830305988,-1.7253429289985416
111,-1.2553111880497314,4.591814208588268,-0.8231986841032518,1.3101590155608618,2.782963699106651,-0.08490573432600756,-2.3644901183867706,-1.1392233126923337,-9.815890847425074,0.4653387070243683,-1.2715002284775778,-4.576927143387736,0.9605184371434452,-3.9297487637097253
112,-1.4278147804327825,4.303728550074624,-1.382877987982361,0.22021304745854137,1.6311554050092683,-0.4502922396327674,-2.28333444436005,-1.1407862766355616,-14.688130928678682,-5.1083472348611885,-5.211225470126735,-5.216374867952004,-1.738540484465077,-4.929327497663182
113,-1.088999724532695,3.107584280312278,-1.4205421595446224,-0.7748569699952238,0.07497481626354605,-0.7301016464959086,-1.4694676349745703,-0.8293920087729169,-15.43493251019491,-8.850429968010006,-7.361698903116891,-4.308794101155152,-3.5189940746868005,-4.403627595194755
114,-0.3593336971389435,1.2023375719229665,-0.9672070934702738,-1.5753237185619724,-1.500816832021215,-0.9974458548323488,-0.4502118331736645,-0.341565254913461,-11.814555785684098,-9.920569716011434,-7.320330463452407,-2.0537820692619633,-4.162071043080464,-2.546618822065401
115,0.48608730173674447,-1.0529313565349936,-0.23188955257461316,-2.1296213585856876,-2.7121560514894303,-1.2802818582901967,0.2631329631898128,0.15117839426576077,-4.907875029928706,-8.314321603236335,-5.355055694069944,0.8988941604741938,-3.812285826326792,0.02289194194910491
116,1.1372116242551458,-3.1861757764665097,0.49699335353819063,-2.401558605506645,-3.27482085857782,-1.5299769213047563,0.3812779645916345,0.5016658148404126,3.2370832874466426,-4.776311915178025,-2.247991097617272,3.668917346229251,-2.8370824075811862,2.4895707106039118
117,1.3755583147303545,-4.700468914183131,0.9696385728807949,-2.350666974851715,-3.0732205569786384,-1.632920711290482,-0.06671200278046795,0.6313065675527575,10.257293965400066,-0.49757213504166475,0.9988015740544361,5.4380191022442235,-1.6443221091461173,4.120118775215672
118,1.1548959398937937,-5.192682009894494,1.0640490705412624,-1.9399565532232996,-2.1822970231419423,-1.4607900274182457,-0.7754213682393138,0.5457328832565513,14.20323285570925,3.2849081008668466,3.4868297898458933,5.711369450021651,-0.53508744044182,4.492904525671248
119,0.6060541715504755,-4.47379201921223,0.8145774188287607,-1.1683051729867018,-0.8396829060464787,-0.9377532033086877,-1.3162948368905505,0.3197117838090175,14.107846082909623,5.650421465040129,4.6688892348791065,4.46037244983144,0.3582064110849743,3.6050276119868276
120,-0.030451619043294013,-2.650389949267187,0.37566047374405387,-0.1091177547751451,0.6214500204935508,-0.09486785984730102,-1.3332825106795108,0.06032380356812108,10.223923146601075,6.2115192571401785,4.453863062173169,2.1063449485880663,1.0424283825860556,1.832530368682121
121,-0.5105143384869951,-0.13052390852408335,-0.05682299188551794,1.0696083287156835,1.859060548526628,0.9137165506055073,-0.6997799294464706,-0.13579719652742578,3.874774284841534,5.13931641981444,3.156874398213301,-0.6378378120024426,1.5775195415400152,-0.22749459294449165
122,-0.6841864890871829,2.4625669856950827,-0.32942731171979345,2.1227395414768404,2.6052691901849947,1.8432938211155232,0.42441485102890153,-0.21502623139287394,-3.0094737518918606,3.0186337226459585,1.3348350481462734,-3.0043722673482693,1.9879357664684323,-1.9669206092592715
123,-0.5452367234731962,4.453858527764177,-0.3852313777070035,2.785877298044608,2.725437493432769,2.431079762190959,1.6548757691755154,-0.17862159070662798,-8.503015261934591,0.605613598019736,-0.4216616526207219,-4.401617247060852,2.2193595108954094,-2.952943290321158
124,-0.21616140917159682,5.311439815535818,-0.26963334814906326,2.8573709961606526,2.240616932059245,2.4836540216619443,2.53429669284541,-0.0723620993926031,-11.242921056388747,-1.4202919821166033,-1.6667907303787235,-4.566762154653916,2.1601783667663197,-3.0329008161685596
125,0.11904880210884727,4.810245158475556,-0.09190792805523704,2.2745054082091487,1.3107078960002385,1.9476239458286395,2.7115726552225747,0.03907544685977107,-10.769207114892067,-2.632432996288858,-2.197668174062848,-3.6016839162504364,1.7124104969329068,-2.335408537341809
126,0.3009210507368888,3.1071675593691976,0.03497615118331851,1.1522012010918645,0.1854305297955992,0.9369818098470785,2.0776538937043236,0.101107533256963,-7.564367012345237,-2.9212354699563416,-2.057472306587723,-1.8965420145405523,0.871723710480997,-1.1840044496526738
127,0.2607321030064383,0.6975846533357736,0.047049898510281456,-0.23557783558332707,-0.8625362210088187,-0.2942137488891293,0.8073218239973047,0.08991347557536425,-2.811674770065306,-2.450515829489946,-1.4629550261227229,0.019138664539868216,-0.22803660739931564,0.03370061613876095
