,AF3,F7,F3,FC5,T7,P7,O1,O2,P8,T8,FC6,F4,F8,AF4
0,-0.09499340616469609,0.024082695899884477,-0.16957399314931823,0.25162608134242875,-0.17741631357145568,-0.7327613991144667,-0.6925067250060065,-0.7288397548616118,-2.458507074096381,-0.7490695500307215,-0.20205784981936029,-0.3555164631656847,-0.24415729075689296,-0.3674002407747309
1,-1.1628749213901306,-1.5809098198937224,-0.9881080575197528,0.12236265923000172,-0.5908911695426248,-1.1414389232991748,-1.23331246776203,-0.3146860695956995,-6.317531955354693,-0.18350353268232245,-0.7991085584648278,-1.2533813756033585,-0.9953885510283452,-2.289162260600062
2,-1.8200859128187388,-2.6889724626656815,-1.5265400730365972,0.00433166547775055,-0.7764947657957028,-1.3615173374668772,-1.4431288685622912,0.2133443638646825,-7.934647743717059,0.6151716507876933,-1.166171143092164,-1.6960683248195643,-1.4598027702771068,-3.5287619457816333
3,-1.7813066114926746,-2.9291590691414005,-1.607011938451613,-0.02680987238518669,-0.6559101126034182,-1.4563483949308025,-1.2790756358055175,0.7114988153012285,-6.642379779211011,1.5268307128585143,-1.179816099068925,-1.4726466073341917,-1.473175674653976,-3.6678057270512205
4,-0.9908718683631105,-2.1892673246798107,-1.1843648082574747,0.07317325322060268,-0.25832868287068417,-1.4958575145244115,-0.8207393929011898,1.0203740379932456,-2.8844283876253227,2.318064742088493,-0.8011489111266439,-0.6067689895344157,-0.9882353751441041,-2.616924733701447
5,0.35118598322101835,-0.6553373605412041,-0.3598085220683,0.29835331827176514,0.2903081205848554,-1.50356554103951,-0.23062196995579695,1.0197559147613562,1.9489506056001655,2.7139396252973707,-0.08885661938520881,0.6488496415227557,-0.09279727815750849,-0.6441199578723742
6,1.8438030200132918,1.2353775011826238,0.6467807001004339,0.5873542196406475,0.8090941072823439,-1.4237445422162185,0.3163280968551905,0.6810070551535728,6.056632884214766,2.50465055226448,0.8054207706722695,1.8956194463766078,1.0029703975225126,1.7017146062823996
7,3.0041408448893003,2.9163847784920054,1.5572131413231323,0.8350744668216812,1.1210572454908767,-1.1315721913617438,0.702062705513369,0.09443071404264783,7.924723026462113,1.6436380195248304,1.6609311869938352,2.719865721940095,2.009507035941663,3.74762593495791
8,3.4156782110866186,3.8556463709939184,2.1107524960112043,0.9208694050282983,1.110392010239147,-0.49228879918249274,0.9021908614787162,-0.5451801417910903,6.912523384884212,0.2933160471546129,2.230624907928428,2.826273081585688,2.6245650340600823,4.887061017566816
9,2.860574039342312,3.7147888193444074,2.134709975004338,0.7475925755602264,0.7601318628911187,0.548653736425702,0.9739731327266905,-0.9972540611157589,3.4943490294766106,-1.206747271621829,2.298722717066694,2.1303257127049444,2.6111673447908696,4.749511848106349
10,1.39626506223169,2.4573724161563963,1.591542192043701,0.2811899282513149,0.15864978738338256,1.883084366553756,1.0027364846283446,-1.06270010539761,-0.9397408612420025,-2.4435841322829233,1.7430867006870077,0.7821384079952172,1.8693880546122803,3.303134549496968
11,-0.647364664617458,0.37289824722017134,0.5909023165809756,-0.4220738808386282,-0.5268466375939322,3.2101406788770737,1.0346144827819812,-0.6692487812641852,-4.646253025123861,-3.070519143023908,0.5870243252549209,-0.8817259403306629,0.48258590860214556,0.8648582523883285
12,-2.750640022231799,-1.9934114766268902,-0.6357242241599942,-1.2125856658131977,-1.101317036000918,4.089638161221658,1.0317162913572742,0.08007378902049259,-6.2298072464204,-2.9296423561100537,-0.9770392299096363,-2.4385138324429962,-1.2783864659626103,-1.9811244291884185
13,-4.343721310289367,-3.987800172461329,-1.7909690847923498,-1.8748751690351728,-1.4011486008984544,4.077876609525522,0.8769725960050365,0.9209912958321578,-5.201996008424324,-2.107846626820078,-2.606169599857774,-3.497122403905771,-3.001038571660947,-4.531486577956147
14,-4.963894436641208,-5.031656134690424,-2.5841656090838927,-2.182873485824801,-1.3428230341421665,2.9071027810265604,0.4330934408258463,1.5088988545677762,-2.169770102335947,-0.9017309652113883,-3.8724175951815196,-3.7973738433296784,-4.222461933422127,-6.13817863179363
15,-4.386264869270134,-4.789161365432853,-2.8030112194614043,-1.9700244944272387,-0.9456563505079034,0.6418973426420232,-0.36703897507918387,1.5447183233081447,1.4275870133093154,0.29731207298555534,-4.366118936053112,-3.2649542809668115,-4.547403730092048,-6.365451243566634
16,-2.69138137010759,-3.2696607903744472,-2.367238162673624,-1.1936363875066731,-0.3219768606772116,-2.2582463238973105,-1.440395097963255,0.9024306969393967,3.931250922488256,1.1533397326465173,-3.8141184166065574,-2.0135902092087097,-3.764124077902919,-5.093782128366985
17,-0.2512939427814101,-0.8336678231022997,-1.3515179636554682,0.029020004462330065,0.3608415402672174,-5.015458296521643,-2.5277932316491785,-0.2920138727087344,4.178174197825534,1.5106288186917138,-2.1808427375641646,-0.30323539420385226,-1.9255027385512111,-2.5503255004878853
18,2.36175918349792,1.90069328764435,0.028110026682336565,1.429641439772109,0.932574458726057,-6.746016417758615,-3.2471435379575846,-1.6687278685446705,2.022921959775868,1.440506957687656,0.28063978743292733,1.5261372780513707,0.6315480707034304,0.7370920797912581
19,4.519050525472649,4.2247976746961475,1.4616968818478995,2.64708600551771,1.268298120093235,-6.751132204928429,-3.219041367407996,-2.71843136861833,-1.5593634587914749,1.188715985424537,3.051221670525511,3.124017159756711,3.341308785328033,4.050332813442383
20,5.693235379544027,5.532569258322668,2.616344570321311,3.3231421706741924,1.3167721327747755,-4.788843900047813,-2.2243386366091857,-2.966776185016972,-4.849129835178841,1.0435791700590211,5.447740989613311,4.187393447023275,5.532793520960701,6.632979201918798
21,5.589640161924338,5.484468763234362,3.2146321751829956,3.2100641927014855,1.101789759924929,-1.2232269548653418,-0.3328135553210419,-2.161162475824009,-6.102056732748448,1.1808417881992272,6.787499945673619,4.502334443369234,6.595623364362945,7.855239308338327
22,4.218317722319756,4.096421028925161,3.1022251820356783,2.2569555594939184,0.7001030311327775,3.0202240002825627,2.0554414028964083,-0.400552085341421,-4.327958011798849,1.554923411667976,6.577320277880901,3.971644147711196,6.147618930284823,7.360432282150034
23,1.8901808140135599,1.7301137432282805,2.2881823512810833,0.6452736681725285,0.20822589367807423,6.700588695439333,4.287422304707156,1.8482467948009618,0.19463386042091754,1.8910976429519497,4.676012079833974,2.6329482198958933,4.158530260701642,5.162616709201013
24,-0.8601582468335557,-1.0101315903621557,0.9471688691106493,-1.242814941190498,-0.28673611137367666,8.643137224883429,5.64215066693335,3.8683833386292124,5.901535908463997,1.7931553350110072,1.3793211085460007,0.667567697936375,0.9915267160591874,1.670121535066001
25,-3.4044239877336278,-3.442442923239489,-0.6185975258361228,-2.919406664605537,-0.7211764472799916,8.13479409470259,5.56877747473767,4.9176985663417545,10.4675504859054,0.9313896234125889,-2.607955530497202,-1.605937826988552,-2.6571275218074883,-2.3791366207249167
26,-5.170993251114614,-4.986853525474428,-2.0500232117234103,-3.9248002341597523,-1.051909270205163,5.195594716052071,3.8969417299048836,4.490589453378318,11.69906903768938,-0.7636203925381673,-6.3192832863051,-3.7636430849822284,-5.913343514629339,-6.0670870674596635
27,-5.778811333823872,-5.309774661284161,-3.0180344945981155,-3.9618447215505097,-1.2432786416529598,0.6214202273730494,0.9402189296798146,2.5261117327780167,8.460701382133845,-2.987611871535778,-8.764871689737214,-5.341015394628372,-7.941196421622714,-8.504411799960561
28,-5.122847437626532,-4.396352729687016,-3.3049743436465993,-2.9894077314392384,-1.2570189280025421,-4.232931776992412,-2.554842490601678,-0.5182473269616442,1.2653139233676405,-5.092472906606741,-9.202160890932731,-5.9279403602733645,-8.165064332369946,-9.053106622314571
29,-3.391163957551154,-2.535451382290449,-2.85883465303913,-1.2440912597173974,-1.0556220076882794,-7.871306617247653,-5.609832226906208,-3.766981869389414,-7.735319391643026,-6.270228421500843,-7.362644658164668,-5.277010052272123,-6.436888987691167,-7.505115631877571
30,-1.010636685690046,-0.22677038899865853,-1.8048356355509783,0.8196761736673503,-0.6217952285891872,-9.141204258101117,-7.307742956326678,-6.182294658946002,-15.404630835926614,-5.8400679219006975,-3.5644716036503374,-3.3955790338259244,-3.0983818466028725,-4.163074823424331
31,1.4637240578943735,1.9598135579439324,-0.4101550708101411,2.655727679212338,0.01399312344218636,-7.622728316430779,-7.084560266436633,-6.899491606882461,-18.717706896487982,-3.5391767118949913,1.3320494049502087,-0.5881117293302764,1.08546939136191,0.209444732099385
32,3.486528595074686,3.531728830424137,0.9889055949350134,3.781526400317744,0.7534460711342695,-3.784551277409667,-4.921379283054887,-5.532257794557369,-15.913836293726428,0.2957632312884917,6.12520055622579,2.5761991381184,5.109812349586096,4.56572884589614
33,4.650753767431059,4.18836372317531,2.0765412974019744,3.9156992734970357,1.43363613927204,1.1537928702896991,-1.3697044130846916,-2.3403636214630916,-7.272742138259971,4.74081061860374,9.58093496888541,5.375574054284637,7.984386947719395,7.8405003952878465
34,4.774536495664507,3.875554936379814,2.6376322756888606,3.0555334843862116,1.861109071085444,5.613808140846724,2.602620033584364,1.807330923984398,4.8026328797057545,8.511413087917983,10.766832742780199,7.106958540841391,8.990972909779359,9.230461631472037
35,3.925559555036774,2.7715570169489747,2.605191082199657,1.4710259249460353,1.870951171107085,8.175695319478653,5.897432537364704,5.6754572158752765,16.47377526068959,10.346980709048548,9.315729907841343,7.273565363575111,7.872917023676017,8.41067486563098
36,2.380814091678852,1.2157709551808997,2.0624310069850686,-0.3814003297900838,1.391672693452427,8.047554049326395,7.612835368285066,8.04094738358308,23.721557970487265,9.43425485141814,5.5408625950337695,5.7351487712654245,4.903863672851489,5.622413086507273
37,0.5378659150504196,-0.3940241943348191,1.2017562642275024,-1.99709076183247,0.49013040941963326,5.326316482230872,7.306279482420578,8.088831125747857,23.747709327819056,5.726107838867215,0.3658823397516114,2.773511917878743,0.8166103879721218,1.6050515143993362
38,-1.1936370147040372,-1.7046999641639269,0.256910566787924,-2.969276194016553,-0.625548349548207,0.9608518238583825,5.112697456633491,5.694404212265548,16.028881616019866,0.03738940182811201,-4.913461254829354,-0.952611932928833,-3.38770738844712,-2.6088610290594385
39,-2.4885034587547583,-2.4840225880261397,-0.5675664691584341,-3.098308525557671,-1.653436699204506,-3.5705418950416563,1.6854404703980006,1.4936570783008567,2.6320536532021372,-6.132825056108122,-8.97038183202882,-4.558180108769587,-6.697084825728919,-5.975242069160423
40,-3.1660080144025065,-2.654530733420745,-1.1463200204284978,-2.4329201900566693,-2.2852894290486647,-6.7583358763274815,-2.014139682821692,-3.2893757200444904,-12.353447218050826,-11.014343789233065,-10.79608881686328,-7.1519204477378535,-8.342965122311451,-7.714741139006775
41,-3.202924213665646,-2.2837196250569836,-1.448480962927278,-1.2354371639006116,-2.3069744831343146,-7.566190590711305,-5.005803982001189,-7.210255349981969,-24.105911230028955,-13.09548159704668,-9.960865534763217,-8.06834532873469,-7.9849765054672766,-7.505356422636257
42,-2.704836010286999,-1.5414296970370174,-1.517891113415406,0.1128906680377963,-1.6770648496497578,-5.771207813175437,-6.565269861908391,-9.05305307302527,-28.66355716983468,-11.605426819270573,-6.717632161830464,-7.048603580496146,-5.78101935213989,-5.540731872328019
43,-1.8526988326751432,-0.642066595388485,-1.4308657974171046,1.2328680588910477,-0.5536772347109877,-2.0270851978350755,-6.403216714744451,-8.217377773216713,-24.281672757952016,-6.7925864795526785,-1.9236047848494837,-4.319232369987857,-2.3297990770626265,-2.445153382281049
44,-0.8457780750795887,0.21057781175754006,-1.251526447470283,1.8556879972895737,0.7439304512318086,2.367448234384532,-4.703851829352185,-4.917661417705454,-12.084065511533968,0.09936554619498013,3.194056476007242,-0.5445521669481397,1.4936324095864455,0.9217166244038641
45,0.14171245108736635,0.863254233641234,-1.0039423640440306,1.8871247000779068,1.8300307203678194,5.912684882744569,-2.026405980688821,-0.12787238262123765,4.229875553922197,7.163410651949165,7.361668178501608,3.3376133020447534,4.762901851515419,3.7079997220874517
46,0.9820850152490448,1.2327911283350679,-0.671894299131445,1.4128615100513386,2.373935762917304,7.412091710976766,0.8853010280375262,4.713555508547554,19.54290312150205,12.37709877332114,9.583616866722304,6.355323579545181,6.727233105408724,5.2897254198271115
47,1.5957066385620802,1.3068713517301154,-0.22454062204043407,0.6499962545424207,2.2080733977797595,6.366984217637417,3.3179086047023723,8.146414543809605,28.967596136991155,14.203297006455129,9.383928745301683,7.754410621401068,6.984833345879441,5.4099891248271295
48,1.9414914544893638,1.1316270251713432,0.3452721234394919,-0.13419343351464755,1.3854593696411028,3.132445336225561,4.763314677438362,9.139240163281897,29.439432347780613,12.05961329458637,6.906406171504926,7.195951426260665,5.563825942310633,4.207683518787904
49,2.006749196303221,0.7922898094394722,0.9891801571493305,-0.707618572887189,0.16574456140131494,-1.2121734047707455,5.0111716282148056,7.405560006907366,20.725513656073502,6.509376290511959,2.854401250041104,4.8461389159482815,2.896304275280373,2.1400079866804367
50,1.8030530530696942,0.3915807393117192,1.5948607604024854,-0.9366768561147745,-1.06691970833216,-5.228921298860472,4.149316730392608,3.4872998882522652,5.513689635286069,-0.8887402572681276,-1.7068859106505165,1.333579552108748,-0.3029788727749827,-0.16873714474283963
51,1.3683871131632588,0.028517184450239978,2.008395936344788,-0.8115460754559157,-1.92756705970579,-7.597123454427287,2.4915609954106084,-1.4185337251781096,-11.446131319047717,-8.030352043015508,-5.629472362143126,-2.41575321122836,-3.2204209260602603,-2.1040375249496113
52,0.7702911705562391,-0.22071830423407002,2.081870979243208,-0.43130697002880003,-2.154559780017732,-7.540873967035383,0.4689216769297871,-5.832547828634694,-24.862429754723117,-12.879702363461174,-7.969946277289715,-5.422889524199141,-5.144467527959492,-3.2153816618350426
53,0.10288851562857475,-0.3178791584844995,1.729386289018538,0.04087543498437887,-1.6927387016223792,-5.070305342930234,-1.4786781286068815,-8.446189241745127,-30.58327287348621,-14.063644008903875,-8.214168420402807,-6.914952422489585,-5.636276387423177,-3.311929243454018
54,-0.5265954934340783,-0.2708106612180505,0.9697632267891955,0.4349269806415564,-0.7080874698208077,-0.964049895036848,-2.9847380164998687,-8.514087385908484,-26.892397530688797,-11.267438545105152,-6.387500077599297,-6.5298435566955995,-4.631090864658514,-2.4833953316166935
55,-1.0204133423167117,-0.1314626430532955,-0.0621699683538517,0.6249513553713084,0.47018800739840994,3.493219603880438,-3.8036116788167154,-6.0665267321132506,-15.010923483329645,-5.316586852713071,-3.0289184043076527,-4.41132313425676,-2.4474945974896856,-1.0502579977072648
56,-1.3146825823171768,0.018044730749764128,-1.1429009242776116,0.5605832807269351,1.4597102924626153,6.925905268912745,-3.827905608600195,-1.8819480640183996,1.3369217728721137,2.07465563880319,0.95923887951087,-1.168142587553046,0.29744464498666334,0.5367707389534295
57,-1.395439946343916,0.08993253159411493,-2.019200029590561,0.27295062787419544,1.9495531239796446,8.297916433423177,-3.0867572245084705,2.7650759464660197,17.13006970778474,8.807413011180627,4.54535148725716,2.2927741130134818,2.8476433653662685,1.819503672417642
58,-1.2981980232323347,0.020462445463703002,-2.4798376794744836,-0.14228344821355812,1.7979969789835124,7.222246430151208,-1.733815128913711,6.496940334450141,27.623649685821178,13.001667724624333,6.82769297705982,5.014835985949683,4.504593809535244,2.447652645561088
59,-1.0892473818433526,-0.20384103199838635,-2.4161360778437895,-0.5566082320287479,1.0722309956008533,4.058074054180307,-0.02710914150753533,8.24400772666631,29.783303092016006,13.52166175875115,7.255809365136174,6.254741320101016,4.8130226115499495,2.261959614258077
60,-0.8352187062954741,-0.5330208042115406,-1.8513343582120192,-0.8448251299436512,0.01915246409324815,-0.2249786032914561,1.7029031945101893,7.549853941460661,23.14199428057964,10.275326796566835,5.761404542720015,5.687519938182902,3.687510439570843,1.3286444662373154
61,-0.5737803499502994,-0.8606723312804436,-0.9300066394332528,-0.9166694498257236,-1.0204583005036179,-4.362055730468036,3.1018066213740743,4.684155930236204,9.843631420081147,4.211449622777117,2.768122054534276,3.496058415938429,1.4438565791102467,-0.0809958122294802
62,-0.29943688371105376,-1.0524256769652407,0.12711753536481543,-0.7379570982199757,-1.7240442276008066,-7.18160839781279,3.8558179081525936,0.5380056753325142,-6.09652679009094,-2.9717006194581166,-0.921271371200582,0.3188506709321888,-1.2783939573641494,-1.5610332189110407
63,0.027069288257133135,-0.9896781305918523,1.086195073562444,-0.33850703766467555,-1.8880731963513069,-7.9447086103440405,3.763184372362553,-3.657791153051787,-20.046010218360852,-9.311779700017613,-4.332086308746079,-2.93057392726058,-3.6869441761552353,-2.6759715242637117
64,0.4475696711065628,-0.6155060661307111,1.760000773702191,0.19361729477469086,-1.485444406605137,-6.535408400172679,2.794786110733464,-6.700799911602878,-28.1176331446465,-13.118712532836765,-6.567684908003035,-5.32221072048825,-5.058226039394468,-3.0763247305613315
65,0.9662304654147531,0.033483690668366956,2.046808012500373,0.7305511037625818,-0.6632730336071054,-3.454802402218078,1.1232313446396498,-7.760413984342539,-28.23300831620365,-13.414041549583413,-7.039430848902526,-6.172733911426741,-4.9484347847931165,-2.5961942327129433
66,1.5194243810012211,0.8231036984132778,1.9403220650327448,1.1333457902343924,0.3146500332889032,0.36508751981564475,-0.895537278328596,-6.599043487763124,-20.602760036187487,-10.16194226774766,-5.618130539770105,-5.237928134456593,-3.3319916944098433,-1.3064176778044672
67,1.9731906953562177,1.5508505686327136,1.513438352316048,1.2864306814260653,1.1583198858103914,3.857786823839189,-2.7920373670402485,-3.614238477153354,-7.5353692721419945,-4.244415640390167,-2.6678165383273993,-2.7793746276375892,-0.6230830566393581,0.49361477663617653
68,2.155705851844297,2.002385709798431,0.8864671860383195,1.13058389243134,1.6428534432594508,6.131728832817677,-4.092501633294148,0.3005560834460936,7.312478053664689,2.7962299437507636,1.0474104450855022,0.5129275713726329,2.4312322048679613,2.3468550281414147
69,1.917357113070433,2.0183371568739017,0.1927783409594916,0.6851534355819472,1.6704577791009676,6.7001228386950835,-4.441364016576159,4.027407379282607,19.986937150297372,9.167062234551295,4.559947953935376,3.71826828612371,4.959316670751549,3.755960936172602
70,1.1975494366407562,1.549037967164735,-0.4482362067989446,0.05074509351556221,1.2849859336140272,5.572331547246239,-3.7032433470486557,6.54414245400269,27.279891731016125,13.275122183536414,6.948075958102819,5.944929648058784,6.215489441924658,4.316536394993735
71,0.07135144342212327,0.6774126241939996,-0.9469141039610212,-0.6122365427930926,0.6389121772922519,3.1960367850546336,-2.013229359948726,7.201692002293432,27.494766465044073,14.107941035062652,7.573650508405273,6.576832426019523,5.798715421717472,3.829516102622801
72,-1.2462102000971094,-0.3994577202624889,-1.249294306690278,-1.1263909365469764,-0.07057513633359579,0.28553144686196014,0.24304341417916575,5.884474591007075,20.772908789045335,11.459593087041783,6.246701962159499,5.437876744694683,3.7732975096630876,2.3606286099164535
73,-2.446025167670075,-1.4251144767508406,-1.3373526310465254,-1.3503229734212823,-0.6700204428128592,-2.3992965610067096,2.518540891029932,3.0166981866099545,8.949160705771295,5.960440035069129,3.2748672856043988,2.8306165068732896,0.6544775498759784,0.22942006022599903
74,-3.2099015915879967,-2.1567997021909444,-1.2266606563844034,-1.2248821736096198,-1.057267416995218,-4.2535813916314575,4.241728817038628,-0.5779979443904332,-4.978978258106662,-1.0849219281391356,-0.6141396852008112,-0.5566636668577639,-2.736879446784588,-2.069549008273846
75,-3.3076924301617763,-2.432291086618875,-0.9618477544441504,-0.795518167241775,-1.2133911978242782,-4.955149573831098,4.964872774699637,-3.9167707971467607,-17.609343109915535,-8.007075332500206,-4.455903705406161,-3.8431323589154514,-5.506178258266331,-3.991321229163476
76,-2.6731036780152486,-2.208715725746548,-0.6080680267055993,-0.20033047464009954,-1.1800340486746184,-4.497135104697061,4.483040062311938,-6.127037517552879,-25.93469186956448,-13.157043114374021,-7.290737678599472,-6.191429921377206,-6.933368089860336,-5.076442926316675
77,-1.4308900329217766,-1.562532104755953,-0.23700989207890324,0.3747292607118423,-1.017547034661602,-3.135068352407775,2.8908689281471047,-6.671484784823924,-28.013412072308007,-15.284165270046651,-8.401779173541035,-7.021059666613454,-6.664259294369166,-5.061772784662815
78,0.1350799683519204,-0.6545762929180262,0.09102324605372303,0.7592639028034728,-0.7663867892078462,-1.2803569429762682,0.5616285858972471,-5.4718286262866105,-23.383140956810703,-13.826755934068839,-7.490811050186792,-6.144573578044164,-4.791672597400594,-3.93874432267212
79,1.662361208805526,0.3235211179961412,0.3435601978289279,0.8578001841013986,-0.43109595191936123,0.6201586821938814,-1.9452832184403366,-2.905231222815372,-13.145105708144722,-9.05269316808718,-4.749901581352595,-3.796898372773761,-1.8092062732082483,-1.9477885962532597
80,2.811454721388521,1.2001598255278898,0.5234850941670147,0.6824218947093553,0.005651586986990006,2.185018838817752,-4.023131276057681,0.3174886284250606,0.29187969665910163,-2.0155576333993253,-0.8135377078537274,-0.558593497623425,1.5402925546043365,0.4846292628556302
81,3.354260175905318,1.8545427179780745,0.6620110772879046,0.3450555387284487,0.5468247725555229,3.1603939611602403,-5.166489873265726,3.3525613563271524,13.75715287844481,5.67121023813286,3.3949473912585106,2.79930167027222,4.469941194741434,2.846157566622035
82,3.2219525323959126,2.2211919365163393,0.7972450723413016,0.011004931250273487,1.142569575933464,3.4408808951236733,-5.09264694546345,5.445915297744539,24.045451673857805,12.199551154604702,6.884184496369891,5.504698449887644,6.3453116471764615,4.649464174018336
83,2.501305643990062,2.274810921378768,0.9458950120246767,-0.1691552698563908,1.6726141992336765,3.057676633591227,-3.8075681213487047,6.119111530052591,28.672309841160622,15.993243202872746,8.829556610807138,6.960745312351639,6.819596029822144,5.529241638655859
84,1.387941542390097,2.010624865105834,1.0810140326729918,-0.12273739044863292,1.9650157502944239,2.147734346785786,-1.6031548389340695,5.273401184015357,26.48415755495929,16.095809960006626,8.766616992571493,6.870119698178484,5.879849336410224,5.3081119088541655
85,0.119351518586843,1.4356512792386176,1.128671825856591,0.11265500264085497,1.8509853914748327,0.9160258806520943,1.0110402952957391,3.1908526596935998,17.967189974340094,12.421109405638587,6.698358335556335,5.284723359952226,3.8067676050160855,4.023690545857499
86,-1.0856997219591775,0.5784442674547067,0.9900512802233484,0.4020055362857415,1.2381288141320632,-0.40179868222990534,3.4245074607587984,0.4393583061400746,5.159577919882309,5.795350927211377,3.0921345147974355,2.576939868910354,1.0748087399765285,1.917171089125628
87,-2.0623210822388263,-0.4873835156336127,0.5846783109001588,0.5678838287844084,0.17290234670485233,-1.5738442332649956,5.064679566405169,-2.287421485878032,-8.832798283764674,-2.2303678114060337,-1.232020933194935,-0.654628659170236,-1.7692714701043246,-0.6111664585642411
88,-2.704752882044262,-1.6211238335610563,-0.10032427877242271,0.46716652115898516,-1.137122196693827,-2.4033687773965093,5.528455687433583,-4.34953013895586,-20.608933392400907,-9.75676925463892,-5.294439629565272,-3.720246844199492,-4.214868948605514,-3.071817367605563
89,-2.951882827224876,-2.6131803657591735,-0.975967542663038,0.05924555562824606,-2.3583979623003843,-2.756514914200433,4.678698898842652,-5.312280555652978,-27.337347263130205,-15.007795054998153,-8.18382938371346,-5.984754484937021,-5.862554491858311,-4.972378494738656
90,-2.770998527802201,-3.2163423951603103,-1.8507717620141309,-0.5627399894744362,-3.1204776686170876,-2.583546158867535,2.6844629107651556,-5.03352397732726,-27.479282582537458,-16.77224871272143,-9.265750892036227,-6.9944386120103665,-6.462653492951743,-5.9096595413625135
91,-2.155516569417457,-3.209359838781443,-2.4717422459857055,-1.1929867225538862,-3.1339332033507077,-1.928871805421498,-0.006255370592207118,-3.6700927141966098,-21.16792720826172,-14.696890732029676,-8.322305521614155,-6.561619242661857,-5.927309092779159,-5.654024828704174
92,-1.1416104781626824,-2.4761446290934166,-2.599265215091941,-1.5819840110294119,-2.297908367119747,-0.925292905490059,-2.7596125429208445,-1.609734946207882,-10.135904578921279,-9.353362144847209,-5.591355387208014,-4.793197354765615,-4.329730602302395,-4.20957796933095
93,0.1652037907274058,-1.0724864370153058,-2.093471823661014,-1.5298975540804682,-0.7575147115558074,0.22930716302125514,-4.898986965084563,0.6458160383904873,2.7852540778965373,-2.0659941799880195,-1.6990714582448636,-2.0608246026915578,-1.8988774731035896,-1.8334393461945524
94,1.572341550620913,0.749245155403822,-0.9816973638282336,-0.9700589165840076,1.1145308167351742,1.3099648754782633,-5.868842319167421,2.6104384291172726,14.443360081317804,5.444500739367303,2.493846294239262,1.0786569332917642,0.9925122786791802,0.9980344807724655
95,2.8106844519865404,2.576393510298365,0.5205943235746655,-0.009978883620782511,2.812952492914516,2.109774897264441,-5.381278249452657,3.920392619228716,22.19138693269953,11.496835839922678,6.091577040652139,3.9952619489354193,3.8573033517997493,3.6777469010201713
96,3.582977481820854,3.9325032939902793,2.0496200906495745,1.0885466941543152,3.8458326032606958,2.481798771618883,-3.5062456384584193,4.393786525825141,24.52435881080487,14.843768781154846,8.35881023668754,6.108371742587723,6.152834350368137,5.59811410725366
97,3.643167861383712,4.410857724495187,3.1879057454153603,1.9870117623428887,3.886384628374078,2.3676705729811496,-0.6759353921336657,4.035445806471859,21.359409682989856,14.925892971925318,8.868009769553144,6.997234482406714,7.373259811524851,6.295702067698356
98,2.8834310394081615,3.8052927847251246,3.5878195448593084,2.3809114461762673,2.881159284279933,1.8062303742564496,2.406533131073424,2.997286196175695,13.909825952576707,11.933960718905801,7.5697115019011365,6.480386846647433,7.164312078367823,5.574012694034203
99,1.396762537438539,2.1944246295533523,3.0854774137588605,2.1059553113717073,1.0777382196589487,0.9208947245147974,4.938298758561955,1.5160447845029896,4.230736106014446,6.687968023852731,4.7787306243227965,4.65097306899552,5.433603733835133,3.5690712469557955
100,-0.5137422612796514,-0.05351287200651421,1.76633593395621,1.2022485731114105,-1.039622232981081,-0.10996529917810022,6.22731861678448,-0.14724953039242283,-5.394237744037006,0.390009088148378,1.0892189487242794,1.8622323558234102,2.4203389672165847,0.7343298741238156
101,-2.3924554912679716,-2.3646099180436155,-0.042974642568355585,-0.08762064074181886,-2.8882148207902505,-1.0913881245477186,5.886277407102596,-1.7484729733603195,-13.02823270951926,-5.667877538933847,-2.7553749571788937,-1.3350892818027775,-1.3087340736843742,-2.2582258530731574
102,-3.7465690777869947,-4.1130019666202635,-1.859184943407054,-1.3884375286617414,-3.9568724286101484,-1.8494039162928702,3.953669798427508,-3.0773015217827733,-17.461146457031663,-10.364188213158258,-6.007477945828438,-4.294485672349672,-4.953668684893173,-4.6805142620694165
103,-4.188271910311508,-4.801384301932553,-3.180757156451608,-2.308752093376075,-3.955468938524575,-2.259878895338758,0.9028126312999839,-3.957637287739566,-18.324232348531133,-12.926762152519776,-8.04955129891491,-6.3990286166620685,-7.655972323100587,-5.934555006749867
104,-3.5597481048754025,-4.213904483561108,-3.6385325578528573,-2.566101103411629,-2.898359055040519,-2.2642461621420398,-2.4703152330941873,-4.246806100281216,-15.967074349134464,-13.015053006634481,-8.498715390584573,-7.188997663266007,-8.715273902311173,-5.712981210763717
105,-1.9981976950880578,-2.4923987694458143,-3.110896412824908,-2.0796098313130527,-1.097111772572736,-1.871918611474705,-5.254677087176034,-3.847562335951965,-11.196910521859882,-10.719976954957993,-7.270639956648438,-6.466813483940747,-7.78959704389465,-4.088110153052549
106,0.08579915592554668,-0.10816767738922066,-1.765055602412695,-0.9986780897109121,0.9340200547066131,-1.1524692816644906,-6.672479962561993,-2.737660115206819,-5.003333714590979,-6.508809899904932,-4.596319207889265,-4.354503573839546,-5.0172731906899894,-1.5008000229968665
107,2.116665466205343,2.267344961601111,-0.008591117896912446,0.3427638208663881,2.6301622695904787,-0.22205710770426357,-6.299304070036233,-1.0085504522392494,1.6368208739462777,-1.1393558644874158,-0.9882435557362265,-1.2849466393696496,-1.0151186931899747,1.3531274603078858
108,3.5202889263037025,3.9577089231919467,1.6356656679869581,1.5323400656640236,3.5391215465675425,0.7721668602105768,-4.192694174061541,1.1062143771425594,7.840897344841456,4.445385404432502,2.843977959924226,2.0793145614654134,3.258816557030975,3.711719478375255
109,3.898578540512468,4.48460487386849,2.692582983177347,2.211280857228499,3.447415001221813,1.6681997457127833,-0.8898730995920091,3.235411796686282,12.819260125874582,9.242895261922417,6.12173357022457,4.988423461882418,6.748294988534315,4.9598644823373
110,3.1561037181122007,3.7154549854954375,2.8828682143163955,2.1889665925480166,2.432827615094322,2.306885905900725,2.728781734889507,4.9225202522368665,15.86196236677892,12.340206888839273,8.152077160415947,6.779296355175735,8.58241246889261,4.804654091819033
111,1.5353048899560204,1.9068648650917623,2.2073496397349532,1.501889318974608,0.830093327611339,2.553345144318257,5.675975028671403,5.72470933767277,16.381642634028918,13.078971096560936,8.480502976658684,7.039143253480402,8.31699756150954,3.3589249660053047
112,-0.45511401563294873,-0.3732882694801164,0.9389275247875868,0.39735998166093117,-0.8774291043324377,2.322967071604917,7.129788356978747,5.337259853911254,14.04030694551924,11.21075671559719,7.00621230324635,5.714047060987152,6.059884669077867,1.1041484846622993
113,-2.1989114933682194,-2.423252354467922,-0.4751989667527222,-0.7523254330320938,-2.205370445523225,1.6089233417295596,6.666338622557563,3.7065674164464224,8.927793112093005,7.000647315811831,4.026089651071401,3.129554216180784,2.439372545319377,-1.2594257970433669
114,-3.1682091746923065,-3.628736098031675,-1.5674758673114668,-1.5758367185816755,-2.809644394318872,0.5032090298398705,4.385994624165052,1.0904351452748737,1.7092936604247941,1.234006422834608,0.18675334194306473,-0.08696343453243023,-1.5767847170150382,-3.030675621585852
115,-3.0921756508994283,-3.6562931892937947,-2.006845614219023,-1.825726149432623,-2.5790544363804613,-0.7999998780552687,0.8944377161028207,-1.9652454150120944,-6.355954417442022,-4.90256613676494,-3.653344704546781,-3.1644675139366827,-4.9574677553309465,-3.724686729215551
116,-2.0414643875007714,-2.5545276683044706,-1.7042178256918346,-1.4563981687744105,-1.6531122839020655,-2.028551578837067,-2.859919929439101,-4.740634142601032,-13.59108717767163,-10.061258179776221,-6.6237358353161895,-5.384958661648213,-6.8949463781620945,-3.218070667229406
117,-0.39903118160628737,-0.7290435521620754,-0.8307460734819505,-0.6311802711311062,-0.36305519366227956,-2.8868112153127234,-5.849161223057965,-6.523985267103552,-18.269186792834656,-13.047886835320808,-8.054589768660279,-6.26441022101282,-7.015414693809451,-1.7740033817907237
118,1.2731624372266523,1.2000923120947724,0.2553972048207849,0.34232822737258406,0.8817955878656689,-3.1316952401368634,-7.255979095551742,-6.812394338123333,-19.08549897366921,-13.131817098630801,-7.645039298608754,-5.667753806071891,-5.452583417803011,0.06111368437279085
119,2.425656467964371,2.6090341889483235,1.1450825218551852,1.1241673166406234,1.7238401241591252,-2.649921243005017,-6.706625225023974,-5.469768177760578,-15.587291113435755,-10.259920438381197,-5.539092075217118,-3.8273927616415047,-2.7692871232774285,1.652838788406086
120,2.7047559499170344,3.0761049797141355,1.5263303974048765,1.4604804981313453,1.9613916890864946,-1.5098968704801807,-4.377126834538464,-2.788334649727168,-8.404370954749892,-5.102143291458646,-2.285765860243899,-1.2635588697670155,0.23882283526088327,2.496666031581754
121,2.0642349402072453,2.512472190984396,1.29063736004227,1.2665307501967176,1.5960151011821944,0.03500044451572702,-0.9394987441677216,0.5728998848344699,0.8262190159357415,1.0983098125033561,1.3067940481070754,1.3665811259100018,2.787998101769795,2.381886535008588
122,0.7681304500469178,1.174624540613266,0.5606686589790718,0.6462609641580113,0.8120915872021629,1.6013740750448862,2.6373766701038948,3.7609964976241597,9.850920889794237,6.838441526115353,4.382517632271172,3.4449925996506487,4.320032212756154,1.444855349147826
123,-0.7133762697747272,-0.4415233005271226,-0.36730330666696925,-0.15571885205578687,-0.0994886897010945,2.7785337923530187,5.372628944606826,5.964728008262094,16.405899793568516,10.74835852087175,6.254649226278834,4.5438829170286885,4.622882263677997,0.09662795574330829
124,-1.8748384331639318,-1.7830286137823312,-1.1410793947285758,-0.8491368984475484,-0.8441356247408466,3.2494165498496104,6.557278707453847,6.642368505000593,18.857612484218322,11.95158799863774,6.5694824254393005,4.51311326185113,3.833360767796606,-1.1433220903983
125,-2.35024677282069,-2.431189361941637,-1.4840045632379464,-1.2032569667242219,-1.2170285454769,2.890032982863181,5.950431509242878,5.671696411902892,16.67511625984395,10.28801502550556,5.374704057843585,3.4871000414330204,2.3386243027282685,-1.8416623485311618
126,-2.0295069555328915,-2.233826351487241,-1.2910000816262468,-1.1236000949062814,-1.1574874773030885,1.8119331933281584,3.8291626172137065,3.376149978574575,10.580063454794907,6.335170272632064,3.0795551760106172,1.8188266059971103,0.6238876141214476,-1.8004607061928244
127,-1.0783719812061763,-1.3354159407130375,-0.6557527588031616,-0.6742058861212709,-0.7502141823460847,0.3303224599565984,0.8806600586591798,0.420209366091648,2.3231316381921814,1.2244108228612505,0.32477320986272673,-0.03243833807174344,-0.8764781225407049,-1.1083327500976277
