,AF3,F7,F3,FC5,T7,P7,O1,O2,P8,T8,FC6,F4,F8,AF4
0,-0.030967514700482424,-0.06310286866327781,-0.14611003128596625,-0.12245538915342025,-0.30275733042823944,-0.08692115794033294,0.3198262404450215,1.2430571830038166,1.9571595640176995,0.5030613958583414,-0.06529963319657013,-0.15446082367150502,-0.3429179039909979,-0.33873374927719935
1,0.9579868658419963,0.1262528333312863,2.5341270925903725,2.1667325727285047,-0.1508940151706419,-0.12713264109722613,0.7755042406068375,0.8006866496159896,-4.259656000126694,-0.17066038725497484,3.151047604120376,3.564434466271657,0.5186333250950192,3.5632771657940205
2,1.6266420756989926,0.22762010262056628,4.516084535158848,3.905466031302629,0.1347596283164376,0.1861021569789861,1.1867200670482538,0.49445607529659646,-8.398660626062826,-0.3829910144979284,5.748630515454455,6.411856195302778,1.2947341589875356,6.437150194472822
3,1.7659498232271647,0.2226931693031729,5.286463978082312,4.700415020473236,0.5808333193605767,1.0113765165613846,1.5579601380294699,0.6897933007032204,-8.616984121887597,0.28746436181528123,7.254759010681331,7.74040905532253,1.8965236671243144,7.529996494422933
4,1.370416291842302,0.15323989810313995,4.685494809640266,4.422682824498747,1.1171563031198761,2.206487093983621,1.8324088818207076,1.4958732681273033,-4.4929866128317,1.8864848083494985,7.433165338339115,7.305553816135417,2.2708300468717058,6.640175786952559
5,0.6322606298397563,0.10142461915814616,2.942716738939744,3.227826494945766,1.5870169662254339,3.346547335056262,1.893345192197645,2.6902691534054757,2.766110913829676,4.023549719174302,6.316427094243021,5.311226361420178,2.396732239835461,4.158022228278463
6,-0.1430314313853934,0.14748838154656602,0.5940306105241977,1.4896826861765042,1.798989963408538,3.8749330894407534,1.6051991121874418,3.768807637985122,10.669481344549933,5.964709480972974,4.174598276102355,2.3285920397726834,2.2724982223530845,0.914296535519584
7,-0.6643978925047851,0.3228594108955827,-1.690524110471172,-0.32630184058869294,1.6020210031719686,3.3341750959333787,0.8815628409340205,4.113749362743743,16.243893986623693,6.858007342370918,1.4355528957890618,-0.8815216027709671,1.901184825472733,-2.1076547147224125
8,-0.7735484644361679,0.5805317953522033,-3.3110754452296884,-1.8054879143228193,0.9549394686957116,1.587865489903845,-0.2462807483690157,3.231026055533163,17.04143986260088,6.026314260411719,-1.41572731313532,-3.5839425778305354,1.2844161356645611,-4.094668894642732
9,-0.5054657473884693,0.7991489120917504,-3.9088431035313396,-2.6945436440618225,-0.038024651674529675,-1.058489194947357,-1.5914596981055926,0.9776899132133663,12.028194409335029,3.2364225661519206,-3.9298873173135873,-5.255668670426849,0.4307243457927383,-4.650580319193924
10,-0.06629907389459638,0.8242578619339266,-3.4516731413537527,-2.9462017734843364,-1.1426407408455752,-3.897241914297828,-2.828219644508434,-2.3048876113996317,2.0545165961326037,-1.146012568630266,-5.756983128069436,-5.691013462489725,-0.6221457463371628,-3.885665979010824
11,0.2622307543660224,0.5344035600304824,-2.2122375304218203,-2.689651087893785,-2.0593950274691513,-6.021005019464541,-3.5693619350190913,-5.813727803549159,-10.269137411305534,-6.177440074387961,-6.674563715337599,-5.003117619381627,-1.7800619023612672,-2.325097076767133
12,0.2523863891470243,-0.09269769333421103,-0.6530298673680961,-2.145113311912127,-2.5172315903668423,-6.627356430964936,-3.4873847600352152,-8.477734989290262,-21.282925310663487,-10.545322542797516,-6.58765975415604,-3.535030297363949,-2.8758754964673927,-0.6779956129103281
13,-0.16027766241388725,-0.942371734439598,0.7379144576781628,-1.5203855393859942,-2.3642195480264903,-5.3215215446572275,-2.441985622157593,-9.279037418431459,-27.377896587678485,-12.91956279645166,-5.516780450603614,-1.7216562260220465,-3.6791996616802436,0.4422962688345364
14,-0.8349032506765068,-1.7746137653648406,1.6029526487763879,-0.9315198428948109,-1.622762484004924,-2.30450530809589,-0.5673818734310753,-7.608819682099717,-26.154322179697285,-12.352398714515822,-3.5891299117060913,0.044881729964704686,-3.9410810070054474,0.741187322738052
15,-1.4711667381249516,-2.2892340041827177,1.8113134057143396,-0.3779685639827446,-0.4885997255897195,1.6329023172760184,1.719966026653635,-3.539527106558475,-17.271113512813407,-8.60839288612796,-1.0386863654619056,1.5024648771431803,-3.4681497523360956,0.32795172703995035
16,-1.7279182598166891,-2.227763534241774,1.4687505179531852,0.22091895746047027,0.7276410061446436,5.325182690433068,3.8095345377083696,2.09178886780184,-2.6987422637273664,-2.315913699813462,1.7924812432379975,2.538606830832161,-2.2052289341474465,-0.3637098182018564
17,-1.3689970028211167,-1.4783099728547788,0.8449998432111178,0.9471390061247955,1.6972403263429687,7.596447024319467,5.064612095626064,7.843136016368677,13.737237262580779,5.124092896374953,4.4689609469465825,3.1512065697617366,-0.2950317022412177,-0.7828397406080613
18,-0.37755238894933624,-0.14353466130407327,0.25222159044247927,1.8004046988735631,2.175716112560063,7.656249725004739,5.022773402339716,12.04796401004351,27.415602432753026,11.867355207518516,6.50996372821378,3.381370479390048,1.915332119292942,-0.5109665126792515
19,1.0095439533883603,1.4593102799967643,-0.07739836832550583,2.650182277971132,2.075844709398497,5.389755407744748,3.5643028301312745,13.3157594912109,34.27906275079578,16.114673283111753,7.475838281612256,3.256263355289749,3.9366277921655746,0.5455592765492849
20,2.3655908538707586,2.8754965616362034,-0.07008414291695947,3.25023146383302,1.4869887371025092,1.4340955135594633,0.9876339342378864,10.99971382518982,32.08227613795486,16.624357708411345,7.079035785934351,2.769891889975723,5.259682970276376,2.0967276428938795
21,3.216498805207384,3.6484811612190104,0.1803147267132021,3.3169302339142823,0.6354544477630867,-2.997851296092703,-2.0433498191180557,5.472823216550878,21.134282636262252,13.095434054996536,5.287086357048149,1.9080193015786067,5.503522109826042,3.566854264612893
22,3.21082650629472,3.471908338662014,0.46997255575714164,2.645145759142833,-0.1986461069786073,-6.498095413208844,-4.674741259226693,-1.8974830880478717,4.286147058904403,6.297727396413872,2.3774094183294507,0.7002269835978713,4.540548298943732,4.311840603182497
23,2.2545900296857786,2.3057575774982464,0.5822884070792539,1.2169571476653116,-0.7777205727782862,-7.926445299776638,-6.113253069833891,-9.094757423528801,-13.855126222127586,-2.103806948639105,-1.0876160618883326,-0.7321415306477177,2.5527846276759334,3.872613150785567
24,0.560127358511315,0.412922255590555,0.3841801277657278,-0.7430407061763276,-0.9822488047549759,-6.79961934924665,-5.875699883095559,-14.031717107635304,-28.261305912112373,-9.990511376316915,-4.373075435379145,-2.162670765396605,-0.00543478565923318,2.1683813700164256
25,-1.4104384426669447,-1.7024046331619223,-0.11609280326771397,-2.7953618313259128,-0.8401466738359343,-3.4702916274411413,-3.9562337534118384,-15.189388345535349,-34.96263695696414,-15.372605427189852,-6.748238511006584,-3.296538859270563,-2.5304075576317704,-0.44344684431323317
26,-3.0883408651870536,-3.439730997870038,-0.7702487619362126,-4.396239679439799,-0.5018085948173886,0.9718888514890696,-0.8526605035327284,-12.113327204884596,-32.216223469679775,-16.940356734364702,-7.678294639911288,-3.84977114938676,-4.438609367898365,-3.2639509007122056
27,-3.978404888961432,-4.285970890518509,-1.3474231156974363,-5.059886625224376,-0.1722461502179919,5.05117918273848,2.5636837432065263,-5.598192672278925,-21.00021491417981,-14.417648937207279,-6.97160512199844,-3.643447353950062,-5.326688232594016,-5.472066700623421
28,-3.8148503136233907,-3.9779674437045385,-1.6235290405409777,-4.519564722132989,-0.026559350315433144,7.394979173895465,5.299877164665982,2.513748073332592,-4.682365818686691,-8.61211301738925,-4.833893236648308,-2.676261985068573,-5.069729710444435,-6.389562596961198
29,-2.641444148198848,-2.5894199598241836,-1.4674541791660445,-2.8314415684869343,-0.14005401885382246,7.197853947945575,6.539974406029165,9.870557350140576,12.027154762755746,-1.15127101943949,-1.8098748300179117,-1.1449913890489756,-3.8291589708549867,-5.700452275436661
30,-0.7924890283958061,-0.5124129836910161,-0.8918123067156128,-0.3820928111212396,-0.45826466297366997,4.502210054767482,5.897677301093831,14.322866471828616,24.5033777954238,6.007296291023736,1.3702261125355661,0.5988666298549078,-1.9751641419488613,-3.552227202677597
31,1.2147689213835415,1.6611143003866011,-0.050563322877228783,2.2081394266452286,-0.8174464030478868,0.19731669912995078,3.5427847729579836,14.586201303499843,29.563837129821184,11.13505150738182,3.990645699870662,2.1443764012561357,0.04150957737012647,-0.5090593266738768
32,2.8376861197005097,3.319395807789393,0.8139113692853426,4.258838070877098,-1.0080549154706795,-4.267378649832467,0.15928563085942352,10.640224529056242,26.336698500984856,13.188168807075877,5.533939107482097,3.137283378519495,1.8188849494041106,2.6223703372993596
33,3.6641831412578236,4.014103650280663,1.45349423605343,5.22693034983534,-0.8585302778200388,-7.3619651950576666,-3.254848375344166,3.733902645902404,16.38764356586188,12.0281345772079,5.794187048542339,3.37845399418754,3.0904221146629616,5.033459829866872
34,3.5205485972835877,3.588933908024043,1.6963308167827558,4.865992483636154,-0.3093793411041121,-7.989903447031266,-5.686486773770621,-4.007557229818591,3.0977073340755106,8.358243716317299,4.891411143840198,2.872900646947459,3.747786725452693,6.142511776120879
35,2.5036003101345945,2.2151773711547587,1.4994948615809574,3.2975584681226864,0.5495493155297284,-5.863969685845485,-6.41377106405102,-10.248766513655083,-9.47645423287096,3.4213920409736476,3.193394578582576,1.815540234032892,3.8072257442570483,5.743234579855355
36,0.9349629972634443,0.32724658330883083,0.9555529234968575,0.9727062816057747,1.493589286960567,-1.616987324441978,-5.22600893677467,-13.16937818180605,-17.87315481048313,-1.4221171012087634,1.1805102002619816,0.521706722281736,3.3492956830917473,4.035082882392559
37,-0.7421320421093154,-1.5169953671022,0.25335205201270844,-1.463083371476861,2.227211962406446,3.3923619343252036,-2.4889892337304573,-12.016518429884144,-20.217989236965145,-5.090103764213594,-0.6965677751833567,-0.6718412879743973,2.468128681534544,1.5371990039423196
38,-2.089528811551644,-2.804423172420962,-0.3907252352452749,-3.35900493294655,2.478116404881436,7.517094999574045,0.9650559311546937,-7.310663736416409,-16.641634185969725,-7.0251941018270365,-2.121073043502586,-1.502110976657104,1.2551851568995418,-1.077640701716722
39,-2.788239866439553,-3.211246914353639,-0.8055574824028902,-4.243716417763134,2.0912303943811636,9.36021811067552,4.0897816081847225,-0.6457796965287124,-9.031779255463796,-7.235078149173375,-2.951163398853153,-1.8423389767808405,-0.18034749579555334,-3.173462312213731
40,-2.711804364588445,-2.683187285637625,-0.9168749896685643,-3.950893141197183,1.0911737036418478,8.237204092227525,5.9425014690088,5.843213326304173,-0.2516912298848891,-6.147289783779498,-3.19904566722308,-1.7164377380365383,-1.6753738315703794,-4.31044536664471
41,-1.9445721893120143,-1.4331006601838026,-0.761358013967517,-2.65072295813233,-0.30917099064629994,4.410528569022945,5.970301144117764,10.166788282088765,6.875695882824907,-4.362082841945612,-2.9715254301244203,-1.267279567454036,-2.9935879165251245,-4.33416232734736
42,-0.7455306694463264,0.13635427316727505,-0.4609834713489885,-0.7823557446003369,-1.7596078748741657,-0.9813843970749717,4.176967571470565,11.097248307247124,10.463760985414602,-2.411752494893268,-2.404806473001133,-0.6949957006321332,-3.8499170782672865,-3.3806082969130986
43,0.5293041397688801,1.5569650880650785,-0.1692781930407278,1.0878738122313523,-2.869588953478477,-6.2787024408710685,1.1197334290289438,8.5209394878573,10.051969161628637,-0.6155803612508339,-1.6209967177340867,-0.18845317484469848,-3.9840893498995125,-1.807346275183898
44,1.5249587264540914,2.428240032930429,-0.010194843653395758,2.436938306791032,-3.322304733176531,-9.823987832138112,-2.262882168413775,3.4238098696583212,6.564254456154284,0.9322043489583849,-0.7175670087566565,0.12851747120182358,-3.2612078154997617,-0.07817345001076256
45,1.9819268392684268,2.5236347462099182,-0.03179051403287123,2.9328644204791416,-2.9705954548691667,-10.486655387828115,-4.938954255436096,-2.4700702326568877,1.8033615569424846,2.2650205351546906,0.2176407876502577,0.2226960829744422,-1.7570497556703357,1.3644251622847476
46,1.8041690760051756,1.844449904808809,-0.19076358918165315,2.5178340035992988,-1.8843053197189248,-8.020238120185923,-6.098134316112083,-7.276470000616411,-2.29679765446596,3.405218339986281,1.0855112805291618,0.1460762328982778,0.21621996601308135,2.207223918147252
47,1.0833850182171259,0.6113521905223452,-0.3726479117212433,1.4059635923941203,-0.33366753741899785,-3.139679336068141,-5.397112628371755,-9.551034884870917,-4.37379701797666,4.263080980189902,1.7691658035742581,0.005962361930143948,2.169162783961732,2.3315253961133044
48,0.07165444657600198,-0.8011668374611647,-0.4399579499546137,0.001107844699128417,1.286507304779521,2.7033434002338934,-3.0607710506374897,-8.719104692043524,-4.049172974297717,4.6275715833599715,2.151918516767314,-0.07760559467169285,3.5708253040062337,1.8244165708265916
49,-0.8929036395719547,-1.9694935385963181,-0.29085014896691713,-1.236845806766255,2.568403334696568,7.7725347106068465,0.1909983104300155,-5.207357309835554,-1.931737300589093,4.254857043226446,2.1543714622796957,-0.01413497652907087,4.019023148949553,0.9370361962757919
50,-1.4892480837238176,-2.5385426478186988,0.0930605066083946,-1.9349004456596504,3.2042190379283477,10.58109872804216,3.367110254276725,-0.25185795313262416,0.747939894171788,3.0116119557730894,1.7728699055313863,0.22628709329741162,3.383574410571753,0.002304795767975305
51,-1.5163004016999024,-2.322905101687374,0.6279448297042787,-1.9158092990449505,3.066740972976622,10.339455215083685,5.509974165202362,4.5375646189624925,2.6991602803253727,1.0014892566414164,1.0980987913446298,0.6004942353754372,1.865462007587486,-0.6662851859179658
52,-0.9629866957324555,-1.3646134627612438,1.146865232205124,-1.2413426116802386,2.2348349195060755,7.179302297183744,5.986957901546407,7.703076159578006,3.0972740048155925,-1.392971043712416,0.2998624921827511,1.0012134286225056,-0.056837002189415876,-0.8680508427450347
53,-0.019580785221488713,0.0704601743474498,1.4526151912600054,-0.17930282311817494,0.9591894114108049,2.0904849110056625,4.679245791331822,8.381637686483469,1.8744958725337164,-3.586207292906597,-0.42126544617480355,1.2858295295403985,-1.7809727140274396,-0.5745768265852081
54,0.9785967963733372,1.5609117939667225,1.3878374923451697,0.8926390236914039,-0.41784984275604437,-3.4014300995928926,2.010886890020142,6.529655155002019,-0.319607591521691,-4.965950959584823,-0.8993144617472109,1.318610657619202,-2.782625861152959,0.06319418958552031
55,1.6614546772147474,2.6483095481727004,0.898539773049901,1.6138382301646323,-1.5614995656673696,-7.709327055404717,-1.1894513643904274,2.873854346535729,-2.4481850875046556,-5.107278771927306,-1.0599459486721081,1.0159962956623554,-2.7936743020181347,0.7647662990886785
56,1.7540592092187204,2.974937360979863,0.06757483532153627,1.7568806252129812,-2.2322651767558614,-9.65967601580942,-3.949579491407259,-1.374784454051402,-3.5559907721004187,-3.9406338106131136,-0.9450398827482199,0.3821965378010863,-1.8912615220719398,1.2142534661578248
57,1.1813757424549713,2.4003321440926926,-0.8966048179090673,1.2959889939560076,-2.337772874318537,-8.82316759087646,-5.455288258977932,-4.933352838532056,-3.178061807686054,-1.80282528242168,-0.6925056229794323,-0.4769854400065041,-0.4641320656114764,1.171176290125755
58,0.10795554863991269,1.0582037278091876,-1.7160624637544648,0.4067941022130675,-1.9375375297755277,-5.605762167029975,-5.297707329445761,-6.843098999211671,-1.522284087896725,0.6574791854194509,-0.47678664072743887,-1.3697075854427894,0.9323834875608906,0.5622680072428601
59,-1.1068865353833366,-0.6696764455537286,-2.1288308013743635,-0.6004176722704762,-1.2049432895280014,-1.0830419463853886,-3.589694550324662,-6.72468394972695,0.6420528637630168,2.6923155043097533,-0.4321968519959661,-2.0626890702485907,1.7800859187420333,-0.4781688379419892
60,-2.028150367656712,-2.2611367924318837,-1.9767227605612117,-1.3898178742444618,-0.36319282981724016,3.3591109470984657,-0.9164755483746746,-4.825879652441709,2.3350937009482053,3.7103027796213004,-0.5897685988733428,-2.345058396432328,1.785851882051659,-1.637191757736328
61,-2.299722882331731,-3.213879314326941,-1.2655664716644794,-1.7135910280522684,0.3822334632178538,6.457405302812666,1.8612452761052585,-1.8698729508379548,2.8041495458512755,3.481537142922217,-0.8547961747563338,-2.0937485985739372,0.9852048857926443,-2.516943792932259
62,-1.7794941875989996,-3.208917278084084,-0.17515581346154008,-1.491229475908053,0.8941185399978903,7.440524886850669,3.886559607684277,1.2228827297396316,1.861352627440665,2.213715681608823,-1.037557817362659,-1.3196622875644988,-0.2757993004376516,-2.765793069642011
63,-0.6035474630151291,-2.222459886572182,0.9880848581837897,-0.828373110234041,1.124868206154472,6.224794976139617,4.577227443461623,3.6331481835531245,-0.023468633688494285,0.4686245156508451,-0.9291287270453815,-0.1776097558609979,-1.472841961486018,-2.2042934389575306
64,0.8486343343497458,-0.5451515073759913,1.8833404990429004,0.02946061429547137,1.1075639613691437,3.386225157514528,3.8013039902283956,4.862539512959852,-1.9176176281764874,-1.0521254686952168,-0.39557661057589144,1.0666793575574678,-2.1006384738661246,-0.9020928851257717
65,2.0802560017740475,1.302980453705188,2.2436761542056423,0.789835213447007,0.9253399651506661,-0.06795389507102097,1.9028107372407936,4.815655131831888,-2.8307463939960544,-1.7733438614180606,0.5455175977630686,2.1053461699956597,-1.8630803853680025,0.823856746314331
66,2.6519425844796305,2.7376994406855863,1.964040433405594,1.2182627804237383,0.6730656618288395,-3.0433893194122836,-0.42765365743174144,3.741931445721888,-2.1631462653509548,-1.464827293589959,1.698343584162676,2.6733142397544474,-0.7875575844353087,2.4938409270987645
67,2.342069403329729,3.302303538983466,1.1378184792688957,1.216616602373583,0.4251381064655151,-4.702307673170998,-2.3918130406645495,2.0837404569140774,-0.0070330683909854775,-0.3289945555007217,2.727794485455628,2.6231956198672055,0.7771360142511285,3.6084373940781407
68,1.2326255243785968,2.8207810220006335,0.02751747914882433,0.8473727843071609,0.2184999030248578,-4.69867895496846,-3.3514932155351786,0.30244558922623976,2.834353200912421,1.0776559642601218,3.2568248164783316,1.9665747344846833,2.2781741555832333,3.8049588717569542
69,-0.3132074685399353,1.4586347731280653,-1.0218501662248658,0.2969215142618513,0.05321728777249623,-3.238911064053072,-3.036463547755368,-1.2513119580626462,5.133051053020814,2.062491983445218,2.9933251657850923,0.8689799256493824,3.1500605345249535,2.976345002878532
70,-1.7755541275004232,-0.33119980287462303,-1.6972291655491483,-0.20551869276116555,-0.09327526694688522,-0.9628967517557051,-1.6246216766241928,-2.387045133723954,5.726114010642767,2.0742627747328166,1.845041551144654,-0.39873699404255636,3.013980214735378,1.3131167840088616
71,-2.659736408865938,-1.9598771717801162,-1.8196509473657263,-0.4802214442060857,-0.2459443878965449,1.3015034006743178,0.33002158679307936,-3.0474892804858,4.018439939020305,0.9361184159440872,-0.01783259951297983,-1.535792471525135,1.817508582687151,-0.7460506575356969
72,-2.6690395952764536,-2.89975818456935,-1.3978634613900325,-0.4638779676384459,-0.41429194389046664,2.820731909185828,2.0952274539625133,-3.241394804250778,0.29330634138366374,-1.0559729455011875,-2.1781372404548027,-2.2892837493809375,-0.13216856427416865,-2.6399723161888837
73,-1.8053792307857792,-2.8592427511905627,-0.6150163228667352,-0.22554937942020037,-0.5831995143966481,3.1802927537574885,3.016225610268489,-2.9836779821095756,-4.308148696673385,-3.2119879068718853,-4.067487542829818,-2.5116337789108036,-2.2531556774382295,-3.8475742629579326
74,-0.36252305407721575,-1.87568511938345,0.2451068853789317,0.07280569534791091,-0.7152411688274052,2.384737787263767,2.7423764149301464,-2.278344538335878,-8.152579324920836,-4.682182199127558,-5.119333823859072,-2.184270537714109,-3.8657866924988453,-4.0376128781733
75,1.1827069662099021,-0.29612410147007884,0.9032712787850748,0.25304071722989746,-0.7632672082131133,0.8126616009632818,1.3483240661476374,-1.1509707042232968,-9.703581932282509,-4.767557868870346,-4.9373641336441425,-1.406939026344358,-4.406980009832671,-3.1612587305728193
76,2.3381050378629618,1.3449511263236327,1.1811261366429497,0.2016783505676254,-0.6887403086840977,-0.9439033970567697,-0.6907975132631481,0.2931984084976107,-8.118667442800618,-3.196406912827062,-3.4300307691409913,-0.36273464199764194,-3.6159716636954924,-1.462349754233648
77,2.759589252959768,2.5064907644896923,1.0530866113037778,-0.07923155520702774,-0.4793440377094308,-2.291163387242565,-2.660990121130833,1.82737752809779,-3.6241768822271423,-0.2648160855224882,-0.8687621525165342,0.7265081115977731,-1.6335750996460048,0.5945290168638463
78,2.3527184626115183,2.817841169483784,0.6368285424341291,-0.472247513266043,-0.15928535669854912,-2.8218288472479016,-3.852473674428069,3.115580211412213,2.4876644321735353,3.216566924072058,2.1533746014552175,1.642189404723657,1.0180364959928885,2.4546551718509284
79,1.2815088167840545,2.193378946870129,0.13046698024642198,-0.7948996064489467,0.21229264541478512,-2.4217541775213576,-3.8016608867853035,3.7925847290297283,8.258409393989005,6.161113206463615,4.859004636889097,2.202559108694748,3.5735586262743926,3.624306765632482
80,-0.10916661473496758,0.8502919939840956,-0.27454191294280733,-0.8783764350935013,0.5555613374506642,-1.2709394342060067,-2.450560874493878,3.5904706028315942,11.729241325882683,7.556500217163217,6.488686097580892,2.2885175518367507,5.244510775126071,3.801296281520315
81,-1.4199612161275568,-0.7711387123854327,-0.4674392157711509,-0.6410391113414747,0.7930746097172867,0.24685974944794234,-0.1709157513561918,2.4622695185074606,11.637396667370837,6.811322121723309,6.516039074105125,1.8643367100846195,5.45893330608788,2.9517625553262965
82,-2.3211500036251036,-2.1538262843058673,-0.44940172417765717,-0.12599803902188073,0.8740026321202796,1.683315983800429,2.3534426612788737,0.6451047140376462,7.888045070741045,3.979410988894343,4.815547540694397,0.9931661226132955,4.04975473795863,1.3155653705752477
83,-2.631776284143197,-2.866870979067783,-0.3121898541767046,0.5123609418376286,0.7905633991330019,2.661360944593516,4.3450875103998445,-1.3768962283374029,1.6222867622598067,-0.2193560665779445,1.730783682794543,-0.15839910277470906,1.3318346636857934,-0.6590109121229093
84,-2.3357741705310193,-2.694041922149817,-0.1779448225369127,1.0663750418793134,0.5798102408996407,2.9657496973702977,5.178973836845824,-3.0112211390482573,-5.153364367491124,-4.596795898538172,-1.9855678328388295,-1.3362801563306463,-1.962803056370545,-2.4336421047369368
85,-1.5454676569072363,-1.6912677922706305,-0.13071165879839658,1.3528488135778298,0.3091336861412422,2.5698830266510027,4.575706263060956,-3.7547862753646157,-10.25000999951979,-7.854675500285459,-5.354076927932423,-2.243065874995509,-4.881236549889943,-3.521680482954769
86,-0.44215383772641487,-0.1609673479272063,-0.1730422474572849,1.278599772019961,0.05033375844817821,1.6061759000570957,2.682069824239246,-3.37855327457577,-12.049402176336475,-8.990260905852546,-7.430973440628583,-2.6090249734870476,-6.526227053747861,-3.618048354537486
87,0.774257101234011,1.4436947775395923,-0.22854331788147442,0.8684741797359713,-0.1477060832322689,0.30490463246194194,0.01789855821499008,-2.0244551680458627,-10.056485802099559,-7.617683303063519,-7.580298848774572,-2.275384500231585,-6.333439287837641,-2.684389651100148
88,1.9086261100616246,2.652927805474532,-0.18904904159289737,0.24750611100175035,-0.2762534733879538,-1.0697586604582345,-2.687777216413968,-0.16924510178076996,-5.052997176304797,-4.099122095060055,-5.675911742496059,-1.2637053742758906,-4.263528674890045,-0.9662343260443863
89,2.770789677828427,3.113453752593534,0.016791388152815362,-0.4115295187003493,-0.3656991040795215,-2.2669543253619002,-4.714675617179378,1.5397648252625586,1.2004789150689195,0.5589995914459379,-2.167481828390213,0.19813658219344002,-0.8436475796180075,1.0653702617502496
90,3.173551206660117,2.684984076247672,0.3682522149712794,-0.9504328472948956,-0.4653110774626914,-3.075469753281948,-5.553608804299004,2.520220381398086,6.601314567271585,5.01293954073389,2.01944370857133,1.7139677137754428,2.964355382769234,2.8364104536798695
91,2.952356776508077,1.476591335654457,0.7408471572259075,-1.2712756912916392,-0.611281416781911,-3.33812793317472,-5.033814131807583,2.4727724273396228,9.445095677390736,7.993359691991182,5.730491123234471,2.821828531717514,6.038363758918813,3.827325612441251
92,2.016947763279073,-0.18396210195399698,0.9493484706479371,-1.34917061476501,-0.7967945524236216,-2.9672156845087976,-3.3441527895847596,1.4953955047923269,8.999626938453654,8.68965699707845,7.910751522967982,3.136482054608943,7.434706764688642,3.7237616615701885
93,0.4216508926779908,-1.8383557127721462,0.8309367022642129,-1.212710646804528,-0.9588731924513851,-1.9676311446967287,-0.9525081559564584,0.045261562321082555,5.7093929460807065,6.984753453639049,7.9184968846456645,2.487250918783408,6.687085419993721,2.517026669142192
94,-1.5802145656141466,-3.0204554039313285,0.33306415233115527,-0.9081630314536487,-0.991513565915943,-0.4620417343342378,1.5419446140407727,-1.241628650609611,0.9683005002829828,3.4685403833561548,5.7270408222720075,1.0005317453704847,3.968251828927854,0.5210723335362967
95,-3.5385130794799267,-3.382930990338761,-0.43553419273905764,-0.47022127140725783,-0.7845557005498736,1.2984813403096802,3.573059646238638,-1.805580458369673,-3.4398235745032153,-0.7684585859229559,1.9473286634277698,-0.9106059889361745,0.056271428540992714,-1.7052170768194563
96,-4.890631829443985,-2.7956757601588587,-1.2199033734031788,0.08308215752189024,-0.2764247711839525,2.9570702211323048,4.740211754492234,-1.3932575509561027,-6.01278240088201,-4.4882112586578,-2.3425364764209378,-2.657658760027203,-3.8917865482761727,-3.5134696780236006
97,-5.120837072801605,-1.389612265722819,-1.702597413465751,0.7282928278216213,0.4992155389989404,4.116324316695219,4.877652002844011,-0.16937645576610835,-6.058739435914302,-6.686641661953778,-5.913612705088868,-3.6601024605680457,-6.692551992413476,-4.3562340674166
98,-3.950102979005549,0.4683936417472508,-1.6284709681339369,1.401114638097822,1.3940437540356674,4.437878279069815,4.053759920373692,1.3389014384861506,-3.8902052918873298,-6.880333013527801,-7.75276829088415,-3.5425431701410997,-7.505195085121451,-3.955292167796266
99,-1.4867617121967396,2.2669885024747507,-0.9220077011181761,1.9720663743665334,2.166890204969101,3.7494023058020245,2.5154941410617764,2.448227359321181,-0.6257756484253716,-5.212012518085762,-7.365502521235851,-2.276593629096532,-6.097394698785468,-2.394226438872542
100,1.7309104536346804,3.487576306706919,0.2533960092555677,2.2560160794893176,2.5469399844368947,2.1218329635025066,0.6062142877663778,2.5980945592030382,2.3052859758286566,-2.35250082375751,-4.9192872182510365,-0.21289480626150745,-2.920391157075019,-0.10305679453292652
101,4.838661071441517,3.7521386319348142,1.5257508114799359,2.064161321627338,2.3224613737650928,-0.11649909052914638,-1.3143985967813467,1.5926346149233488,3.749180848842737,0.754586443748558,-1.1822764793524447,2.015465506657956,1.0335940451875858,2.263888096239412
102,6.883898486594857,2.9400415050577853,2.432247909086752,1.285762961294582,1.4268363527382815,-2.4439587108738214,-2.9292686800511087,-0.2940231863082785,3.270261791632239,3.2098987710799736,2.7217862286087247,3.691793567237584,4.54683484609144,4.021318938033284
103,7.130276628317018,1.2373954018971434,2.5867120869519162,-0.03189528659017911,-0.009837440159549609,-4.276519965103887,-3.9967999527598455,-2.3972187656276964,1.280989910698747,4.42806554659032,5.662430910456409,4.252562378920528,6.562321550174581,4.658299495543767
104,5.327762196072679,-0.9006776408794357,1.835702636521862,-1.6439606899564847,-1.6675381820044004,-5.129244703797988,-4.364689906269917,-3.90258018926981,-1.180183235472775,4.275820069076753,6.842751135602209,3.4813664654735947,6.514886347359213,3.991537353216681
105,1.8470799327362486,-2.869848273776083,0.34149078715375264,-3.1379399155417227,-3.1079458384518692,-4.758614080342475,-3.9763946573266504,-4.15969939361253,-2.920098093650985,3.046659327863133,6.0241305981006565,1.5913902883863966,4.499749163148571,2.218783383653322
106,-2.3836130298176523,-4.087853941944141,-1.4463242358930384,-4.037834375447864,-3.8953510747714746,-3.2395928373726868,-2.878389961915309,-2.9479696769324852,-3.1106499384835797,1.2996715755334851,3.569028496643632,-0.8351602945606427,1.2253636963190104,-0.14378523639282836
107,-6.135923282662061,-4.168389998775958,-2.928777801386684,-3.9567667959347017,-3.7323183652586476,-0.9511526178203621,-1.2274694518658198,-0.5882426046029663,-1.641331191351685,-0.36517405235543915,0.29670835669181156,-3.032929788581562,-2.230606078802945,-2.4195054358588672
108,-8.258282260812287,-3.04459357890477,-3.5614930410554098,-2.74803098935981,-2.5667406521065375,1.5268057293609103,0.7113964732686001,2.14940467097832,0.83867322754405,-1.5084962627523717,-2.792711892914261,-4.303018633035925,-4.778320932842191,-3.974107834684992
109,-8.050905443848304,-1.001618925591645,-3.053516794793901,-0.5971299915498933,-0.6323238898615555,3.5738914340396253,2.589259673245069,4.313675769486812,3.2024899611034328,-1.9617485569900455,-4.831186573227388,-4.242158164739642,-5.665925378591218,-4.400207268555609
110,-5.510129330907378,1.3958884645901988,-1.4878580513166424,1.988148368975821,1.5965559861447431,4.6981650748777115,4.027021899702651,5.118722312954225,4.331691577323639,-1.820529090636315,-5.331958405920518,-2.87403704995402,-4.707846643400702,-3.627667622106021
111,-1.3530333290589918,3.4633366604834883,0.6842769443375203,4.2998138093271905,3.527907264520134,4.663473617523565,4.694707140611237,4.239459342353064,3.60313402457667,-1.3427122658099229,-4.301794450237777,-0.6389725958055467,-2.3197878016657856,-1.9290941134452197
112,3.1937730750394713,4.5966910443500275,2.779587515792879,5.634143481436975,4.619460795698994,3.539927013257242,4.398490692828139,1.9423443675345318,1.1732797428487882,-0.8068926557877726,-2.192439470900373,1.7533939894046777,0.6444269021808076,0.17660809183479226
113,6.776143725450158,4.453496437891524,4.1061088934992425,5.516176228022392,4.540428420985314,1.667405646098123,3.1487807177098333,-1.0006907261632163,-2.0599251545379724,-0.39460340821813805,0.27910206962005557,3.557395720448576,3.1925701212864768,2.0883929784004684
114,8.339897554786434,3.0583763316170463,4.198114661931668,3.8693392563842504,3.2770892443820294,-0.4515098037600479,1.1829427802011332,-3.5856137386321065,-4.805410623185799,-0.14123927698221894,2.3726240049640364,4.231532671495761,4.525176299549094,3.301655300967104
115,7.461441629134312,0.7993367076011031,2.980416297754373,1.0687731840966355,1.1472506708421446,-2.2935405556374047,-1.072819592000492,-4.936163304705485,-5.898200004182703,0.03440456980400329,3.5471403843346,3.605889766651997,4.286660504831381,3.5464897613958906
116,4.471790235281799,-1.6852215455622932,0.8032224686112838,-2.1470190158086218,-1.2838706909650122,-3.4493287955845804,-3.099327755328304,-4.616402941216935,-4.779525139351962,0.24759846574256453,3.596589070865694,1.923643024716511,2.6566263853247105,2.846612276449054
117,0.33516960578598515,-3.6947550179718274,-1.6665905557545693,-4.884742202781729,-3.363027890086444,-3.7149290837703104,-4.41505651437087,-2.7802670524120576,-1.742484569522708,0.558775054760983,2.6668788613205145,-0.2527116104858755,0.2590715461607187,1.486907436341536
118,-3.6729037259026103,-4.672473554382149,-3.6617891610877646,-6.362224826737593,-4.536182144329617,-3.1206130353833443,-4.7048193860384915,-0.10460405245480922,2.1583042456036083,0.9234348309994499,1.1638756435889408,-2.234325524501195,-2.0704076759346948,-0.09342002103607777
119,-6.376523954593392,-4.365924432502034,-4.565083467035716,-6.147525302916149,-4.506853629775809,-1.8970747077884256,-3.907729848177307,2.465751858361541,5.499778567831413,1.2043189105254695,-0.40461838504935277,-3.43054458720281,-3.573587796013526,-1.4433919667911457
120,-7.061200037888347,-2.8939739372744318,-4.1082698865320655,-4.2938276902606844,-3.317509816433348,-0.39589998816739913,-2.236566291776427,4.062373018382849,7.031891731610951,1.2382029592316075,-1.594519591072836,-3.5299775009151975,-3.814710058036624,-2.231822353894014
121,-5.670189316954689,-0.701703356153812,-2.4534956069890845,-1.3256899241624773,-1.32993622873575,1.009335256002349,-0.1211511921097212,4.197534721996528,6.154722010192873,0.9236048208490962,-2.146013172473632,-2.5811762619921317,-2.802197112892725,-2.328656749242296
122,-2.779601738329681,1.5801001345780332,-0.13146387237683418,1.9196000683129983,0.8878753686582598,2.014109202371856,1.9083967387429595,2.9179384714315435,3.145652727986059,0.28615023521320987,-2.0283198042465562,-0.9524416989154885,-0.9540567114438596,-1.8162850596763838
123,0.6266897355938146,3.325082163664563,2.1390753521251087,4.544724798061927,2.7319035449328974,2.445203172598594,3.3643790007485377,0.7579109044512389,-0.9483887306051356,-0.5110632638794842,-1.406977435867451,0.8083211329333729,1.0707766216803367,-0.9352724884307653
124,3.4957549620244364,4.091528409099339,3.6864282363513627,5.858280264167118,3.736080510745123,2.2835248862049764,3.928626995930175,-1.4806245493786478,-4.7063435622431475,-1.2194519159692785,-0.5571682815279941,2.1608009810828124,2.608677859772076,0.010455859666790902
125,5.039167828502567,3.738612252960277,4.095314742367752,5.570300405840164,3.6972986213320747,1.6478151296778456,3.5280857137160364,-3.0306288251191726,-6.858289266658788,-1.5983221052307026,0.23987826660572828,2.741582907951188,3.21020431048806,0.753710332681276
126,4.952981450135167,2.447034118456408,3.3223908771919004,3.8585365837377408,2.71591315694142,0.7484993746582406,2.3394937958821127,-3.428360995251843,-6.73741984685377,-1.510037202138665,0.7814326611443825,2.4614522813639055,2.7689162962226943,1.1368653204086032
127,3.462118370302991,0.6436695353182526,1.6850351890940767,1.2901486541774894,1.1441521947851752,-0.17360144279408068,0.7255224307146094,-2.6513252570186916,-4.491346417654091,-0.9764422821169627,0.9857101576605646,1.5050898753179005,1.5241198751480334,1.1382765074896997
