,AF3,F7,F3,FC5,T7,P7,O1,O2,P8,T8,FC6,F4,F8,AF4
0,-0.10075384807786811,0.16975057815610153,-0.31964233175223206,-0.17125694023945232,-0.0034597927334376888,-0.4749922585902566,-0.8607691887606131,-0.32729150839370785,-0.22625748537901252,-0.24546780251267877,-0.4188080604952426,-0.47671491841577107,-0.41936131893331613,-0.19775078155706827
1,3.60767819385329,3.2133875558724907,2.6460395100519225,2.3151141458194333,-1.7962459596021896,-4.94413130440774,-2.261808463588939,3.181437085587319,0.8892480541122683,0.8538918429762156,1.4769307042730548,3.5941420431704363,4.223202216138997,6.593369676028866
2,6.312636861221081,5.354997348434982,4.947036927802437,4.185616903415329,-3.2423533437037517,-8.095196806367728,-3.2469801895889536,5.562571986727958,1.270605329786341,1.265309023964349,2.773341799488326,6.601664399564295,7.600542214244935,11.64904197811464
3,7.31537243064079,6.056166239606018,6.049411112867777,4.987842405990814,-4.030080234536266,-9.11105452704983,-3.671362691975107,6.0413100352390865,0.44990382606732704,0.5530207007925036,3.0047866677831885,7.726519382437167,8.765333056405893,13.699083636748615
4,6.455202943538879,5.230124665923649,5.764727030914509,4.585578902159435,-3.964833317806092,-7.798916858104648,-3.4613798132123854,4.505385987309739,-1.5104372989269839,-1.210439413874962,2.10839352943306,6.751013382452015,7.465667767232833,12.337869049477789
5,4.125624966951745,3.237813742809869,4.276956013572516,3.1770672473508172,-3.0191152822432423,-4.619041198640366,-2.6193934767992904,1.537012582228795,-3.9914158479849187,-3.436148310907927,0.4409877656629845,4.102630149871412,4.202174164986546,8.103406404061257
6,1.1034565493876958,0.7346444429028475,2.052669334582107,1.2076298945830721,-1.356215613714221,-0.5127356289249685,-1.2343020138135845,-1.797378183553625,-6.007321823820815,-5.21702345144242,-1.3586751041568426,0.6810430046577575,0.04000907934944562,2.2695189904319113
7,-1.736089543004653,-1.5677904964470644,-0.32483078932809667,-0.785898838468065,0.6850444298737275,3.4040241428252895,0.5074937090836483,-4.325438878522212,-6.55517798924839,-5.664381258207113,-2.6090827486879093,-2.462378530064234,-3.7527391453137184,-3.567889584944743
8,-3.707752184710229,-3.1330467812869935,-2.3334593340402185,-2.3405723781312857,2.6503891686257566,6.17421943156201,2.3232926967938217,-5.182117122710484,-5.006703405932205,-4.26199124472992,-2.837156827915121,-4.474140189805771,-6.112548604947194,-7.967285912907899
9,-4.504062094127822,-3.7412521906131277,-3.640993390739941,-3.1862590770053716,4.068821483885611,7.252102396342094,3.860647757739189,-4.112220698574345,-1.4029802346788987,-1.1069126018515099,-1.949553986498003,-4.95448389422484,-6.496735337497029,-10.027387656599357
10,-4.225149676833012,-3.4984107925357435,-4.1487110368917355,-3.284477048381169,4.569951331860107,6.6020988380190175,4.755702009423374,-1.5555822782720787,3.4633312165017665,3.056702173332038,-0.26342267642337835,-4.03722679316332,-5.00995781362749,-9.571520377237203
11,-3.258569146465263,-2.7261086020743615,-3.951049565594041,-2.7865065213476954,3.9893144823849425,4.630980435587428,4.717492641265167,1.5152542460085006,8.226953596613157,7.033623616155058,1.611361710653672,-2.279547330646076,-2.3129516612983396,-7.095719409302595
12,-2.0746518586790548,-1.7902046816719377,-3.244312311872673,-1.9398004962909772,2.4288952410787115,1.9981060149332461,3.61904312029059,3.947199444701621,11.350791824140337,9.545643770948967,2.9924178761928752,-0.4170172916518061,0.6388347650720104,-3.5265782074450636
13,-1.0295806184360727,-0.9462087246739553,-2.2319869739533686,-0.9866860169108312,0.2489200851519681,-0.6153018476733213,1.5669973838920577,4.8233500675728145,11.628454572064348,9.65210121859624,3.3661039418658305,0.9163443557475969,2.9254563929883743,0.10865507863342637
14,-0.2553529424020096,-0.26468928391493063,-1.0668187522572794,-0.09505495037834813,-2.014358280977291,-2.6941651869131866,-1.078741551393481,3.7956385671623885,8.62342316899765,7.081673202815683,2.564028807807154,1.3987631905618008,3.946319286532508,2.9825035297169524
15,0.3289250530729886,0.3401502067054634,0.1542775038424086,0.659132031701098,-3.7870369854240726,-3.9797362846319158,-3.7536983986759616,1.2142953628258057,2.8888762831284205,2.360999614416309,0.8159341335021283,1.09251776683737,3.569770086480448,4.648663612825586
16,0.9055508447067885,1.0033933012072103,1.35475916398213,1.263235527883836,-4.614480554990945,-4.452546521892558,-5.805413822052045,-1.9928375092983985,-4.123970796833367,-3.3083125979079977,-1.3334994404344058,0.3649860816057845,2.1154369795166854,5.069795995582114
17,1.6098221883655561,1.7829906859422855,2.4339733012838907,1.7185831782062813,-4.2902310945512445,-4.24171428115834,-6.655454931489805,-4.648987867954143,-10.460892505747106,-8.390035709010046,-3.2085639213972015,-0.29580984658457216,0.19618509352185765,4.515663895109249
18,2.4194891269920484,2.579782399404635,3.2468648281232,2.001471692241086,-2.916395044471452,-3.517419273661108,-5.9660226070092035,-5.748691619131874,-14.250687327738609,-11.465356716917384,-4.220062744567461,-0.49108194268371125,-1.5105711091535456,3.395518991479313
19,3.1345465940999437,3.146367674713004,3.625595740112111,2.056167335442522,-0.8749288131268383,-2.419195881462801,-3.7623120003324377,-4.820269628327496,-14.297801930194671,-11.65470721794469,-4.043734340032273,-0.06523434836668654,-2.479458649839722,2.097826155197877
20,3.4554019905028137,3.184792997753664,3.4366159144237094,1.8224737804540274,1.28305062214075,-1.0457563330018942,-0.46815552710774744,-2.1015505309270024,-10.484579447517621,-8.877972419197844,-2.7066120493005794,0.8479553844400871,-2.475902481250738,0.8904262791450597
21,3.1215078122518793,2.4906019621676223,2.6461476715530816,1.2813145013834664,2.996537301306709,0.5035745701047266,3.1668402919559866,1.5338706461108833,-3.8411842548678496,-3.8745043690045557,-0.5636112314301863,1.8930414559672333,-1.5873947608443622,-0.10195911978610381
22,2.045483615513023,1.0772060803608245,1.3601972339172614,0.49170797211900436,3.853314631302269,2.0730436498204043,6.240202463526525,4.874042749220156,3.75175511483852,2.0187966231568404,1.8170760927095326,2.6378774978307966,-0.15671046595919383,-0.8607555408792188
23,0.3807566272968901,-0.7797272432397048,-0.18463871352954714,-0.403921788988292,3.6992005476001406,3.42421985979575,7.929759204867337,6.784915479495191,10.139024619311481,7.257972665565538,3.8164879007901416,2.7353988429136735,1.3456285931970031,-1.4140632094759202
24,-1.508688227608727,-2.6054118857246027,-1.681074721366651,-1.2138533463321315,2.665573752124668,4.267078692999454,7.724814636230574,6.599296402187812,13.559234716987179,10.528562340409387,4.925193928186823,2.043429606570414,2.462890474048245,-1.7898491944643402
25,-3.164300840950556,-3.878340455589212,-2.839616894520051,-1.7587174028976382,1.1100547909555678,4.345431368199446,5.587628496332587,4.343254345615253,13.184683127301348,11.097145662310027,4.861040392515514,0.6666544657171077,2.868577539822748,-1.9992447159537252
26,-4.185731209208007,-4.21445141310346,-3.4697935061822904,-1.9343280783802494,-0.506441395295141,3.5432522973115708,1.9924946664269865,0.7233879809258456,9.353065692192335,8.979467144229023,3.623198842654207,-1.0828193919286528,2.4358524455788255,-2.0453947028462856
27,-4.357329623727434,-3.5098371643031543,-3.521221508414601,-1.7471248849204744,-1.7633919267320055,1.9628941337888015,-2.177767086728579,-3.1168225297142813,3.41636743913904,4.887760563903211,1.4810588082425127,-2.7820343811386206,1.2553674321022217,-1.9391192672861954
28,-3.6993954212788513,-1.9835263848681826,-3.0699762166104367,-1.3051183792466305,-2.3978659549223145,-0.06673475086222617,-5.856855563736638,-5.983183919187126,-2.735953837961778,-0.01190592087265099,-1.0900663845251797,-4.012967337341873,-0.39201121167775294,-1.7028188671654199
29,-2.430049558078273,-0.10129087507471163,-2.2610649851386233,-0.7673249062058104,-2.36003603766576,-2.066717299476443,-8.08281213448073,-7.023937562031621,-7.310757178116996,-4.447982693584671,-3.5091473273535616,-4.462422456254937,-2.0974501405340527,-1.3567503801117633
30,-0.862917276764006,1.5907468638120665,-1.2380865914985535,-0.274153721415908,-1.7952459883846803,-3.5483029136690867,-8.267661150636345,-5.995990545038748,-9.181831273715781,-7.389723190400403,-5.208345142997935,-3.9851581209520046,-3.4115635722958584,-0.8982799824371099
31,0.7083060100191281,2.6575461187357545,-0.09646805141634261,0.10914462272149779,-0.966821645972215,-4.16689467730626,-6.369071833057713,-3.3185448533324284,-8.204199749012739,-8.294397956229355,-5.754099554528806,-2.626112919240169,-3.946516897971552,-0.2942963447026022
32,2.0861954868893045,2.9166910653582145,1.116080513901529,0.4089680608364635,-0.15278020331284542,-3.8311933447615454,-2.9098480144254246,0.09545960402636236,-5.174106348132298,-7.196578592839865,-4.952073844347963,-0.6088543429980408,-3.4777665611658395,0.4971200266624382
33,3.178016529030338,2.4760929787458545,2.3536030859351724,0.7108979155323224,0.44483392732098226,-2.724359400417872,1.16541967633515,3.16337442460314,-1.4648704864573374,-4.631680467929879,-2.9140808485193093,1.7002098108567356,-2.023283258834923,1.4764618914090943
34,3.9437461610964863,1.656948507412686,3.508245890225269,1.0926609326622603,0.748165628716805,-1.2280730330887237,4.7582724131709515,4.995589287102488,1.5165907789285742,-1.4333955718805589,-0.06420364520327262,3.846457249779892,0.12626828261860892,2.545630453453603
35,4.323002911041087,0.838251565536553,4.370622830852489,1.5547863267115989,0.798468048280723,0.220937622481652,6.931281893777362,5.172494020783927,2.8479460245077086,1.524716137532305,2.931708074079307,5.359839137117241,2.4483719256852914,3.4785977450471
36,4.191931605512567,0.29082478538531015,4.649525822071413,1.9851166951573194,0.7079838162677222,1.285073172855803,7.175539100816486,3.846390554126613,2.395424304144207,3.5659025764182286,5.311779517969783,5.84462260533257,4.305966835968763,3.9507089479971658
37,3.386533021082347,0.07177970938103342,4.060685372054804,2.1805386885025544,0.594121300487679,1.829755854805964,5.5485904995979025,1.6432809562292674,0.7990373411106281,4.362713337476303,6.413332428154784,5.077030903021917,5.121106292003658,3.6351234683037807
38,1.7941009683317242,0.02337459104173494,2.459672395584295,1.9245194988628034,0.5250457237693081,1.9371945038439053,2.6395041588946153,-0.5906081581342929,-0.8442435965992681,3.9735068951147317,5.868618182526669,3.0898165468916066,4.559208520963315,2.3423707380955094
39,-0.5248161168563019,-0.1252380140563474,-0.03417482732123061,1.0925947070663664,0.4978101913933049,1.8282156384505253,-0.6281836312893909,-2.101194275369411,-1.469450525105087,2.767089568192769,3.740540743465917,0.21397854532924077,2.6638942320886407,0.15079928198336523
40,-3.2464167579049987,-0.5998093025281976,-2.983800775764743,-0.2584976221967274,0.4544747800503751,1.7295161802048191,-3.292676786961785,-2.4853280579422563,-0.5113415207410162,1.2703180101179596,0.5459122285907955,-2.950553712149516,-0.11158776456937917,-2.533677033435239
41,-5.785391212267813,-1.4382684975387876,-5.692913711405638,-1.8608633763105884,0.3250701351749962,1.7473347554322651,-4.653453033597258,-1.8071781980909403,1.8330257006758237,-0.008941992670238014,-2.8573350663867636,-5.6478952724936,-3.0025189522237627,-5.033078638365486
42,-7.416288014892508,-2.430568228007645,-7.379275132101084,-3.287442198313901,0.07540338814705043,1.8061814995524967,-4.476643384718835,-0.5373503796661666,4.652038107056437,-0.7301732508594837,-5.5001193870047285,-7.148786975469112,-5.144431716165166,-6.572628987736198
43,-7.49265430151792,-3.1745762109238456,-7.418140176465667,-4.077193270803959,-0.26339762979536396,1.6832185892846954,-3.040004086674845,0.6555551746198375,6.664014228983044,-0.8006708097730568,-6.588378242126957,-6.959746967867869,-5.840132819094175,-6.531359449011182
44,-5.69459465988967,-3.232477410637173,-5.575943075276643,-3.893963782474714,-0.5980103871109904,1.1264469445234917,-1.0055285817676,1.1790925235301746,6.730345592182507,-0.37239062202474105,-5.758269616290137,-4.996198705259387,-4.797478453636539,-4.685217979638266
45,-2.2107996417814735,-2.327652268961256,-2.1463644687668344,-2.661967597671784,-0.8084288579579408,0.005899362126507343,0.83323179745777,0.7534650847390314,4.341882193267443,0.23532656730505502,-3.214454465659142,-1.6568157019203291,-2.254522843316937,-1.349266969999386
46,2.2277865340133824,-0.5005099341704364,2.073878249078332,-0.6242848912127995,-0.8009916998390701,-1.571379777660155,1.8389644620516505,-0.47681660653105984,-0.11129201829393376,0.6578761874244361,0.3033395979137085,2.2406934445425932,1.060361096390417,2.649440645597566
47,6.499473549641836,1.8470430573434589,5.980461443943086,1.7046875064148013,-0.5556231993904218,-3.2407720061221634,1.7516444214833267,-1.9959924400229938,-5.399414175808038,0.6133743664565526,3.727294985425881,5.66084232726737,4.13342206149528,6.181832788903266
48,9.399400130935497,4.048136586846744,8.478206184336477,3.684536287353634,-0.14529859331025646,-4.475051027871165,0.7652628414543402,-3.113881575268564,-9.833927194394313,-0.0008107407682321085,5.985750762835141,7.64019774802808,5.978716980019833,8.156536679791765
49,10.012362547118407,5.383124813322274,8.821406569789826,4.74695425169788,0.28346779960649926,-4.767431049875583,-0.5653477159733095,-3.2333340892958193,-11.84178702021234,-1.0691332899409371,6.345184558842991,7.581227435479858,5.961310160832995,7.882412824027628
50,8.026890009781964,5.334265041439468,6.863919626917315,4.5798816746401885,0.564203622161927,-3.8352620293493387,-1.551866779496987,-2.0901144868011903,-10.530576888219436,-2.285928496281309,4.6581628892536155,5.454908359818737,4.02214755430536,5.327810544504415
51,3.876816366933082,3.788480158331845,3.1290090987775314,3.232779330114194,0.5782566951392291,-1.7627266989163106,-1.6496185958322496,0.12252210113338292,-6.040208557303152,-3.241960404604847,1.4306811050880466,1.838351014079782,0.7232702956583436,1.1764181835078693
52,-1.3505383387933965,1.1085624703281902,-1.3336144654319684,1.1041535385329708,0.3093238972530687,0.9804212421723254,-0.6816538244513888,2.790913467818226,0.45039932254582615,-3.5460011377256064,-2.3214614303287813,-2.236905134902921,-2.911012492515794,-3.355280789155869
53,-6.222159220421211,-1.960666462683444,-5.264088955697271,-1.1864034779307708,-0.13940120911791137,3.661694288685904,1.074389162391688,5.069114098102324,7.072508881451202,-2.948863131826959,-5.388079500397329,-5.5880542546803555,-5.712845146630973,-6.891017010268529
54,-9.389599118448754,-4.524281266019918,-7.581366885639739,-2.9981678234114084,-0.576107502004159,5.513306726879892,2.9715556022355787,6.155156378140979,11.858113650926486,-1.435715571800761,-6.753274874266621,-7.243983740944807,-6.748792305848302,-8.33930810188417
55,-10.002320091644131,-5.828505182064444,-7.716350658717258,-3.871875824203612,-0.7910822494324066,5.985099533393548,4.22357687660612,5.562813545129699,13.372445725034058,0.7410662346325579,-5.930706393546989,-6.750953353650495,-5.632363180349636,-7.258828830918993
56,-7.966714348674895,-5.50918253352236,-5.777360655090152,-3.6649400962204655,-0.6421409471586093,4.9313394259536025,4.199074596172497,3.2983772757977303,11.174562012937688,3.1026229920133734,-3.1329314268506328,-4.317893647806921,-2.6645072914482166,-4.015036350927768
57,-3.9637805053578243,-3.7095042531430846,-2.4924983340617213,-2.574211720421403,-0.12156482497437489,2.66241119293361,2.67445903510102,-0.11596448439273704,5.952369749978436,5.053386400306888,0.7848223198273104,-0.7488831474361328,1.2492253175031867,0.33247996345084246
58,0.7800242999283137,-1.0255137476897545,1.049803763120557,-1.0424345174560863,0.6240492303265808,-0.15826498985828824,-0.04779009497424476,-3.7804306665899827,-0.7090330514354849,6.035694003212013,4.591713190786188,2.8186106286487576,4.88193057359416,4.379118019662311
59,4.8903222566777105,1.7004814399311015,3.770926887381955,0.413398265763099,1.333287534422491,-2.7348053930108662,-3.2033930001188207,-6.674790930357493,-6.842415213730291,5.689493337388702,7.073753592639811,5.28431660789203,7.078164692177943,6.843788173508349
60,7.275889857550014,3.6645095946195454,4.954027646840698,1.386360887297136,1.7186444404115648,-4.397008438427551,-5.79799215789105,-7.955629074287233,-10.72067458327811,3.97136572578585,7.423643353646484,5.940547555220642,7.127444716918374,6.995643836758736
61,7.449441018591897,4.362818401590363,4.457000319459893,1.7087757005497899,1.574328428346593,-4.804031640119972,-6.932245102994694,-7.204591347350322,-11.379705307504569,1.1941753833517428,5.500187533600509,4.692449349031337,4.994856402881822,4.890759525757995
62,5.635492285114481,3.740327471889777,2.716642287894203,1.4814206015912086,0.863337846392495,-4.024061825151921,-6.11169866726655,-4.555154057522188,-8.875620103120381,-2.0313250200189383,1.8727392580950974,2.0693046924624836,1.3323769332191002,1.3367211057734119
63,2.638724595461086,2.1773772053505906,0.5496662252409297,0.997229678300394,-0.25092709567577887,-2.468304326170658,-3.4350431328521127,-0.6626226010472417,-4.204804444629367,-4.9433909334758,-2.3624693508081296,-0.974595367492859,-2.7324046122940002,-2.400903766603434
64,-0.4704590486615933,0.3254091223546494,-1.17132474040766,0.5945027386893832,-1.44454427574818,-0.7120726889666567,0.4069926262815089,3.472201290511801,1.0699529972758564,-6.8272045089993485,-5.93196144184272,-3.397993452864946,-5.959442695370566,-5.045102406891303
65,-2.7355885208365365,-1.1440188478702151,-1.8454691502176914,0.5010423684125213,-2.3345706678795413,0.7240010162056175,4.327403816019545,6.7743819069770215,5.348991905629155,-7.208118148663379,-7.7847619064346905,-4.430393050908154,-7.390665447589159,-5.748515943308087
66,-3.623887566801329,-1.783150407348543,-1.354762575371647,0.7329743535259676,-2.6087080698685794,1.5484360360070266,7.173377823149384,8.384956252723992,7.498798316104199,-5.983016852456404,-7.412116918964957,-3.824863725679372,-6.646091296010965,-4.374265677367299
67,-3.1619112938425658,-1.5163714971932327,-0.08361715092578668,1.0895146311243527,-2.1374912113630034,1.7661197760597112,8.085598097166038,7.8903069128915195,7.165958120273695,-3.449477906062114,-4.986415275565781,-1.9201149078563837,-4.026634237928438,-1.5205905365643435
68,-1.8596933235818505,-0.6417033850429709,1.2561153267150675,1.2462881280907845,-1.0277087300918133,1.6200128495510848,6.769691000514971,5.429641957572704,4.8126759111712865,-0.22300231077666094,-1.280822289101496,0.5050999428957555,-0.39462205695288544,1.714105535694636
69,-0.46386706424379137,0.31060784096722577,1.9252159494382792,0.9098407652366866,0.4043351554985725,1.4394259737200241,3.5913085538154386,1.6534327523383616,1.4833364372995508,2.932881823414863,2.595546965052964,2.5281942245596016,3.1222513992585093,4.1368113021263975
70,0.35933529122675184,0.8056096647571624,1.4666515085715557,-0.029816788123274342,1.7326528675111004,1.4633664097927612,-0.5358590408398184,-2.4540773427995615,-1.5991020364708446,5.311940961657223,5.552978625947746,3.420065989359953,5.4999962947986685,4.888105803131821
71,0.2886612462617666,0.5291979853901525,-0.09411118884212442,-1.413222774397718,2.560863154438007,1.7159167308411925,-4.431996534279209,-5.839198992641119,-3.4582025898189706,6.444168563717419,6.847879601637118,2.901720789218891,6.135495578385041,3.74012731372954
72,-0.5385253627259592,-0.47487896531825646,-2.235829406708121,-2.832642512145823,2.652580048123443,1.9879997021981985,-7.010945498327603,-7.658287286466281,-3.6659737177236744,6.196638474596854,6.277720306485752,1.2301315460669202,5.008712004909338,1.1613825499437287
73,-1.6022544891372448,-1.8097071570566146,-4.123256518636804,-3.760273765635832,2.0073142985153813,1.9351741586913394,-7.602218047453489,-7.497222581553813,-2.429877478875608,4.771400991854251,4.191037413550048,-0.9131213681778082,2.643575615350059,-1.868817490154296
74,-2.231470051885598,-2.8716985447422148,-4.918964866326886,-3.741042358196826,0.8556693397766832,1.251951179343897,-6.134762449672339,-5.472192433317414,-0.4534267491361257,2.609711915746625,1.3244355333501387,-2.6849810872299185,-0.10790186342573736,-4.22363804754705
75,-1.89821296828201,-3.0858197120118924,-4.110799702857963,-2.5798384507479843,-0.42355557838123126,-0.15092760576868644,-3.129873556306309,-2.185424256221327,1.363024286828792,0.24155130839144226,-1.4646245196321015,-3.3964390473698485,-2.374008266746075,-5.0355170341556335
76,-0.45859818220857496,-2.142540663750995,-1.7328989757564626,-0.4509293889650184,-1.4341027596417928,-2.044852940073985,0.4858371503043518,1.4506537078574362,2.2653212537602436,-1.865670978790089,-3.4712542406484586,-2.764422054840043,-3.5522340609961263,-4.000532289753659
77,1.7545000534558939,-0.14715160325548665,1.6046998177735505,2.1176026956288077,-1.8942404871624134,-3.9092125029043205,3.679214948768279,4.470746786627704,1.910418185312475,-3.410048227480973,-4.331783879981421,-1.0099601833298921,-3.4799019114825454,-1.475294401747584
78,4.025723056549612,2.377684199304046,4.894412525327028,4.387775077512812,-1.7241230456655412,-5.087638604615418,5.620815971653632,6.122457706373439,0.467217322199874,-4.282736490960549,-4.074892760226417,1.2293006555266102,-2.4355749647909164,1.6615009101223066
79,5.506387738183079,4.643278701216459,7.05904429642266,5.640657913538489,-1.0597907261585764,-5.024733209631273,5.909107801744904,6.065092379991758,-1.4701341301218007,-4.524011008821875,-3.035993810867422,3.1359205652865207,-0.9841074528585411,4.326314614313538
80,5.527844706876111,5.852111473959058,7.316699428756473,5.414607716524594,-0.19196566938098153,-3.4972144878376796,4.645784611553324,4.445786001262532,-3.114358384465867,-4.239204108708831,-1.6838083456274724,4.009468593319503,0.2660095927393078,5.609292424604772
81,3.8635778591519343,5.474062278796987,5.456002239101506,3.6709671633648147,0.5455844375892336,-0.7486554181667967,2.352314664142467,1.833570570126479,-3.774112136685977,-3.5192267259699714,-0.43374930614726265,3.51513249768674,0.8967225943060144,5.080025972429581
82,0.8425492693426043,3.4462664358998354,1.9257957351792838,0.8283166349403522,0.8966000267287656,2.5331230458909975,-0.2302264999972395,-0.9657009788352653,-3.0985096305320328,-2.4042948232978687,0.4815768279117331,1.7969913757772964,0.8190138552651263,2.9182158106305214
83,-2.730112228363463,0.22565349154902078,-2.292351402536499,-2.3497702424241007,0.7690428943805085,5.402119955611012,-2.382693324344769,-3.1554007026798874,-1.1974912156233104,-0.9067114998184376,1.0444932825942064,-0.579640227716341,0.27028401018494425,-0.16704164569993418
84,-5.819897066857355,-3.3278164989041943,-5.986225412501619,-4.979197793121749,0.259184600661884,6.949528741859603,-3.6105618702198696,-4.179815994503347,1.3950206452951834,0.9212238917225529,1.3890193525349808,-2.830413623754035,-0.3190934534814908,-3.1908125162528664
85,-7.492818670232563,-6.202718102350151,-8.088825176324487,-6.320295403080989,-0.39232237493310945,6.610770056164291,-3.750025939534873,-3.8724854883395166,3.894628990367447,2.912143697253853,1.6817593838873448,-4.222745098115572,-0.530156626365631,-5.2236400325803665
86,-7.215895248611819,-7.543206965736962,-8.00469856190316,-5.998621655148312,-0.8938086619535902,4.376603331405927,-2.9588390832655285,-2.4797381826233202,5.513824907888167,4.747043527261883,2.0051759632405584,-4.319113290104151,-0.14612367111811062,-5.685667904051175
87,-5.027632932354327,-6.913884353596419,-5.783100316012791,-4.112589996527639,-1.0106929047339135,0.8293232502649542,-1.6133866864330322,-0.5576563518440665,5.702273485258224,5.990203496684885,2.2958625688768044,-3.111357019656877,0.7466193366744703,-4.509420042508958
88,-1.524406681095838,-4.438519420383227,-2.087639771665312,-1.196784280644374,-0.6504440447236431,-3.0168954471352145,-0.16048525165403732,1.2203881837376065,4.308387111336725,6.199773865443594,2.3642122385474487,-1.0063943247438945,1.7864185476174934,-2.1279070100867132
89,2.32806441934521,-0.7692668922431023,2.020430070403128,1.9434616357089902,0.10357781187326912,-6.024972506449079,1.0213640454828823,2.282479783538578,1.620929967170562,5.08429820434828,1.9863839555424776,1.3235347210473107,2.481366815451328,0.6944332070261099
90,5.491547127644733,3.1032277601725573,5.409659270667568,4.470980274504297,1.0187348636980038,-7.293714574200435,1.710122540418145,2.3345646256620727,-1.711699398004137,2.6500703875290665,1.028775421417861,3.1685402415509736,2.4143449389729876,3.121003585002863
91,7.161664617399346,6.139045595831201,7.2101540926328145,5.753898804897692,1.7890823274557681,-6.447534400822685,1.861863592558467,1.4416752270504474,-4.852961293712139,-0.7217209934880121,-0.44913692771889774,4.007339164787219,1.4279151223703368,4.502726354645032
92,6.9874710246901515,7.548209974242898,7.048243379089501,5.530531534241654,2.1343091211531604,-3.759678488982673,1.5756823638056168,-0.007719938729008159,-6.989490046329033,-4.311671401737663,-2.1607621254835134,3.6590153334927757,-0.2839479125901747,4.556685766568842
93,5.141766551163709,7.009585889084539,5.119367780798658,3.9580366755911753,1.8896397309419217,-0.06669331290170195,1.0281466712310594,-1.4395766776681502,-7.52898104765388,-7.220117119528339,-3.6490265464962377,2.3168338768302963,-2.2160302748667813,3.415674063116407
94,2.2314502132541976,4.746135223016413,2.088779263148006,1.538900143269335,1.0595800321108775,3.498364709170195,0.4066408116200416,-2.2890904877902667,-6.2423687044293,-8.610774210899821,-4.42130799994361,0.4618093951253819,-3.7140817453557697,1.5456054932058414
95,-0.9116360979196896,1.4389076949009831,-1.137046086183224,-1.0438644430630495,-0.17889747682981708,5.866106727737141,-0.1376277737279784,-2.190996716365553,-3.3251157204603072,-7.969609237116087,-4.119530759893677,-1.3079174039196348,-4.203838031070354,-0.4309006107724158
96,-3.4851131005282783,-1.9882075951599174,-3.6896343999794445,-3.1275991472813374,-1.5224345670204105,6.366079214080987,-0.5102550533935972,-1.1061534842562064,0.630691130195557,-5.295043004080705,-2.666058817173277,-2.472146677835185,-3.405816372693416,-1.941135664897621
97,-4.934494124334292,-4.642922992517039,-4.981117079439651,-4.246234007681686,-2.6216903116880297,4.92831483560161,-0.6735038949451925,0.6551958552983019,4.747981019739484,-1.1500722725023562,-0.33044735140296916,-2.7453357358252686,-1.4576979140167357,-2.6321915951100814
98,-5.073985436851801,-5.913217031520763,-4.841648454480311,-4.2342018847269,-3.1731151653948877,2.0880161442992895,-0.636549247081527,2.5220214412968867,8.043263239271903,3.453602636244731,2.3138238610846655,-2.148742127665528,1.1032255203153867,-2.4547118414883413
99,-4.085080228556747,-5.617317051929151,-3.5208324088440768,-3.2362143779082087,-2.9981079869701666,-1.2038780065795367,-0.44517071019281307,3.8378709094064076,9.644214850714192,7.316705154894011,4.537578170334762,-0.9811165756256837,3.497144651170247,-1.6421358884533814
100,-2.409095438785735,-4.01633528249014,-1.5659121369766154,-1.6306258270664848,-2.090626209050075,-3.897785841084036,-0.17335030570984844,4.071218669970711,9.00692647098501,9.38734693584796,5.668199413746521,0.29670819101404144,4.949355662336667,-0.6011053862599747
101,-0.5805985008998772,-1.6955436325214863,0.37484685217053304,0.10185782557277455,-0.6231438460564201,-5.183496281984712,0.08693084507515772,2.9969769808358424,6.0843621198203355,9.070356614843885,5.301264471779586,1.2226135180797382,4.946974110853442,0.24474203212305878
102,0.9392452121718728,0.6393884413948779,1.7573091531856884,1.5204003926899827,1.0892650844821843,-4.738437669737552,0.243026438843687,0.7917679933752085,1.3966075017803354,6.414472118731614,3.4435495448478806,1.4869838977410956,3.4183943082944723,0.6036981800295826
103,1.8785926255793588,2.3815815273213135,2.2925143381144655,2.33571188821057,2.6581684126611416,-2.808441594046604,0.22736917518276883,-1.9907404577252061,-4.033573152744723,2.115259202019259,0.5380869166283138,1.0315425924590889,0.7735844069002652,0.4094480837071935
104,2.1925526873236816,3.188347509278094,2.002996299725507,2.4637981244739753,3.709385323281211,-0.10105726707611888,0.025522044412329324,-4.563291487048614,-8.887417985288305,-2.6727401287755512,-2.6427976194081717,0.06365607531743712,-2.211158191404,-0.16879654433439484
105,2.0237473880074077,3.046211389371774,1.1760078738545925,2.014692555753685,3.9704703803896955,2.465896615231665,-0.30572131043183975,-6.129893698096658,-11.86634588343605,-6.6617199567077305,-5.209566731590453,-1.017003501608308,-4.629086625581995,-0.7993681317644533
106,1.611279008635288,2.2250163347551934,0.23734318936122026,1.2287509084360677,3.3391115249216132,4.071687210770459,-0.6429948077446639,-6.127819341563464,-12.044742463912034,-8.797394630711604,-6.412012111954232,-1.7557222381398916,-5.724783133955358,-1.1174747638640292
107,1.1861276638636764,1.1472979661401952,-0.40812879992925605,0.3863901651685847,1.9162724198910175,4.252467639663788,-0.8297425628264001,-4.413769343825055,-9.161490710781276,-8.556357933724854,-5.863940659163761,-1.8006473120162452,-5.131938728174459,-0.8663304027690948
108,0.8895596304540864,0.22436769874974793,-0.5161880222989346,-0.27893447040563146,-0.00592168334934465,3.030797038276224,-0.7321029584643204,-1.3344449567236694,-3.755344362995472,-6.084876991615071,-3.6674188514877835,-1.0312557464102072,-2.9915307993987295,-0.0024097553399201744
109,0.7382992131021704,-0.2830834098914177,-0.07970811587180135,-0.6399308284124606,-2.0023860784371648,0.8796695442024638,-0.29880675356982267,2.345876178565619,2.915401563230731,-2.139629933145742,-0.3969370032110135,0.3846581316829582,0.08662835528482347,1.2711692770384178
110,0.6417907483088447,-0.33517066683124636,0.6796617151256075,-0.6936861400526639,-3.609372247928291,-1.4573579183213126,0.3995572009715534,5.645717518120799,9.168002651404443,2.1474577758791984,3.054797292510693,2.026712614725398,3.2062327845322227,2.556328216006027
111,0.4593493623708659,-0.0959524385154279,1.3986056571291694,-0.5392061892684625,-4.434785267623439,-3.22210680124855,1.17254290760076,7.639998771443577,13.336458464051763,5.60472235671864,5.726533336731246,3.3436493859948455,5.453289583057986,3.3829010335740213
112,0.073436855709288,0.15745808204292916,1.7074639576618589,-0.326159993026158,-4.258093260390114,-3.8853339758530923,1.759839666290203,7.727803119338463,14.237994705058208,7.353034167061539,6.862005188418759,3.8270306002290644,6.168314591233372,3.365526448108306
113,-0.5478218919304033,0.16218956424142872,1.368514846882152,-0.19366209108199986,-3.0933222580008417,-3.299721247435577,1.917049804122235,5.814561728614238,11.52683302113037,7.03673373033051,6.1279502246259066,3.1845216208661555,5.13954612016548,2.34490891842715
114,-1.320648887696213,-0.21497398636299922,0.371293349533408,-0.21908776837326407,-1.1959160525068278,-1.7195792140512873,1.5087169411225996,2.3526736960959016,5.823461516697303,4.890793148649541,3.7127560792094,1.4569644393125163,2.660670868425141,0.4662657751617496
115,-2.058782823853409,-0.9162568507235376,-1.0475188769205113,-0.3925614061698427,0.9922074533414876,0.3086467676547704,0.5735603873554637,-1.7740992502879023,-1.4289521630470423,1.6345829038189372,0.27616748317091266,-0.9627123792676913,-0.5612802352744001,-1.8348603588230619
116,-2.526642362634586,-1.7075216309753325,-2.4683785429835785,-0.6242615524310758,2.94852446331041,2.139405519718494,-0.6661579116755512,-5.490834902617661,-8.347873298093006,-1.7650729477000335,-3.236327900336642,-3.4224481053661666,-3.6171234582245733,-3.941485671269013
117,-2.516546953032082,-2.263300445009687,-3.4190291660661396,-0.7812667380513915,4.200928373441821,3.235959583496632,-1.8604507123336473,-7.827554800398407,-13.127541270170925,-4.38322205065806,-5.86127360848374,-5.194560001049412,-5.660656063343274,-5.2306650981020475
118,-1.925729206017329,-2.2913788810122084,-3.5300612038953054,-0.7411180312103102,4.449552797961854,3.3260496789123337,-2.638034894614538,-8.185981511234699,-14.538770796701762,-5.590749083333623,-6.889740118161656,-5.6974597731531755,-6.148669690163146,-5.264294620740615
119,-0.8074684986391228,-1.6515975942022456,-2.6654547834502877,-0.443465920085523,3.6458583969988134,2.4612736596209377,-2.7288720934684347,-6.500550858675724,-12.266309688250258,-5.202741172500317,-6.065422221090801,-4.686811488268862,-4.986683569313911,-3.9357314480792844
120,0.6229196755570536,-0.4249151916380992,-0.9837217654005364,0.07879048232607885,2.006068727066665,0.9711292771373851,-2.0602726370196724,-3.248646687193763,-6.985463041521895,-3.4878493510158717,-3.6509276636145414,-2.3524495313353064,-2.541155774022958,-1.523183930585463
121,2.033530945455578,1.0942724576888148,1.0937785297707403,0.7011163548195332,-0.046152908800765925,-0.6631218939860132,-0.7914130024156913,0.6907103410318186,-0.15749967737475393,-1.0486927458366786,-0.34378040614204036,0.7158941411930373,0.4806775313660934,1.3721635121886444
122,3.062907011617507,2.4827375319210803,3.001056689566478,1.2429632145364105,-1.992888993786022,-1.9671661312465203,0.7283009796605365,4.286628389489588,6.392967447579969,1.3801085914109599,2.9316723245546696,3.6900271984043918,3.243571382468163,3.989564129006187
123,3.4243753800398813,3.3227138620347043,4.196984333491846,1.526537820675725,-3.3598458623702485,-2.6125311950328545,2.0651170076689387,6.640978142620909,10.991691947416458,3.150240540495459,5.293353765097625,5.7456969224844405,5.024334489700386,5.62672807754495
124,2.995658314153583,3.3403402782048524,4.332452934748895,1.4388889457254812,-3.8402761540114785,-2.495592149797396,2.8363958258185633,7.225976869753492,12.56823244378422,3.8700812379522356,6.150715365529711,6.3108818622631855,5.408456173932524,5.8460673787640545
125,1.8639910315495452,2.5002401213820016,3.360666413184748,0.9751955137528605,-3.370167684995306,-1.7400449245934975,2.830273850293198,6.00872990792211,10.919603298612792,3.4833404172749787,5.360431196660696,5.240166768232251,4.388243560803969,4.604342729875138
126,0.30953672609007,1.0227853220822318,1.5536207943842524,0.24685158906841367,-2.1342418149946694,-0.6318923670963373,2.0694689185711,3.4317444290993695,6.715217877595387,2.243399620285339,3.244715388303134,2.857694820711461,2.3388678775141747,2.2639153852860945
127,-1.2707155005973056,-0.6827285933928203,-0.5814748449647985,-0.5499782827761894,-0.5028489623598928,0.484491156537094,0.7985964938692043,0.26166552731903747,1.2540074375956758,0.6026303044623621,0.47176301299615686,-0.14612081512575234,-0.11395329805922544,-0.5186341661870857
