,AF3,F7,F3,FC5,T7,P7,O1,O2,P8,T8,FC6,F4,F8,AF4
0,0.9945203260974492,0.9144395467806304,0.09893767213781356,0.7036694990187505,-0.013041853882335096,-0.3473046701744982,0.05444300590758631,0.03315133668145794,0.003594809161336449,0.4129746387219397,0.819324256598825,0.8520414762464947,0.5233310722426089,0.899803657294939
1,-2.00123903541265,-1.7575128676098957,-0.16572553640818197,-0.6433734757347752,0.20064964990068,-2.4751034522267594,-1.728394338185356,-7.218288950732743,-8.951179797311928,-8.744741745360955,-4.768659967359362,0.23365444759507867,-4.956958230950354,-2.2796388266554435
2,-4.058673548295462,-3.572841212408078,-0.3342562423058479,-1.5073991010069931,0.4470154297955677,-3.935919867850719,-3.0371551955116196,-12.628682242720823,-15.53772048642213,-15.410233212036859,-8.674829384654647,-0.08782051284989437,-8.696520714071674,-4.35189484493904
3,-4.3017256333526115,-3.7817710077306406,-0.33339423674102003,-1.44166092685802,0.7161257573889448,-4.329316535084631,-3.5319895138192217,-14.786115386539972,-17.98447668337385,-17.661209352752216,-9.522852630384572,0.2787533328016614,-9.309240705203635,-4.356250490890468
4,-2.513447137257641,-2.2261703539362765,-0.15879552366258898,-0.38044599267235285,0.9466418921875249,-3.5567184730072916,-3.0837655395944594,-13.11817971632783,-15.635149736180825,-14.835590054233784,-6.925153538274767,1.3979779964634562,-6.437967105199478,-2.1009881469009115
5,0.7686951899343553,0.5902065614592037,0.12204221015657861,1.321958341791348,1.0408429101133998,-1.8446253682037848,-1.8062548646944228,-8.04410140259587,-9.126138373531116,-7.724870669075167,-1.623585663285839,2.952583091076437,-0.8926542107714647,1.7421674581679056
6,4.4157031808561795,3.661879734388993,0.39412788532505005,3.0080002900645675,0.9052179104012068,0.3270718989192892,-0.026629438622660307,-0.8685995356236155,-0.21063414259331742,1.6504847313754811,4.725388069168883,4.333397102490191,5.585709296138798,5.842927976770688
7,7.077702017394549,5.821268670278089,0.5380956185620218,3.950449690359411,0.5001894435451644,2.367666016254788,1.797501460458639,6.554790993093317,8.720841205025696,10.618815925965857,10.057793122791795,4.848897881200275,10.864987611833868,8.65262327098411
8,7.642610388752825,6.14534228978263,0.47656523920458,3.622229858670922,-0.12352366095050735,3.7442945615248218,3.1931509680786285,12.303296414130912,15.290052914537139,16.621352744455198,12.547368416857886,3.9861075280642564,13.09885236383742,8.936521537893544
9,5.6324582031625985,4.292471707828043,0.20668873874555335,1.9078692810469902,-0.8208951235676969,4.1259161934277575,3.7904461172257164,14.883036090614397,17.771551692924035,17.94237312471504,11.190633725163181,1.6337934566704644,11.329141464747316,6.222387038954396
10,1.404933144089989,0.6537551252797794,-0.19359377319118198,-0.8196046871099539,-1.3878488674630873,3.4619742520973125,3.4157868804335267,13.616913975438719,15.549170740439546,14.195842458574129,6.149825373807345,-1.8128953019706884,5.822759871684505,1.0137503852222016
11,-3.9115157341063327,-3.7371005306888767,-0.5889242008143968,-3.787922445339802,-1.6267218306152702,1.9772775382709986,2.1374790936379084,8.821995872189275,9.266502135942124,6.430265805602255,-1.2561872567137513,-5.511993896621261,-1.9672468059069397,-5.30982879237742
12,-8.736393734328361,-7.512251405801495,-0.8323144416126055,-6.056877048269847,-1.419433277371146,0.09099542586905966,0.2529573070786943,1.7301044128337841,0.6352225303721649,-3.1756156480260676,-8.916622498476725,-8.39234950589417,-9.811173225164094,-10.88345058721462
13,-11.515775715343274,-9.401090825935324,-0.8178723285621634,-6.819337562053511,-0.7805884143161441,-1.7104254527915528,-1.779864544651814,-5.828808698879724,-8.040494444628912,-11.935750969019304,-14.544378049464507,-9.470833232902354,-15.362252086100273,-13.922416668045111
14,-11.214193245101548,-8.647058416576185,-0.5219294491835279,-5.674808895948092,0.13185208779489446,-3.0057534976179907,-3.4517880159862817,-11.899805520799774,-14.488892916766677,-17.41729829247279,-16.36014879350726,-8.174398421843557,-16.867049467093377,-13.288161056250301
15,-7.665764700314432,-5.274641948569371,-0.01740761329802678,-2.785164468543147,1.0562447286902596,-3.5388642871562417,-4.327088960651967,-14.91087106780077,-17.072777675052688,-18.12063886175625,-13.639747796417499,-4.564272132676921,-13.709579595875955,-8.876183895565466
16,-1.6710649189035327,-0.11734099501380972,0.5449149343111869,1.141578925062514,1.706865734514777,-3.2620640461243724,-4.154352619961102,-14.083558792330898,-15.207429138319553,-13.887135780437687,-6.958256999287177,0.6162855194071271,-6.621319758043255,-1.6997734290435276
17,5.197613233063653,5.407556697626749,0.9832233601890709,5.039589617136392,1.8676832643976133,-2.3186479871146903,-2.9358069566105307,-9.638020234425067,-9.487178906958151,-5.923844975398932,1.9459994194793067,6.099012982824792,2.5095450297574833,6.364474122949464
18,11.031451835589927,9.711513145110336,1.1445871543189878,7.7914091991552965,1.468040003913262,-0.9790543264304745,-0.9360801812272084,-2.736455204515405,-1.4952043349265065,3.554606038747889,10.651760642524568,10.419018865423048,11.174673420126672,13.099671729917734
19,14.135688754828662,11.509302268525635,0.957935486279348,8.560197542124795,0.6130037145031161,0.4434886310713907,1.3748334669190736,4.822614217371543,6.643032574065385,11.958306382814342,16.74102851793202,12.326246606914884,16.968402062529595,16.58751963349055
20,13.533522520827168,10.21015676461242,0.46176844174884674,7.047116920479662,-0.4439004841515639,1.6702635148302403,3.4331887696723884,11.079959965876013,12.835463826266183,17.04485788804132,18.491341693327836,11.161177961848058,18.28182350760552,15.773464146134664
21,9.272356337205814,6.105205786428561,-0.20364079459594195,3.594803745161845,-1.378194809053064,2.507230777421519,4.721494010650909,14.434559508369327,15.570473403868403,17.527923591601052,15.37206739368979,7.079999871657065,14.762957540053991,10.7888906336415
22,2.43749418986806,0.2931944064429406,-0.8380243568065748,-0.8962518544527974,-1.897366372016916,2.8608765394473394,4.901523051851906,14.065375312366022,14.290444903845893,13.404173990988406,8.20004323144936,1.0536701204138819,7.409328509045812,2.9323664092587602
23,-5.13667730081835,-5.633637478526284,-1.2438481544816238,-5.215782363898426,-1.8352940848897996,2.725697695107181,3.9048656196358102,10.140544716465547,9.498374196808376,5.915091831636435,-1.0902855463085934,-5.370525275233142,-1.7301990701354388,-5.68741548912171
24,-11.378887351401275,-10.048935591346787,-1.2896726407419568,-8.184673623254048,-1.2067583465429743,2.157888437534023,1.9554872884514531,3.7566494494214875,2.5792061434967786,-2.8346517308694406,-9.994491397589563,-10.485520703161994,-10.151753338759578,-12.744476523604654
25,-14.57025411173249,-11.759109200781786,-0.9533015374306726,-8.989578642656902,-0.20380617231332795,1.2511088329301796,-0.4834422757970101,-3.3737363131839913,-4.604777286354077,-10.484358797218555,-16.143684934544876,-12.903536512243763,-15.612217611478926,-16.35222113115919
26,-13.839204533984546,-10.339224783051638,-0.3303559054409479,-7.413913405974376,0.8648796148831449,0.12441846910789854,-2.8254629097985586,-9.396750265347228,-10.226192715485748,-15.072204941249815,-17.96341006196448,-11.958385965124632,-16.75413788934497,-15.593345508062542
27,-9.4157378692035,-6.240755193830458,0.39475377364341974,-3.8984721602171675,1.6715688150997077,-1.07743278728529,-4.508949370756611,-12.818905572768887,-12.969441962965623,-15.552579063476871,-15.097003949278394,-7.909334112336917,-13.460702582756607,-10.769811653590695
28,-2.5676653605557935,-0.6439773932532692,1.0061212754178175,0.5851643120055511,1.972032616455122,-2.1804500760634467,-5.1379076781606,-12.894127740656788,-12.344861280648237,-12.03616883584601,-8.475293977286967,-1.8801367396900257,-6.844975547547151,-3.301910602410497
29,4.765397741510902,4.895539722305277,1.3233504107229273,4.810823794590452,1.6799889316856704,-2.987879133632688,-4.578176356891788,-9.79008357333093,-8.763136743135346,-5.697209514266014,-0.019128648471395133,4.455452013523213,1.1129691072309273,4.691869733399208
30,10.534502366870516,8.897057600380421,1.256724458815325,7.643037227416375,0.8903259380062947,-3.3068526150747855,-2.9845958811474427,-4.494359939657617,-3.3630502906476476,1.6104421666724282,7.931454389361002,9.353442498255264,8.16458632338053,11.009429179798408
31,13.174768246656344,10.366812459690994,0.8331436326722848,8.351958954026413,-0.15472675971996705,-2.9956559096510547,-0.7541267622508,1.5017045076795312,2.34517103708757,7.9050095646728975,13.28939749838712,11.50395607646036,12.44476292885155,13.993250204556025
32,12.053436073811351,9.053604180218771,0.18522089928682148,6.808599682505935,-1.143730137837213,-2.0198563217065595,1.5799797022532291,6.639841857674525,6.91021339284452,11.630143831490695,14.795956197555062,10.408836182325276,12.98452916834225,12.988695947088134
33,7.6388413921295495,5.480384293477982,-0.4920429449143577,3.506937481642422,-1.792095052291356,-0.4962110943603548,3.4828861646046194,9.719721573705757,9.31884146402022,12.051509763789547,12.334302964588556,6.517200050875379,9.939356331053965,8.500564109211929
34,1.3404546639646961,0.7537648840259953,-1.0023614734236632,-0.5898294649765551,-1.92530844660514,1.2984050293737164,4.545849856201814,10.190087866627564,9.221814052838209,9.392406004920742,6.898591326325888,1.0764310350171415,4.4773358013480005,2.0068152644641537
35,-4.929891652004262,-3.7810589180401144,-1.2072828616631401,-4.331159990535451,-1.5243866436430662,2.9677721831979196,4.57526869381021,8.23208363724015,6.955923085156136,4.686892813185906,0.24103495838569716,-4.25626374476789,-1.6247642496591657,-4.508869601751276
36,-9.340307115706675,-6.930710838744772,-1.065007838973846,-6.705914154516562,-0.7221240871070571,4.085493109491635,3.62381979309892,4.628483426544915,3.3745990997240907,-0.5862154604664304,-5.684397760132668,-7.921793766307054,-6.543602659704661,-9.160448715086122
37,-10.685882674685772,-7.973713967021079,-0.6377971740395303,-7.12008815813134,0.2450462050342984,4.312466112229384,1.9606627537229726,0.477797975709813,-0.44564104472204097,-4.964152999705807,-9.30579868168036,-8.928961611964745,-8.953197281430016,-10.714655555190065
38,-8.733735364167952,-6.82335635920527,-0.06724622366415722,-5.548376639049064,1.1113315655946039,3.5080900127754324,-0.006883348062089047,-3.145915771427778,-3.5253748589829774,-7.412019649485723,-9.867229874742657,-7.140490713543141,-8.387363775047348,-8.931516999665622
39,-4.2632933109787885,-3.998996836466962,0.4731942054121187,-2.5207398676163972,1.6573566561264348,1.7968045082345243,-1.8370482963738224,-5.480139736809868,-5.233500618384704,-7.567697540760047,-7.588651787889526,-3.288199518895366,-5.319976011917358,-4.592525649217844
40,1.2053181866746348,-0.429864973193115,0.8324330956214956,1.0467032158479808,1.7649532978149998,-0.4385693548293381,-3.1557102334445846,-6.228655096561815,-5.4049037841833325,-5.7623196176330875,-3.51779985889891,1.2835645100988318,-0.9535093934972637,0.7833927078526556
41,5.904951495520725,2.8385153960218306,0.925433150086108,4.123390382132727,1.4376154016622402,-2.643634230793664,-3.7330739194558347,-5.555550264536432,-4.3077012354145054,-2.8324112092240856,0.8628051131521544,5.061018511094381,3.203412324165945,5.4397797680199895
42,8.379589857198079,4.943946970012132,0.7534310902367533,5.858548805940893,0.7855348389769317,-4.239726734788471,-3.5197160667719256,-3.9446522448148955,-2.4910271021375494,0.19736740838707292,4.136953361323302,6.847183179935106,5.827474779223514,7.937689523350508
43,7.931884531810432,5.429124074998358,0.3959508333828324,5.81451497850947,-0.01502204567811258,-4.789810479514897,-2.6380651601316747,-1.9904052798904455,-0.5769694817472004,2.449114235955349,5.399751790477069,6.136190917800452,6.184781160538563,7.592258683210627
44,4.822500935850199,4.331277745018291,-0.02083208801285067,4.07593630530484,-0.7723123298958574,-4.131494548056695,-1.3363067017780896,-0.19933604680376477,0.9311807571188087,3.4377684130824253,4.508072601405498,3.258616032921032,4.326252615566441,4.658773516444411
45,0.1636164668398904,2.127789730251777,-0.36753759889755927,1.2086541820186576,-1.3242597766275597,-2.4332346070027326,0.08028948327266686,1.1341315193238861,1.767898433472243,3.160733005406058,2.0667404020601507,-0.7443730709400316,1.0241863274583713,0.21792528202193842
46,-4.454463070164613,-0.4341555248318464,-0.5520266842959881,-1.91523604963862,-1.5679540006266466,-0.1526675068004083,1.3221004236657876,1.949336865420025,1.9271686300040403,2.020518982401354,-0.8309632244709635,-4.473139105670831,-2.516594400011569,-4.194858757669756
47,-7.481685058384308,-2.567767760557362,-0.5441082387901671,-4.373261801508657,-1.4706395880900216,2.0929752984411323,2.1747137028381527,2.351492890081807,1.598330615022052,0.6253486679889095,-3.0110671390930235,-6.6317625957799375,-5.070362444471271,-7.092601096600976
48,-7.906147367659603,-3.6702593224995814,-0.3779075622634491,-5.455985262891578,-1.0655129654850208,3.7057471282032988,2.533358682576342,2.498543124939945,1.0542212952936494,-0.4516209895104076,-3.633216282528637,-6.450974321026108,-5.788524276394848,-7.511265316065233
49,-5.574751673044599,-3.4810162979782104,-0.13317932121207685,-4.864711872860871,-0.4385324405649874,4.280011544330066,2.40774780611477,2.4979727896895576,0.5395244570571006,-0.8681378500612078,-2.4731903790500076,-3.937414532936437,-4.458559932860494,-5.307838589845983
50,-1.2374752394784314,-2.136886449375774,0.09630545465677146,-2.790210242652931,0.2882682910319713,3.71588359603464,1.9005282779953239,2.357006915748531,0.19839441669452804,-0.601465616800435,0.016148727312118326,0.1279979621497988,-1.5483453906986893,-1.1933114912592457
51,3.6959525249331135,-0.11576133395246893,0.23560064806549483,0.14710777912547512,0.9743951165792103,2.238366421132021,1.1684351080406172,2.00159882468485,0.05855585600625779,0.08922299811164917,2.8788173121033065,4.439277031644574,1.9681898334371128,3.503369253393387
52,7.6077779451264576,1.9117641834114263,0.25161670990949747,3.0769398027249917,1.479797340077778,0.3177725810556941,0.37810482372222526,1.3476087010310966,0.06405479677541538,0.7994709951394326,4.999444116904422,7.5809012173697665,4.938893312937079,7.260864776759548
53,9.188533419665694,3.280635241873264,0.15960849104067112,5.12778213462792,1.6864703351956944,-1.4814336758744107,-0.33195642261167735,0.38478158990171196,0.13081398249173448,1.1552878303555838,5.497006042448768,8.477465718404694,6.404429695932606,8.844622967515098
54,7.855136351197234,3.5260479791509267,0.012547942138551637,5.675373197845866,1.522612411375536,-2.6738863219141034,-0.8749501520479651,-0.7705087426256583,0.19459317359888276,0.9595432974409557,4.035297850705634,6.736618718789056,5.89431451248594,7.690870018163106
55,3.9401232784588553,2.5226547988500445,-0.12141558582889493,4.522307447419746,0.9857575079967138,-2.9933298035837343,-1.2213367542400155,-1.8829742213692748,0.2302851596833469,0.2573567152223395,0.9477833271827967,2.7797574520842105,3.559389498246564,4.079671152905851
56,-1.4059338018367913,0.5301561422458221,-0.18470954880554158,1.9592394826929116,0.1578359899808008,-2.4564723382815763,-1.3877477353420868,-2.668206389248274,0.2392519810664926,-0.6968515119612413,-2.861732527053083,-2.2778770252676237,0.10781152406591804,-0.9514007996930469
57,-6.566725693701991,-1.8694583252969763,-0.15033264747965402,-1.3096870210954654,-0.79624416252216,-1.3340160855847802,-1.4147855623633132,-2.8976055455593275,0.2189048305833561,-1.5500069032776422,-6.206602308577781,-6.9586549939815745,-3.425984366273735,-5.9216879125509605
58,-9.9561921628257,-3.9298529839086425,-0.0298403441826082,-4.357740527388763,-1.6526743712128675,-0.04325872510264302,-1.3418507570416023,-2.4941552619826424,0.13780815639552282,-1.9907425340118203,-7.996589340573231,-9.862930430069722,-6.000729330225674,-9.35104675090834
59,-10.504003129555011,-4.954224495572422,0.13239600724168865,-6.291746464808534,-2.175745981080865,0.9980733463266707,-1.1877381610625541,-1.576189565649383,-0.06381612147575365,-1.8641794925255475,-7.58548310956056,-10.084939808310315,-6.875874059752187,-10.19809186999624
60,-7.981812014876338,-4.508213990151496,0.27572058285296763,-6.504268390140841,-2.179931438366791,1.5061132556538233,-0.9440245766138022,-0.4263175716198361,-0.4424658557652014,-1.2198440972931628,-4.97752565852467,-7.481107609942852,-5.817160999886239,-8.164176273698214
61,-3.072891123039571,-2.571089904287588,0.3443487342402088,-4.8527882773139694,-1.5915841514575293,1.4093301517535284,-0.5842773222256864,0.6067102684569343,-1.0011009121152288,-0.27996712668010026,-0.8313750959681752,-2.714293724550196,-3.1463408457282496,-3.7775055640999406
62,2.832168381344983,0.4231397759165981,0.3060538376956476,-1.7153169012380276,-0.4907005688693596,0.8488302509032674,-0.08656012253261465,1.236761268104467,-1.6462202451981915,0.6533965414123372,3.7342166296271397,2.934854602224198,0.3698410299867018,1.7617682745592191
63,8.047767315132347,3.675865633184191,0.16267652312624328,2.0960203879923203,0.8850180289769316,0.10645336439609343,0.5388734345358233,1.3486397786874005,-2.1800353985314067,1.312212713238679,7.468006539930402,7.93055466588774,3.7500969102304453,6.92545975697064
64,11.086912546452565,6.230404180403209,-0.05028728725831297,5.544190454505752,2.1831325687043477,-0.5086389416010949,1.2283408268322438,1.0408282871287997,-2.3435876967581213,1.5523857054485608,9.344810339615147,10.911559045464834,6.0768618548132185,10.288288471127638
65,11.088757571337585,7.2444192355189365,-0.27431438879316644,7.646323284023698,3.0222010212778425,-0.7718411746864218,1.8611777147190278,0.5822555715195246,-1.9051515226703812,1.3878745113292723,8.84885946959111,11.0652825795736,6.7431381035840925,10.92285601663676
66,8.056732153873899,6.2531160055102575,-0.44510664665895694,7.748865452614604,3.1009971460588197,-0.6142967633112912,2.2800559122207096,0.29680113459044727,-0.7659359394357983,0.9615368170822366,6.104200956448383,8.34355881489669,5.603449972509301,8.649858510594528
67,2.8435064305155424,3.3433361542454643,-0.5112506645242444,5.72305035242717,2.300548357802289,-0.1319996456515951,2.332830858009549,0.41923167257478683,0.9582124160230366,0.4706722298810175,1.823662596348591,3.464895927722339,2.995072455748768,4.078360426406702
68,-3.105166916399178,-0.8222312317574051,-0.448967115984161,2.0233413168529544,0.7453469722998926,0.4644588934528128,1.92445035500184,0.9799780306888519,2.917940566260474,0.08159922929135913,-2.8985670657463327,-2.290973618272858,-0.367772533838755,-1.5693999874778097
69,-8.16673347353506,-5.151658696272696,-0.2689387797601915,-2.4134067550921587,-1.201939541788063,0.9356428433129003,1.0613638841871225,1.76763952510346,4.594332639480223,-0.131018865560192,-6.884194775520953,-7.433844531036383,-3.591805317306549,-6.795487516919372
70,-10.994848259474388,-8.411717653442555,-0.013510924036254469,-6.40713058154976,-3.020007781974268,1.1002336331066844,-0.12924494524610713,2.3900246810156536,5.436478858076071,-0.19755931134562782,-9.172713277663206,-10.659737268238578,-5.839363609928127,-10.230780753820026
71,-10.880704217204423,-9.58154362028763,0.25475437388348393,-8.8513970094196,-4.167307234422578,0.8921902515699025,-1.4163300754919046,2.417232322368965,5.0346517301997755,-0.21848246296023005,-9.24958744242328,-11.185984210908748,-6.5396370851677,-10.99633748960415
72,-7.925938809044536,-8.169820869562923,0.4698224093681741,-9.022399917627219,-4.242767786085259,0.3715953524409224,-2.517068611897508,1.5577367263384156,3.273686508460943,-0.3005035881363237,-7.1495238395518195,-8.93836781819869,-5.526022636679071,-8.926446803427764
73,-2.9875430165720216,-4.39649249544501,0.5794776959009073,-6.792845092601139,-3.1207657979267442,-0.3082533555706205,-3.1704505146835533,-0.1970179695285944,0.41245561849822604,-0.4945256297056032,-3.4206087126644578,-4.547234873235198,-3.069718062722382,-4.597955719071779
74,2.579845176230191,0.825476230224692,0.5583768274531857,-2.6866723067016363,-1.015224891468903,-0.9591932716708127,-3.2097636299028873,-2.516328225174617,-2.944223689667573,-0.7636019934021544,1.0295112009360854,0.8380915264562283,0.19463725238433793,0.8365162939137147
75,7.30469217525054,6.115516713217501,0.4134340425677817,2.24651485660775,1.5540836118065398,-1.4171388230546225,-2.6102362506454293,-4.7905848049020285,-5.981815545993162,-0.9949420770213714,5.159269463393092,5.860210373908643,3.4304848076991368,5.962031535858375
76,9.993534109990856,10.0019528851585,0.18046028142995243,6.707384772567668,3.8912041000738715,-1.5810727932614903,-1.495784811000383,-6.297109680724201,-7.886340015449829,-1.0502972989652979,8.034063780455094,9.303757208306779,5.807977200734542,9.474944415213894
77,10.033331031365915,11.343838684489949,-0.08642635458749641,9.498878436959375,5.317063320814296,-1.4236080928301278,-0.10282563270075101,-6.423398683791869,-8.069989546911081,-0.8323835436904041,9.029268994438002,10.393005790268694,6.709682014974506,10.51706358248698
78,7.525173446378423,9.673237673248126,-0.3291029812339504,9.855964364492388,5.37079623072315,-0.9782622789938005,1.285819696317659,-4.8779712823434975,-6.3467941500093,-0.3381129623900351,7.9559093545819515,8.963737567862305,5.884447983357344,8.884310297077812
79,3.222842155638932,5.3522012505097525,-0.4991840410855597,7.659274033702792,3.9578699213433772,-0.31739633752632107,2.413750862701856,-1.8198432419261787,-3.0063325978772304,0.32515189650632315,5.088542737277762,5.472654500402481,3.512566326046153,5.05961124818453
80,-1.6964919969344165,-0.5081777753464753,-0.5675925102264099,3.471123129676393,1.3966504987327641,0.4648752386402948,3.106315999001744,2.13924264029047,1.2378949017223646,0.9689036291670922,1.0950031850396538,0.8515518848103294,0.1659787540919335,0.06763182973823004
81,-5.958948915337791,-6.347997341023581,-0.5280843027999419,-1.616607969336987,-1.6556450860396945,1.2579626535378512,3.292677225173032,6.067717310257026,5.4138776617694795,1.3883410973347894,-3.1143127002993722,-3.7471582889793504,-3.327909185538411,-4.804266251419625
82,-8.526039452438722,-10.592441372867476,-0.39494711790902615,-6.279110530249287,-4.3799973085361374,1.932259546754341,2.9932299955734,8.949265030013025,8.527761604833627,1.4382502238987533,-6.585966679196174,-7.2423859319228425,-6.086954754353879,-8.34130889413887
83,-8.844966648753344,-12.092572746597845,-0.1967827378441147,-9.31532504574307,-6.025570083966586,2.340882026020552,2.2850883204848595,9.955983963246563,9.810623275159939,1.090604225184289,-8.53163440017765,-8.878393960433355,-7.3915959467989225,-9.704194872168513
84,-6.957828067770496,-10.444251112250099,0.03097786844126521,-9.964780263138724,-6.1249341692541694,2.3383818844239155,1.2660574432860823,8.683302157447613,8.912249532522582,0.45114979619383777,-8.502704924026657,-8.381411154805303,-6.866065675633456,-8.623857747234998
85,-3.4521359757525887,-6.093957723036582,0.2525078198968852,-8.098696567102317,-4.630033098771478,1.8210872929300668,0.03546777981075352,5.28022407845054,5.99312597044032,-0.27253529506677554,-6.494370201451088,-5.989209936430124,-4.578814500595065,-5.444490489050881
86,0.7220251084520473,-0.20495227274902175,0.4357543148853597,-4.237564591711376,-1.9278245161149148,0.7803076208874845,-1.3006630314875938,0.437078459390334,1.6919394643275356,-0.8410539640971262,-2.954762933248411,-2.35847101234219,-1.036440649057946,-1.0126206850027255
87,4.510682167836982,5.671977264893537,0.5544669185057328,0.6027117611079102,1.2690425732616524,-0.6527852864511774,-2.6075016912674434,-4.768395033892845,-3.023149646608932,-1.0667890335244792,1.3067765880061495,1.6160594456229165,2.9291372701074048,3.5510537484766473
88,7.019174937267319,10.02396585026408,0.5891927577318428,5.187521280260705,4.1232787404078906,-2.196470661534879,-3.701421097815296,-9.127996536289533,-7.082991471881067,-0.8815401746586211,5.296614021191806,5.019765728641033,6.354788904710424,7.1339773627604535
89,7.7148168585362376,11.775448631690336,0.5286035626509331,8.384447399704364,5.905268216019785,-3.460759040665536,-4.353937663572236,-11.597604359819842,-9.570218984343729,-0.36408276591710637,8.062945848919721,7.120894495319397,8.376274371259242,8.896889375530957
90,6.526156318765304,10.553089277495141,0.3719753238129809,9.443207847492184,6.188190476907201,-4.0433776471499385,-4.332613207023006,-11.554605285131062,-9.935225205619357,0.2827897123988436,8.921274839773309,7.515863225561949,8.439954305873707,8.460557979244241
91,3.8261224456943057,6.752105461027316,0.13255161060065232,8.166167045326084,4.950938164849851,-3.657264676600809,-3.474745006604677,-8.953611444016007,-8.123170045445791,0.7992034560459448,7.626129478407258,6.193611754686597,6.4455023943885825,5.97644393479057
92,0.3154128614110499,1.398990493257425,-0.15964235924401787,4.93393946051071,2.5637856355642685,-2.248810250213019,-1.7710583103716842,-4.342121370910754,-4.581314467057216,0.9579564229095608,4.445280056899854,3.5152591628083374,2.7846851070552545,2.0732479186315453
93,-3.1568329202310603,-4.138880775499955,-0.45768837859966605,0.5892901855820428,-0.3320225884796762,-0.06075332943785972,0.5748258680472966,1.2667954593885582,-0.14525770711680164,0.6480657905341735,0.11342874635595725,0.1215387557747096,-1.735006968391292,-2.3009311593634845
94,-5.78946721049485,-8.510123223806241,-0.7023945511389914,-3.7836892226826957,-3.0090985012757163,2.393940586874586,3.1434318335462432,6.632197895820395,4.167123723445159,-0.07585491869477835,-4.329860725136802,-3.2092291413112752,-6.066895654408011,-6.101029215056064
95,-7.000436594643421,-10.707326844602532,-0.832542960545694,-7.126880214405786,-4.846122994835218,4.453125361691767,5.36904933960141,10.574101834034673,7.4017529410998675,-0.9967631034773329,-7.7846887505849285,-5.725151535796137,-9.163944055876248,-8.422562412277749
96,-6.541423885571421,-10.288328753279385,-0.7997127602973779,-8.657937624841734,-5.473848951442545,5.493276652843994,6.672699723501443,12.24297055795562,8.891986181188857,-1.7936915605041341,-9.362059046560784,-6.858284904145848,-10.227094842543723,-8.70519988570882
97,-4.5395270928564475,-7.448005590836784,-0.5844077397039623,-8.047237042657455,-4.840581661221766,5.128094054774988,6.624151239927535,11.3061326401878,8.403783598194906,-2.1409936802039895,-8.615662669708334,-6.348262625499723,-8.906338195974177,-6.861681207653164
98,-1.4634400435136354,-2.938138958732327,-0.20854464640696782,-5.485629621796488,-3.1900087292624155,3.351716188575701,5.0836546825636715,8.009793444275024,6.1680851796165035,-1.8195231504056817,-5.673238488108852,-4.307657369686548,-5.405644500349604,-3.3054569021901483
99,1.9770084216437558,2.1327374979463354,0.2609478647829675,-1.6311414433274851,-0.9696924364184073,0.5731189891925412,2.2754607399846596,3.1070002976440443,2.7969926589418432,-0.804507768733653,-1.227627218880799,-1.2111349940532352,-0.46180388701538755,1.1316422728918865
100,4.980206577010154,6.566059126729407,0.7210980637468309,2.551929405189174,1.2955468585885235,-2.478851259534613,-1.23655877923945,-2.3256689512523407,-0.8884305262125634,0.7009777261702236,3.6190524213673623,2.197921139604334,4.805774715070948,5.379998616841489
101,6.825905486188438,9.345877017512073,1.0547354300430807,6.025749697006866,3.1281353253453053,-4.95786255352813,-4.671486676329982,-7.1350781066635,-4.068589827620583,2.303468537434303,7.626468018022876,5.072499154656891,9.147001805493643,8.37836646665522
102,7.040918974580336,9.861541318480217,1.161151533898351,7.93170392235872,4.191275634012037,-6.1504430751157315,-7.221776328208167,-10.342934732242282,-6.116765400257382,3.5225868733787222,9.737350169071664,6.667923533928149,11.480458145772902,9.334648876081175
103,5.522558066357148,8.037429281630162,0.9875602517857228,7.804589166756949,4.337183965520071,-5.695794489322911,-8.259499183600267,-11.345706967784418,-6.723861978090432,3.9335910641965905,9.365189930963636,6.540682492303835,11.169066432407535,7.939745511965922
104,2.586963650082199,4.344708899926759,0.5513780546480759,5.694810567413073,3.6102503741260406,-3.7034315359564642,-7.50082940561016,-10.02307304507754,-5.931414028147834,3.306665965143047,6.567471152357122,4.685000213909853,8.200348862740716,4.475361240321889
105,-1.0797710004342658,-0.3084807233928266,-0.055453894377914745,2.163298730989998,2.2151890697960437,-0.7282657082895109,-5.083157844152713,-6.738269907778224,-4.075494639842923,1.6977773888605137,2.0497994950088287,1.560763812517951,3.2177332671347507,-0.22434604318386916
106,-4.569338640979257,-4.788535165671355,-0.6843411198580852,-1.8567080621505456,0.4637637704299709,2.3916508869626365,-1.534499662329453,-2.2381795121190415,-1.6682007588790393,-0.5421473617887972,-3.009240178260975,-2.0079025661708862,-2.6157086902266458,-4.962879212525795
107,-6.972439092358709,-8.006625208192368,-1.1675219972381488,-5.3018768670234255,-1.2877770935555288,4.784833291806888,2.3548937457844916,2.5189623542667277,0.7433183886210275,-2.8488992632141716,-7.271392289049962,-5.046842126128727,-7.895620002477592,-8.485967151362841
108,-7.621990163575977,-9.18698608214739,-1.3656214461679659,-7.264437279009395,-2.7017938847250766,5.805070547170983,5.7229079739941495,6.568282582547771,2.70061712830469,-4.597771907937918,-9.606062959653158,-6.7045377459941164,-11.32989834640529,-9.824380331118647
109,-6.291381393717108,-8.066446393523503,-1.2111158401955662,-7.243230710841228,-3.5165521812159626,5.2179816742927025,7.83776008482975,9.13254928472472,3.912768038203777,-5.2834563148774105,-9.406978726553936,-6.50426603976503,-12.074638151887317,-8.577989118521836
110,-3.284307981169856,-4.969033822879085,-0.7333105928398547,-5.286305489641153,-3.5916875169741065,3.258303178151493,8.262025661573709,9.76857474844334,4.280528242424934,-4.672159443886776,-6.763881969609379,-4.495912582398803,-9.959150319336795,-5.051712438036244
111,0.6220240742756036,-0.7278198618067497,-0.055194322358678674,-1.978772499337007,-2.9348090485235363,0.5432118667108936,6.941586095351077,8.439997331338425,3.873399412330191,-2.877929551917647,-2.435357789371291,-1.2538885643206146,-5.534078359476925,-0.19184748751022432
112,4.376582700478744,3.5331773429396875,0.6388816551797054,1.7257857778955612,-1.7021184327959038,-2.1267372046343618,4.203528380364296,5.5060357925954335,2.8781239864218207,-0.33808631925156857,2.3719472021819685,2.28563663086089,0.07461379224510334,4.6698788799330355
113,6.947144481400578,6.702397473725697,1.1560908224746014,4.783678546979519,-0.16880146324913858,-4.0128690011870685,0.6694777529680779,1.6320734100560752,1.5395904492064811,2.305871156594215,6.352892614440444,5.102599773479329,5.466995124893517,8.19548980275075
114,7.621451727076474,7.985610829279282,1.3526206979166566,6.36640667947944,1.3286299980083618,-4.651791811995327,-2.8908337576661545,-2.3574836391621985,0.11017421972443285,4.386058330028704,8.476984281581972,6.400651908697642,9.341249524725017,9.4307775905894
115,6.223294300435757,7.1231644537353205,1.177495790147068,6.099241050482396,2.4674964353795463,-3.972764510009265,-5.730279534831389,-5.65305692699878,-1.1851429980000956,5.391248699845562,8.272491303894652,5.846752103826886,10.831047732572157,8.085268561216749
116,3.171726115112255,4.4533305599318345,0.6882937391391479,4.158996345011489,3.013961896463489,-2.2886896627093156,-7.281837965278463,-7.624749808053363,-2.1687329595068947,5.10138185508917,5.937543213001631,3.6654609092230466,9.713900933058664,4.612676514049856
117,-0.6407883615814035,0.8009212270648961,0.03319942673748332,1.2014555568230858,2.877821175911062,-0.1720880404030475,-7.271047567465259,-7.94474734092021,-2.720869878100132,3.6361843027164675,2.249534374793838,0.55780749544219,6.435828128000196,0.0648032086772196
118,-4.11711404027782,-2.7755356298589238,-0.5951363589120192,-1.8561084652733557,2.1310992565607085,1.737120050918731,-5.762726893188405,-6.642827587507952,-2.786496501939129,1.407744657305006,-1.6921687427145178,-2.5275053312602767,1.9530876320306736,-4.235191930202155
119,-6.287574087258013,-5.299826299801343,-1.0190863365169678,-4.125089508018602,0.9844591543875364,2.927154459451614,-3.1352644148993942,-4.084751233758484,-2.380481023054588,-1.004275813671375,-4.80430318457348,-4.6942259467684835,-2.554757892923285,-7.095567420032594
120,-6.599457910066083,-6.1588841864188195,-1.12958928867958,-5.013742245183628,-0.2719481029383912,3.1524729759598107,0.00991630409971771,-0.8798219141432645,-1.5892079123514955,-3.0146774446710403,-6.330963480780607,-5.371312495776024,-6.011238244943055,-7.80622983769335
121,-5.071056120672811,-5.262079914443689,-0.9165457578857863,-4.3884373797883,-1.345701939087986,2.476999053750271,2.9837136021196846,2.260782060544479,-0.5634832168491704,-4.183940861901305,-6.034253426488145,-4.471053914885762,-7.713518119973922,-6.326911144187755
122,-2.2624673438495737,-3.033237860994849,-0.46681560518178855,-2.5811271164141445,-2.0148008028460342,1.2184983571838117,5.160816672750213,4.682649917727109,0.5017786301020092,-4.3175607962412155,-4.214060539161833,-2.3860687799214095,-7.47508427930771,-3.2592849648424074
123,0.9229747337268553,-0.24505451534893502,0.0684110495025034,-0.249066866659049,-2.175675367616573,-0.1781190661210026,6.114976215563131,5.928029463894608,1.4016309352747685,-3.491000714412659,-1.5642004054619267,0.1659070705474396,-5.612363789546045,0.3785447635564917
124,3.5364028516979666,2.2432964444871413,0.5248866391164622,1.8582779885427465,-1.8552902375690647,-1.2910315173404807,5.708306644059245,5.8259271152537435,1.9635623591422946,-2.0012205656974973,1.0761303686351926,2.390182919370808,-2.796102112289523,3.492630023684041
125,4.878771910181525,3.755385778381403,0.7774184213241546,3.1423146711196264,-1.1879498415183825,-1.8453914924305201,4.113865977102253,4.513298283293656,2.0878009945875196,-0.26639819693378725,2.987815600278805,3.6690535792225845,0.1734968506213806,5.2524048457899495
126,4.697111961501612,3.986046185450068,0.775551617362302,3.327615245142594,-0.36783738073487404,-1.7751457136678108,1.7653225686467056,2.384662960519075,1.7730454904659114,1.2926450201034818,3.768780979616514,3.73774709207816,2.5930643265123297,5.3191852114852525
127,3.223109762095915,3.054043062175028,0.5520929484408722,2.5124706269391823,0.4061469381677458,-1.2113377354167014,-0.7550088529423769,-0.015445137515640866,1.118046615773685,2.3552217969526423,3.407691438009912,2.7306598500834824,4.018663530274607,3.898477691063212
