,AF3,F7,F3,FC5,T7,P7,O1,O2,P8,T8,FC6,F4,F8,AF4
0,-0.10279941450537451,-0.1814018518739217,0.010272297495976114,-0.2532271097871048,0.06262673703958797,0.6916801681632658,0.7944365060854022,1.1894200359549552,0.8041994411699372,0.5377810268627872,0.12434938924693631,0.2859800355896349,-0.14243358097738965,-0.06543687221154199
1,5.969269769216208,4.848650527690764,0.24709652129132428,4.581408260671327,1.2389103080081485,-0.382540811809801,0.9416266531106783,-2.1462049050641006,-1.896042464657185,3.06306202402905,4.855359678734576,3.0583281403874207,6.253075438449653,4.88436550565547
2,10.539809595673477,8.67374844486507,0.38138054672442695,8.278099413759078,2.1513350273510237,-1.09552842709983,1.4251195574465185,-4.032462164895409,-3.3922651271171516,5.2961483355195105,8.648167234033293,5.413927659881895,11.167048578451636,8.713141698684858
3,12.515750691298184,10.364738118266411,0.36467299058236047,9.934507726539136,2.6050806374100426,-1.067931222591466,2.5302869743389116,-3.35712494681317,-2.8114816926482824,7.025738796102595,10.784339383910286,7.04009150870402,13.491128280520602,10.59739346677568
4,11.441194551165289,9.506533029638774,0.21160863211768594,9.145658785942302,2.4923374457399707,-0.23277595744762428,4.0975971462859935,-0.13331028175146553,-0.20717774226947983,7.896735897219792,10.7770048092586,7.601839488158793,12.686121671557826,10.105293727398516
5,7.599522451674249,6.297682823425285,-0.007855232279692065,6.103830983659122,1.8168965112200905,1.1250781998257728,5.533436350253594,4.46123884221526,3.4289131785385614,7.478712552561928,8.47930408309204,6.803813481149673,8.9045951653757,7.291229651971712
6,1.9393298416514655,1.5084733990685928,-0.1993509916029586,1.555426537199633,0.7015433040107306,2.4624457021758897,6.030458100526191,8.509945906794488,6.5386370191149785,5.4531723988529714,4.179743291558266,4.520351210681167,2.975317670709435,2.7107484598122236
7,-4.156179311089475,-3.6951726237778657,-0.28473926654537124,-3.3768302604128837,-0.6265364642952221,3.173582228313358,4.915785574970056,10.093515710210182,7.613116455018186,1.8422186443645203,-1.3622166008294239,0.9405534830328225,-3.7562198891267893,-2.659255809700921
8,-9.201642904671028,-8.025506563751549,-0.23503551400467934,-7.466249353560966,-1.8744497571932988,2.8203159995777605,1.9894931005543823,8.062286289692826,5.816439100134888,-2.833174390605726,-6.990231243217266,-3.348798337052174,-9.710674705852153,-7.598359688566363
9,-11.966389080796654,-10.384493258185044,-0.08165125793718707,-9.68515026555281,-2.7431484750100212,1.3148300761172238,-2.2874217794416705,2.5527640463023467,1.3750377084720806,-7.562790875479824,-11.359511142127303,-7.409119163027548,-13.431423617839936,-10.899672382676512
10,-11.772350394266269,-10.140753809332402,0.0986229839233676,-9.464717345301557,-2.9977295133865227,-1.0122599558547738,-6.844979034656079,-4.953918790236853,-4.424135230854218,-11.06230667174941,-13.256490956247761,-10.14751752428889,-13.94001175056536,-11.660062754130704
11,-8.66219819257701,-7.302721458834404,0.21819816475309153,-6.845665770018567,-2.53236016258755,-3.488148446044939,-10.29815143022326,-12.069443137703715,-9.638779285679208,-12.148545868097548,-11.953964846262203,-10.62728782178553,-11.0038304059053,-9.53490842371635
12,-3.395689450367402,-2.5390334841208406,0.21780843429302224,-2.4782859479928767,-1.4112854948498075,-5.299466064704842,-11.393689483163522,-16.29019950389345,-12.341978988037805,-10.156448428565472,-7.491474237313393,-8.397955327961927,-5.238859945080855,-4.882283124693564
13,2.7282419720422433,2.9681006967193007,0.09326697522989032,2.5329561696619103,0.1295204306696934,-5.757099056328801,-9.459227969866841,-15.872523180470328,-11.320903834324357,-5.246643534255633,-0.7727826883579602,-3.7265659709016834,1.996368414614771,1.2614071957696196
14,8.184464425998168,7.808776404792017,-0.1017438466717297,6.9052161036620054,1.7266629590016411,-4.538422124757279,-4.695065604083951,-10.485847165514386,-6.5521834298701025,1.5242201987183666,6.583844729215929,2.369973748521805,8.907802479674059,7.392302612557781
15,11.596566506178014,10.703985267499563,-0.2782244555933473,9.505664873733666,2.9735323926748314,-1.8252568263465183,1.8034639410828683,-1.4108465638946481,0.7208155030155444,8.424531298266581,12.632068472145153,8.333388650439717,13.709254594384838,11.901119587174424
16,12.082997432638287,10.846194386931982,-0.35031227434436496,9.648267916466002,3.525460131134714,1.7132247654919066,8.31702747913062,8.797135986539402,8.345166417605242,13.514978251135867,15.628590671615731,12.47496505222817,15.092534947022184,13.5004736802091
17,9.48766452095892,8.129945988663904,-0.2733415326675628,7.280033427148073,3.1980362347468945,5.095155266822268,12.99221333328629,17.078643597295436,13.935687808848584,15.227033794725422,14.557653373624898,13.475882920342723,12.59714823036976,11.60137347745418
18,4.4338794004483955,3.2047165018722166,-0.06520011947682697,3.004527263374874,2.0294854923054824,7.310149168963722,14.40051141599021,20.82790524693236,15.647825854652154,12.870077294507732,9.483878519915876,10.822145235106097,6.770605707880425,6.525288319951428
19,-1.8173381618456261,-2.672923934171374,0.19846507340548356,-2.067687584388838,0.2856181336831239,7.628229102969917,11.989973942641589,18.728210907999237,12.78905708971203,6.897572347280149,1.608932348964192,5.027407326621525,-0.9377866043730942,-0.5237386528125322
20,-7.674799393281894,-7.956772446077541,0.4137456936442592,-6.605860101133439,-1.5989969700694455,5.837779783218019,6.284230075335365,11.194790685034448,6.0663953644802024,-1.166263205993243,-7.007596898105796,-2.4446961200817134,-8.5344846885508,-7.737670596508944
21,-11.617415128291263,-11.218615949640386,0.49081321690479773,-9.409351932701519,-3.1314268237805924,2.3356989866243136,-1.238291196107402,0.28219202611326766,-2.611132518846213,-9.131552625364408,-13.999223486254623,-9.555658651863684,-14.002981431364164,-13.171205634358449
22,-12.587673111839448,-11.537981803770776,0.391664656552942,-9.728699815504147,-3.8937529129347395,-1.963610629010813,-8.552552771073936,-10.915602827671979,-10.710470606455187,-14.765276320262608,-17.362844538239642,-14.26587920377839,-15.850227459368373,-15.274492441274887
23,-10.276888420257603,-8.766336721501169,0.14744594092750335,-7.470472042473589,-3.6620363881296587,-5.878736232523415,-13.66139494702148,-19.184791664330866,-15.847013241146717,-16.44518256898283,-16.051279035516533,-15.139807904451672,-13.526415985614276,-13.342862069252853
24,-5.224901181229046,-3.5885332235362832,-0.15226952779044306,-3.228547366868683,-2.475518221651078,-8.29984916444218,-15.165023620562431,-22.14655060558295,-16.507279155127645,-13.645891027323435,-10.307062440245016,-11.797223069048087,-7.596505569792417,-7.7505382310988296
25,1.2980976659768304,2.642408115612625,-0.39439681952891786,1.8695825671656703,-0.6336373923855922,-8.515183211955334,-12.657358122955614,-18.95635172524748,-12.498663365531652,-7.107589172422433,-1.6294620345067745,-5.065675259097372,0.39175788367519954,0.1087433452099219
26,7.604654631359886,8.258978023538543,-0.4875526838482803,6.462657032238558,1.3811226913114694,-6.426659171683299,-6.835157821292979,-10.54085794930584,-4.9938770876211525,1.3659717801212292,7.625169545540425,3.223407902013753,8.314129979122935,8.170154336077287
27,12.023189015480742,11.729178058795739,-0.3992012684202552,9.32197710462542,3.0345391594143116,-2.5878695899781285,0.7072232953595989,0.689996298493622,3.8337203701935887,9.421166099593888,14.89946340627204,10.744287843814885,14.042869682518315,14.247792391609465
28,13.34130844973437,12.080445559072981,-0.16938065047598702,9.684720274424267,3.8892124527780387,1.9493209801127156,7.932188622092379,11.559282353261656,11.463152335597133,14.827603006034797,18.159184000209596,15.346263928544838,16.02935021321036,16.63755229229968
29,11.141570475517023,9.17821473099595,0.10500188894795481,7.462115125996973,3.727233123842086,5.935356855576623,12.92701965543834,19.046875793401792,15.7642034973207,16.112399619970205,16.475058360029575,15.68483914151682,13.733516872243996,14.603617663450503
30,5.935233643056158,3.777018913837664,0.3094018270715051,3.2637716690152927,2.610552019736988,8.281675400593745,14.422436293644562,21.145928012474737,15.60090768191755,12.9714376209643,10.292545801699216,11.624808578713653,7.778122804781106,8.607131401186699
31,-0.9500833766125567,-2.675764137256236,0.3588156026685109,-1.7698179641949714,0.8607680464798706,8.370705854039889,12.118495915042176,17.40635820703314,11.129103785605299,6.341704599208692,1.3107150496446691,4.291872230764474,-0.21818562547010828,0.20519611613859762
32,-7.707454646950246,-8.433209468501106,0.23381232164298035,-6.28073598018734,-1.0358482428615639,6.225493270484513,6.734774919559814,9.019448249357426,3.713890969776247,-1.8805794872415724,-7.994907943803915,-4.245764215260828,-8.084641751530166,-8.35926191820685
33,-12.527918623228729,-11.931008539852446,-0.009555017348417016,-9.065765349476013,-2.5696411740309046,2.4904539243795627,-0.21777965689721954,-1.564805835884454,-4.494130216370291,-9.388970531701322,-15.067971466633315,-11.573232889089965,-13.696151716145717,-14.767379197368754
34,-14.09094388010047,-12.222507176637007,-0.26074467902641757,-9.403204844515285,-3.3526860623491364,-1.7675799443031963,-6.869048778680462,-11.362259843533915,-11.189443833989616,-14.121441477335653,-17.98607984883531,-15.626463256823174,-15.558084594851943,-17.26526951892431
35,-11.9326543512077,-9.242145168632577,-0.3991153262046344,-7.243503681316149,-3.224342598507705,-5.374938196072004,-11.499655902730685,-17.70404375547919,-14.562687046007442,-14.833063213108062,-15.991818403205134,-15.28538615336875,-13.21418770376207,-15.155338990322187
36,-6.5863389303806965,-3.8212026710099107,-0.3446028450808976,-3.211978429970369,-2.286441620323972,-7.3868053766030775,-12.98786744953232,-18.967727939088245,-13.789059978068417,-11.427058590399035,-9.691754117286528,-10.689033596930491,-7.363623641949572,-8.997270024478313
37,0.548944298969224,2.54888340387671,-0.09450039443879404,1.5745009627719284,-0.8594480339717334,-7.343561246826483,-11.07745689694582,-14.990539661299682,-9.22473183602523,-4.95669015549207,-0.8712658960995878,-3.1825501038429596,0.34444462707769086,-0.45894353848250297
38,7.580048095904471,8.137198681561387,0.2690743480102224,5.82255827019048,0.6244298298208752,-5.375829305674081,-6.4049198057192145,-7.062017560028545,-2.268337882415135,2.6949814765475026,8.017533750062707,5.084057895051388,7.778937423749486,8.143197923322804
39,12.63154207639845,11.456524320003568,0.6055077401829256,8.418704263045356,1.7560107644060872,-2.1346697817585345,-0.29181034085581614,2.4854525507384917,5.061569972516551,9.360470540159392,14.546155729541432,11.783245547728672,12.923782424918256,14.485924944554625
40,14.35646712444467,11.670392175881332,0.7672776317053996,8.726989567863525,2.2689343711065244,1.4232806382472964,5.630546725388227,10.959298483754157,10.706645495391804,13.200798434291169,16.981959696906937,15.076791100273537,14.434342149157622,16.882047821332044
41,12.303784207494198,8.809183415790441,0.658099646882769,6.746749818883187,2.1077625368162924,4.324327144809169,9.856934973386316,16.063577694696065,13.141706084715521,13.21315224762053,14.754352443639,14.127821838682829,11.997112395908772,14.74244534121149
42,7.03983279508904,3.7376465375631094,0.27557026471925355,3.090758625479236,1.4254592226039513,5.850938815137524,11.388465308921694,16.518439497083904,11.783368333475162,9.493585751937092,8.58841832678076,9.313377743598256,6.394181688972922,8.72717770879301
43,-0.00994901885580891,-2.1106004533148037,-0.2788695147510318,-1.2042704407217328,0.5148013063146815,5.7212303343264805,9.962421553659475,12.376732722244714,7.126840074216919,3.1863731804310977,0.2752886267407621,2.083995426812817,-0.7406634077450819,0.544964232458379
44,-6.954330953823026,-7.148982236953593,-0.8283096403842656,-4.976205369619454,-0.3003561104704984,4.129782089418451,6.081505671091157,4.961683489023563,0.5804259853767386,-3.8595290557392845,-7.848871788112668,-5.478914250697234,-7.399205760565551,-7.538675901897932
45,-11.954394202979957,-10.080745451126973,-1.1787072203692373,-7.257956013346291,-0.7758499338505582,1.6494430901489043,0.8465862487291728,-3.5437260117331997,-5.949506604824295,-9.62512222071392,-13.563228477793247,-11.270967112786,-11.769284876065578,-13.34130672716224
46,-13.722119674608791,-10.241749286807615,-1.1873680960407709,-7.53013913268424,-0.8228018351331781,-0.9651689613108296,-4.353321571447991,-10.730714853114486,-10.60337759579487,-12.493944272512673,-15.374401643683676,-13.757930837896248,-12.734747874729594,-15.367461717473287
47,-11.861804201186061,-7.750441161869064,-0.8172095980283054,-5.839101999920466,-0.5241836341813214,-3.0064346562606183,-8.207351222604439,-14.640131111722358,-12.09007716409715,-11.701643393768224,-12.910787084397104,-12.38504437089554,-10.165184854980794,-13.205720114019659
48,-6.96175279652705,-3.4319054961480093,-0.1566445011763295,-2.7541454103805862,-0.08948909915031258,-4.005461223780525,-9.809908105501316,-14.292010586885002,-10.041247483361254,-7.5386438798952415,-6.994647023757585,-7.6931939116985,-4.919426100717481,-7.610733995938484
49,-0.41422779984388003,1.4506095836442023,0.6034269084013959,0.8162069730173165,0.2340455993693398,-3.8352020964712423,-8.868576009431314,-9.9276213606178,-5.101807895394468,-1.2527367967077738,0.6198370933892149,-1.1213053038266818,1.4295391288083175,-0.254752452800691
50,5.982390687517813,5.569916783772309,1.2290117383158654,3.8909579234020732,0.26079086984939026,-2.704755839118644,-5.747079544246348,-2.9053248889714363,1.2657802647221916,5.317227160884124,7.760966496280611,5.435182007377796,7.061646676631052,6.771580170616262
51,10.525210166471519,7.902826180918343,1.5192722684232747,5.688465116088678,-0.05911787717461458,-1.0587511952052668,-1.3411639081029088,4.711580929420022,7.206246578375316,10.270763219362749,12.456631017018964,10.17382169845543,10.430609442416888,11.559606368742099
52,12.070789915964866,7.98836523320375,1.3737431754668168,5.828014123920056,-0.6171646112643789,0.5780361108611409,3.173127450385147,10.752754585600723,11.004128071223116,12.18797608952697,13.479559808155157,11.882749666756482,10.68965509174878,12.910090808805382
53,10.332880908985778,6.010805371654425,0.8273044816449502,4.4090956888251025,-1.1834196870670421,1.7594160069958886,6.649673536996857,13.553437435466734,11.57304353962415,10.531735463319716,10.67037395659781,10.249154875960228,7.905143891057243,10.640074714922696
54,5.934420756564095,2.696438440028367,0.04054689351999458,1.952893150979669,-1.4902233264902864,2.233786979703249,8.260764022232827,12.410276230272913,8.762807756854176,5.79693692740205,4.953448030947161,5.901713372258341,3.00487810810812,5.5897865928071235
55,0.20509260399435447,-0.9329544355228896,-0.7515403351874421,-0.7704037853376018,-1.33335025440422,1.9895712451904102,7.692661268075054,7.755935090828282,3.3974179588848306,-0.6346471278440385,-1.9518897516399882,0.18868930454595295,-2.515506865080321,-0.6609516879375728
56,-5.212371208662684,-3.8691285096432457,-1.315245257908736,-2.974109966447228,-0.6551412402670053,1.2261632448729047,5.203024105306574,1.0091967265069242,-2.966202777588709,-6.892442812566426,-8.037268962802388,-5.232886855666046,-7.037375190871214,-6.274575772261461
57,-8.831701977423839,-5.3963301576854175,-1.4924811792772088,-4.078888334273877,0.42001680691242227,0.26814823200995225,1.530900485510778,-5.850734656297419,-8.488851726546955,-11.155104001154825,-11.581768415515441,-8.873120887701239,-9.284972634050652,-9.690584652482785
58,-9.734704151895505,-5.263593616645822,-1.248753593233545,-3.865160359128167,1.6115019112394933,-0.5459706510765717,-2.313079166193497,-10.860049179852767,-11.579175393992937,-12.175565212035249,-11.63540883214516,-9.81511881067484,-8.680479812476595,-10.058760702776121
59,-7.811017260588287,-3.7106943094037255,-0.6791406021871219,-2.514462341904578,2.5626506355127754,-0.9664480738792746,-5.3195116448412065,-12.630153469639037,-11.35064799995901,-9.64313648709296,-8.274933175692532,-7.942272093957176,-5.491392575289227,-7.451500344486923
60,-3.7630852751453316,-1.3532853933373918,0.028471623211437064,-0.5333819727935213,2.9502905766376846,-0.8989640185928677,-6.744561511335367,-10.732473254575343,-7.874009929780115,-4.2779981705117445,-2.563145556448399,-3.933109412908431,-0.7340261503508486,-2.8034962314327108
61,1.1195602855988842,1.0277650055263083,0.658801032143214,1.412787505824778,2.588864052540369,-0.4206096975834103,-6.297510858470005,-5.801294698926711,-2.1529023649099504,2.3711660241822763,3.7726835486746797,0.9639725645789697,4.1343731177532606,2.393779951967883
62,5.348349258576438,2.724973700752777,1.0396408445353267,2.7052211849627805,1.4961325048382579,0.2548913260834596,-4.203459962214096,0.670400705856254,4.16957993449024,8.371094574352497,8.848926500250215,5.304565107972929,7.644556863446457,6.5471593851107075
63,7.67357930133874,3.3014960058438176,1.0930184238623146,2.9553009950181135,-0.10028700216798102,0.849991333198741,-1.1258093721570916,6.778914134199648,9.28786395894213,11.964072707818747,11.174005463027536,7.862117090574725,8.742987113953731,8.43195676034247
64,7.44713350603593,2.6956934651786764,0.8506703445409077,2.1149955436974768,-1.8178623301092616,1.1127820102366202,2.029588836876427,10.768980124461587,11.75561723989053,12.083409345069931,10.0803146142681,7.966818240687818,7.0978973056984715,7.54266870891118
65,4.806863915095002,1.2116683394241736,0.4310500224767486,0.4843011055717366,-3.2193803069902027,0.8984592136430644,4.374388429286731,11.5405784644596,10.900346757358689,8.673374306784268,5.916267797986912,5.678776304475088,3.1976532519074006,4.226738453201903
66,0.6298477797804393,-0.5931185839318434,-0.010954271489507414,-1.3841947359389004,-3.929499231807774,0.22042889207986036,5.289103894084542,8.95647114536811,7.010256696166795,2.716532179365681,-0.05685584069737693,1.7521613697194494,-1.7871131445815625,-0.4329600327010866
67,-3.732886866741275,-2.085771332056171,-0.34129554624440717,-2.8548290317430167,-3.7350698431170812,-0.743957923572651,4.594375716507501,3.862864168799577,1.2396249801269632,-4.044978640128818,-6.034629424479181,-2.5954601754803357,-6.3406249873737766,-4.949865371042831
68,-6.86476056654142,-2.749638558224535,-0.4896787389206234,-3.403355850982395,-2.64263793885967,-1.6968835441013004,2.592354265390715,-2.179474430810216,-4.7379093887025725,-9.617588328866448,-10.200520426942148,-6.041696840234605,-9.045088577565098,-7.882350599096202
69,-7.7170388955125695,-2.337388915136489,-0.463744305402039,-2.7805581782557938,-0.8794162943421245,-2.303649345742472,-0.03459284083081736,-7.370708389875308,-9.224035877024537,-12.347046526211495,-11.265396286721277,-7.544626538619333,-9.004728293177127,-8.268955444917516
70,-5.939189424310574,-0.9451801647300525,-0.3321427486963244,-1.0975723467643235,1.1605483946698847,-2.295366473078799,-2.4385112553968256,-10.21030466685795,-10.990627875088522,-11.416518055788831,-8.858027241840924,-6.646634682889938,-6.1276379934447,-5.923508708148652
71,-2.0051548423828223,1.0112002585499211,-0.1862310211789646,1.193018221551395,3.009745641696076,-1.5621491028289116,-3.8697064512562145,-9.9368708180557,-9.62778167560325,-7.100332068726943,-3.6498195041567283,-3.6108759077226473,-1.1791286903338507,-1.5028268970486462
72,2.907944099448905,2.9120456064841784,-0.09768965128444308,3.4173948216757024,4.236420949975898,-0.20775643989309361,-3.909312104806396,-6.738945897771399,-5.643353863277661,-0.6920795354050236,2.827589764774653,0.6496597464529577,4.416844030704139,3.6755769492230574
73,7.259672179809652,4.111361345754815,-0.08966423951462585,4.870536385548348,4.543981688110061,1.455289772750806,-2.598081726485664,-1.676417498033871,-0.2882285927937685,5.87702553096129,8.624107741126835,4.832965460541968,8.979148434426442,8.016152414097148
74,9.609185983858785,4.129681504874284,-0.13231108425839297,5.0241417975744325,3.8388710448288657,2.9755073619708248,-0.41981581901324017,3.659642122147527,4.835310806392746,10.618686384241762,11.94727388511365,7.627468543077531,11.063291933262468,10.119550414385692
75,9.065294610577455,2.8095699810918098,-0.16288209733954026,3.6939039582013926,2.253272727457889,3.8832174979654344,1.8571966653550918,7.641798909358477,8.259934431937403,12.092922759033764,11.705037183284471,8.10368852444663,9.905008079494635,9.21075989243593
76,5.586819445409899,0.3884863341688563,-0.12021806818934332,1.1168873336325338,0.11893945525596152,3.8308325226835818,3.4321154437988324,9.102872201222839,9.085441516731157,9.8531935287982,7.853159456377614,6.005250612216249,5.679551292569119,5.39385916326172
77,0.036661918980460236,-2.537022460134341,0.02212787774590376,-2.0872056041662783,-2.10187707913154,2.71153744117067,3.7372560410388083,7.682658493864595,7.226993034913912,4.591878789276775,1.4386223141056178,1.8514611123460778,-0.5086361610954893,-0.34625663354266445
78,-6.0361716160719885,-5.154156524012692,0.23881264846728534,-5.066069029160002,-3.914462349113,0.7174880828383425,2.6316677525996828,3.9207629105303465,3.4082506266230146,-2.063387955933127,-5.682488202964675,-3.185510588940947,-6.914617460707287,-6.402782903915124
79,-10.831260780763465,-6.652196054154748,0.4591710326900681,-6.960239120149395,-4.89931820613947,-1.6864416389661308,0.4579498890824128,-0.9292609054450142,-1.0920835655452736,-8.044911350811429,-11.377956820372267,-7.602244336957351,-11.645740484862873,-10.998047610697347
80,-12.82567942951011,-6.460475871717614,0.5946039476547451,-7.145188879901321,-4.807800356324512,-3.8732284961319032,-2.059547176132639,-5.303196012533006,-4.855940513346952,-11.482507757731666,-13.871502779850244,-9.998951931230593,-13.219545553028237,-12.700063859370882
81,-11.242101524476848,-4.438902045058951,0.5754308849606761,-5.423262445760517,-3.6251028943544252,-5.2221131369730855,-4.045947349252412,-7.819305687085887,-6.770734058058613,-11.287349028798506,-12.28777943057402,-9.50493232358843,-11.022118344003996,-10.85530079635126
82,-6.314119030798814,-0.9608072253317623,0.3818171168291797,-2.108571638037025,-1.5848589885749134,-5.298239941598553,-4.764332754828081,-7.707539302379426,-6.363862670163761,-7.4993013877310455,-6.944349473785178,-6.06848480811399,-5.52529535128936,-5.808772251102207
83,0.7372100227956379,3.1465800298766156,0.055860645507754075,2.0255844862410877,0.8716948293920274,-3.990063930026036,-3.868591496979166,-5.042571990434661,-3.924709592525665,-1.2858590318525598,0.7046510749238603,-0.5185182170918966,1.8116720471751144,1.1588288029274905
84,8.01824231731305,6.799963350846408,-0.31034979522236344,5.930474520830104,3.187442937543074,-1.5607472431944658,-1.5366575858697895,-0.7106831186325765,-0.3810871010815035,5.41181086304312,8.466815010918328,5.632354066197946,8.93776034720838,8.166569912939712
85,13.485333458265938,8.950138879538033,-0.6061937012093576,8.553182588812398,4.814967103121759,1.4061451571025618,1.5632851545887434,3.8762766387849483,3.0242782110181783,10.479364771409001,14.042457258147166,10.598423222278377,13.794334668269656,13.25136445556
86,15.527716621826897,8.886315447467107,-0.7412930124872744,9.12433365904981,5.3485909884159835,4.15496644913586,4.468050020540982,7.228336317465151,5.14860998830462,12.290796790220504,15.705922327902801,12.834501377125527,14.918598911003253,14.923694212466126
87,13.441879796262713,6.465183210045087,-0.6767537529569531,7.38262094030043,4.630615152408395,5.959896348831158,6.217986540993746,8.24577782994919,5.3194232541704425,10.223718719492602,12.834640664641688,11.50540250144852,11.886490522448526,12.602018791357503
88,7.6569088725690095,2.1908427178776506,-0.43731016133493245,3.6702245735830155,2.8025059821554845,6.323225400519614,6.16571999407676,6.563060935340867,3.541448865593378,4.864820239249464,6.123764960380406,6.769819826578715,5.459183243885082,6.798969473783688
89,-0.3593222680881759,-2.8884575312131267,-0.10049688053173444,-1.1333277995180544,0.2833031520835331,5.113441509953927,4.196459863991622,2.663121783937774,0.47655570295308997,-2.1619406109279407,-2.5853995138916877,-0.21448161492502302,-2.6161610529317056,-0.9981893014725034
90,-8.491095473688643,-7.447447259302948,0.23213562676563318,-5.8269721184086345,-2.3245753265835356,2.604286035826898,0.7874019253620599,-2.2710061447014804,-2.791696822297335,-8.693276222164789,-10.820725695687374,-7.578578745913748,-10.097565143321711,-8.723407737188351
91,-14.554307478457892,-10.24467802371624,0.4702023442941169,-9.199005947755479,-4.382038804129996,-0.595091420265489,-3.116441352315554,-6.719099302944655,-5.126980541777756,-12.696116587907719,-16.191904432406822,-13.25125229913208,-14.889141837721683,-14.295235311804442
92,-16.900530592660754,-10.475002667411594,0.5627608193271035,-10.349955762530419,-5.376255035200168,-3.697842230406258,-6.37501845503766,-9.288015856949599,-5.718482605082468,-12.89929137647708,-17.091940783106473,-15.548014981396772,-15.643409761972482,-16.19031037156705
93,-14.87419292824328,-8.009645502282975,0.5098935717717882,-8.93868400114203,-5.0563692330077,-5.940505799368747,-7.992652465351804,-9.13505362110858,-4.343909642784449,-9.189302634158313,-13.17879127271328,-13.670404394765836,-12.147379103561935,-13.865795515905253
94,-8.993720306340803,-3.4497730673995215,0.3549070272772101,-5.282556355292458,-3.5035646816587827,-6.773430218036481,-7.420719569365129,-6.22303648945425,-1.4333490952691355,-2.6466197827309235,-5.491203543508521,-7.96634178661237,-5.379254367083468,-7.911983390245682
95,-0.8070064183107185,2.0268789965321985,0.1621352379592223,-0.28208149457115195,-1.113712355134242,-5.992443201588154,-4.731124772326118,-1.333051753222256,2.082052737177139,4.787339739288936,3.839393692776874,0.1316896364924554,2.7788622469749416,0.10744730154314411
96,7.535365015177602,6.985523388136753,-0.009510849815674972,4.811049151982415,1.5049933738464099,-3.781978837284917,-0.6076402387530899,4.164919169987107,5.081040710166568,10.906027749854783,12.198560934423016,8.481250844502426,10.084604034142872,8.081962358664782
97,13.866518082266117,10.129259242420051,-0.12639665264028282,8.72006028895015,3.692436104696458,-0.6640635838000118,3.8423929349830344,8.711103802562914,6.616133169363905,13.908353798018966,17.241093376789458,14.815847176045343,14.572910489450845,13.927358621874381
98,16.584058077192264,10.65571456969202,-0.18630198357235966,10.474885068284921,4.910697786291983,2.629529704179752,7.399691189392607,11.004232965172386,6.2098585333833505,12.935264205815628,17.563933157517333,17.376833602112992,15.100380174753576,16.14564348670956
99,15.06531794668615,8.472826960229687,-0.21009165872255503,9.660216912652665,4.883201483493938,5.328674120153557,9.076050482415491,10.367918246350197,3.98979251739225,8.309399149501168,13.101942254481829,15.410235398685082,11.64112949744003,14.217505484215604
100,9.807522733773856,4.213014790098018,-0.2243691917735352,6.514465191069369,3.660441423008885,6.80011775678524,8.389662970734044,6.932633377302279,0.6261989795506394,1.4114796208148885,5.1325040399989605,9.384980648490318,5.256405853741587,8.722470668832832
101,2.262850694821925,-0.9554601392605375,-0.2440242228409754,1.8561260457985147,1.5956469503978676,6.689457327726864,5.495909282372567,1.5881755291556723,-2.8970645498857084,-5.757839462213539,-4.107507851973217,0.8691846129673751,-2.241487708679007,1.159586448504221
102,-5.576449466652693,-5.662059049960493,-0.2629892227462596,-3.1385787514967283,-0.7598914682452387,5.001856930333611,1.1404881336941806,-4.2711023163560995,-5.5947974163452905,-11.185813337313322,-12.073751481760587,-7.900022992365702,-8.821863928426792,-6.474909759417657
103,-11.721057753553936,-8.71372181304653,-0.2573211634336955,-7.243655933988138,-2.809449289482947,2.1060735008366627,-3.547132857648842,-9.129039226469471,-6.770824364235118,-13.433458177083695,-16.639303034851885,-14.629600790194669,-12.803481774038515,-12.230817194903551
104,-14.703648124930647,-9.411321132809318,-0.1988807221910615,-9.493222430960333,-4.0670104061906835,-1.3398408349856474,-7.358556219521917,-11.748472960149135,-6.196903470985755,-12.02326189694902,-16.67939450743675,-17.591954696583326,-13.29406667568408,-14.716330279675185
105,-13.935180484586363,-7.71522425706641,-0.0729810965190098,-9.412752977834115,-4.274222961931933,-4.528926949262745,-9.324258850534418,-11.482447250703988,-4.134960546461963,-7.522793654751637,-12.350508386160497,-16.080297222691655,-10.384338585192417,-13.441436477272452
106,-9.81073292149049,-4.219491563946541,0.10849122352718471,-7.115774335584268,-3.4495756566359397,-6.686477820187763,-8.959798730764357,-8.419707166517364,-1.2129065760681228,-1.3178262693118483,-4.994089797432665,-10.574695827188016,-5.057367678210939,-8.905998948940653
107,-3.5502321660261935,0.0483868193849626,0.3050897171656638,-3.2482291243435832,-1.862406886755818,-7.255773402083633,-6.379166003949972,-3.3374782423067866,1.7895622375157485,4.836006049014576,3.291531542376563,-2.580800762883194,1.141440337495651,-2.420043510364094
108,3.167315178161729,3.9354146726305053,0.45878633017396303,1.1968604125237305,0.05440485814091741,-6.046141967194718,-2.251751775887844,2.5140886985806135,4.167252242250006,9.33301361597485,10.271677749402473,5.803149222162693,6.563050994194794,4.281949412370366
109,8.664830068659864,6.484278669295263,0.5141551329239578,5.140076567351282,1.8242578689073845,-3.3032410156746006,2.3795220000041923,7.7316145025049945,5.457804701693117,11.149218996066864,14.19930013972559,12.46125073482905,9.903339746544809,9.517333965872583
110,11.693835571882625,7.17546141149907,0.43995401932250305,7.681890734990435,3.045217515615667,0.3255846966330965,6.36763563565177,11.098565275995336,5.512743272282869,10.067548432582782,14.262761262281737,15.813104672561286,10.517184933529087,12.088135702553473
111,11.71624981970421,6.027425460871508,0.24345767856797257,8.308340939037905,3.477833884984475,3.934382933096825,8.748367942141876,11.864565799416908,4.471075763294461,6.651893985392221,10.740352164398315,15.195938663357591,8.523403975148689,11.556398605209077
112,8.97902087820314,3.538271745802994,-0.028440282676296426,6.989804184628649,3.0850133975107252,6.583694839464526,8.973733975625114,9.903702290535561,2.667118816261531,2.0057428254048317,4.838183683201272,10.982309140387143,4.692591299047253,8.298846375485905
113,4.380780648100526,0.4999961198265671,-0.30230658384146514,4.156348299732538,2.020828756756408,7.553338941131348,7.036878719460849,5.723237088095923,0.5178711288485014,-2.588703902518695,-1.7175273688001056,4.418765097082418,0.17237240698660208,3.3429413154591323
114,-0.8143325082873478,-2.2490844937255714,-0.501020479154706,0.5645067492332629,0.5775684332662534,6.5526483985264505,3.4611170168755887,0.3284304080246353,-1.5712769132104298,-6.031747836334049,-7.196519328728205,-2.7517702149480883,-3.855476654990648,-1.9535823703705852
115,-5.325429558268621,-4.056436169168482,-0.5683823217326288,-2.904536384111817,-0.8918718308445288,3.822083880801386,-0.8411281634376776,-5.0207825884344155,-3.2637806710547017,-7.665087397366565,-10.331689361771923,-8.767176354178552,-6.483642432072576,-6.279835011908569
116,-8.169451192746855,-4.607199068285397,-0.4869090361427946,-5.461900204447406,-2.056696590864383,0.08654619492978535,-4.802668447286548,-9.104376808082819,-4.315537941709164,-7.371348277324852,-10.609014582430374,-12.2889688436901,-7.273879547584887,-8.69921558624871
117,-8.865425701186487,-3.9618596791836307,-0.282832860979718,-6.590038496300714,-2.6784395059176958,-3.636382839031109,-7.47006921557621,-11.021829685958394,-4.58183359469136,-5.513162758333124,-8.316362432942647,-12.698031316819268,-6.300605366601766,-8.844933900144296
118,-7.4907326871449325,-2.4834285273373045,-0.016952447073681494,-6.143818378883621,-2.6559050754979188,-6.323478933493749,-8.238945732987588,-10.394231131978232,-4.024646305349492,-2.7576214242252264,-4.364765393327373,-10.180378961120962,-4.053988540016378,-6.946144404156431
119,-4.594841436676498,-0.6902363524048915,0.23511696405724244,-4.355279203217632,-2.03803133302358,-7.244142455198226,-6.99678831971108,-7.443091001181221,-2.726105974424491,0.1435529464084183,0.039068009443244234,-5.60197007381251,-1.2506144220124027,-3.6977036728165973
120,-1.0112360800208275,0.9119814450915035,0.40634615129107826,-1.748274156456901,-1.0041375945112456,-6.177170072388206,-4.137409699225531,-2.9272047773482344,-0.8991984975314367,2.549340731097457,3.7561008897810106,-0.2271262953278529,1.3821676613938978,-0.0275825478698104
121,2.3726006090870175,1.9661758398873643,0.45759041808261713,1.0094189973094316,0.18303928221847152,-3.4753946231218813,-0.4443876589086938,2.04829656135259,1.1222255632352498,4.053605519683244,6.005380060921399,4.630209289517855,3.2859525742722373,3.1631851625412013
122,4.826368157386413,2.3330301974201424,0.3869056238493722,3.2757795656126225,1.2409856270420252,0.04526544322254239,3.1243076489246686,6.3053185613221965,2.9295347179211757,4.522742730549348,6.509366279256593,7.926392451606345,4.173858662952799,5.215995355721578
123,5.922665585393796,2.083789084863302,0.22671760800986618,4.583161921003008,1.9336203365665208,3.3587525280979547,5.691509820414921,8.881356759988801,4.122917923320773,4.059812386467486,5.47579730456656,9.10275499875044,4.044020877254329,5.836268702055406
124,5.593384080806932,1.433006523566541,0.030814144988817696,4.731759063470781,2.124931025104798,5.542937242787465,6.686058922342893,9.260236640085246,4.414795957971544,2.9251976543041898,3.4494651945047936,8.155729398325988,3.119307658124475,5.104988782262641
125,4.097146385890833,0.6437192759953086,-0.14375967013983315,3.8104167545779792,1.8072167241538266,6.05339394250746,5.977076248746557,7.485447402492681,3.7204422586581907,1.4468116937093527,1.1008614291231216,5.565225826669838,1.7459620418176334,3.3963917161701547
126,1.9179904965921784,-0.05936167860642931,-0.2536931053635524,2.1467366761096027,1.096876149645202,4.86951543555039,3.8828808966745987,4.126806769071035,2.20061112962861,-0.055415605034182525,-0.9742819661508082,2.1190079451761723,0.2878009957010067,1.2400772539322265
127,-0.37256195164177786,-0.5425670207063733,-0.28011996028389474,0.20537559304441333,0.19884347994470059,2.4696637999927704,1.0566148529850772,0.11084753372382176,0.2335071154142048,-1.3195326468319837,-2.388371275551019,-1.309630725296898,-0.95554346080253,-0.8272137363111761
