,AF3,F7,F3,FC5,T7,P7,O1,O2,P8,T8,FC6,F4,F8,AF4
0,-0.04897280925195377,-0.0055091694286223125,-0.06687802791382166,-0.0004514759994990597,0.020457512818494658,0.04507401081749492,-0.014265784400758834,0.05618418708729618,0.10162862811052106,0.017667724054030165,0.01876986662458515,0.006558563125883418,-0.0005246851829306398,0.006021632019438755
1,-2.637230942440434,-2.194013615228385,-1.7212137818118447,-0.31216552288481947,-5.269213172874893,-7.1952246671667135,2.478583217008144,-2.689835071037955,1.4333139291933128,-1.2382735088076395,-0.7548361059874665,-0.13596811272980333,-1.9447367207925252,-2.1228225781799726
2,-1.3187193146512228,-1.449297407377849,-1.9139006762635848,0.13645493948072746,-3.8035922037582095,-6.1592412019678315,2.5234391356451127,-3.1287280839328795,2.1490819299418344,-0.8188973083007853,-0.7504577389311872,0.29591307070078665,-0.5734821916226079,-1.774670441907526
3,1.7171009331640041,1.0551741977965283,-1.096866484494444,1.0030374890746339,1.2593664333405412,0.528016633634188,-0.6136979046318116,-2.340027836439406,0.9119770325859923,0.11613201032220098,-1.1320481066543338,-0.32597201495882383,1.395765109965173,-0.1447075904374179
4,1.2478441966085947,1.4871488280557572,-0.7261262105205943,0.8521174281119193,2.42466549148177,4.129463200793594,-4.336811288916495,-2.1056121308277613,-2.2876912897048634,-0.8316379767393498,-2.656956559394694,-2.981541613337924,-0.5770409626231195,-0.3830575775351588
5,-2.9551306045645043,-1.3406334806683682,-1.0308728556080307,-1.057733083281298,-0.5270547176093523,2.102296443042346,-4.271998918271383,-1.3336649565913796,-4.548594272578402,-3.158664567985948,-3.090910301031158,-4.806098140164873,-4.781862008548542,-2.6681544458077258
6,-4.903831625089059,-3.8790629939061843,-0.7347814859204918,-3.0571714555415483,-1.4265232477356902,-0.3909998774982813,0.5371702678341348,1.5230830406106644,-2.9888107210071615,-3.1847688309631264,-0.10870670838203475,-2.2253262246501615,-4.5708337530253464,-3.249484896910911
7,-0.41314162896212325,-2.0353441122173734,1.0806631446564112,-2.3445014097960875,1.5468604376408237,0.24301467328744222,5.3223388493807136,4.571236993164505,1.4060435249585537,1.0906965262025794,4.247015209700658,3.447703815815072,2.022159240577104,0.6105151717888831
8,6.467115020548163,3.384773302720929,3.4859827170953217,1.4169056275911924,3.2924110018782526,1.4399781796015085,4.817216163151889,4.535289919746646,4.793991446570898,6.412022978675755,5.370645745964433,6.906653261099669,8.455412664291597,6.213250602542662
9,7.804528927954955,6.875528542840338,4.206550277539381,4.817775715823676,0.6128422739754125,0.07022487243057537,-0.12087886745254668,1.501361730429752,4.804983393709913,7.2396974752656496,2.2281700043240544,5.373304678234224,7.493411244542015,7.766670444652066
10,1.5660462912816118,4.227028417642551,1.7574553297737192,4.142252034084462,-2.765365035040532,-2.3027792908958227,-3.687747427833315,-1.4388384590313805,2.263279251576179,1.9967832960388294,-1.4253327836878271,1.194838711346767,0.03805261160445322,2.9851250280414487
11,-5.899936270228375,-2.5596316496166,-2.5753679334763886,-0.27222753450228016,-2.439872569038692,-2.2684109323274906,-2.6077131381453387,-2.462827457255887,-0.8018118695753597,-4.911032875783876,-2.402339786119392,-2.37260289757234,-6.397163306178002,-4.22446065277432
12,-7.535412113209764,-7.18266229635193,-5.355932913163427,-4.232708925192483,0.16371583442481924,0.1418506290828934,0.31760385995966944,-2.424814938266341,-3.2159346599993976,-7.706986417532608,-1.8425467765702146,-4.745157856382,-6.678065561805287,-8.130388181432282
13,-3.1063280995369817,-5.597885790912676,-4.31456936893549,-4.360059854308756,0.9425343766300563,1.746138254077393,0.8618017263403306,-2.556495262991653,-4.751993262489598,-5.073639576042643,-2.3757363307231736,-6.13328078152921,-2.771895878164713,-6.74398516521478
14,2.200563679115691,0.17581539385396824,-0.5349944081959112,-1.437711342834149,-0.28167164636629044,0.7640019844657417,-0.8413286582764241,-2.666324941219341,-5.085311966890214,-0.42297713505754303,-3.476169316261983,-4.986306404051474,0.5910251667350314,-2.041711718082502
15,4.390355747508225,4.769546173186884,3.1171521394270587,1.4049417400270998,-0.26497553299824905,-1.0777956957812167,-1.2241057432411435,-1.4394055997668682,-3.0595795120369873,2.998791802690654,-1.8272127868364019,0.022526085169743366,2.0835363478125366,3.4550875520179227
16,3.525942586529178,4.862095871683294,4.572574145672886,2.483186941999754,1.6869156421601958,-1.1015685581208923,1.054575913143544,2.0362010820807694,2.1855053081683584,4.935835306941565,3.4501620178532773,6.422938374371014,3.3960372122090696,7.647560871451673
17,1.3063323744445368,1.3987081055921016,3.117601005749118,2.2155320676818078,2.2299758329658346,0.9482839770132148,3.048025140599406,6.223024510640846,8.420426275654338,5.491374089645672,7.694094912909639,8.880048643013751,4.383265769171902,7.5720724114229645
18,-1.1985897211056789,-2.3086027624632646,-0.5644158135375843,1.183122321252152,-0.5543119871134552,2.7382463782587325,1.8546018537326039,7.0272288766443625,10.105070712196179,3.0443677881834375,5.300684615909916,4.589215290885205,2.420226015086459,1.5188385661395036
19,-2.9696362255876956,-3.3950149122581306,-3.7655080432514025,-0.35005282660612735,-3.3285708656103905,2.1269582340886792,-1.166449542987599,1.9861635557333015,3.834935354689756,-2.3553054108376656,-2.4056701520550887,-3.0994014107295578,-2.551883773511867,-6.440658047849746
20,-2.5813512054538066,-1.1773673863293372,-3.3567054672852685,-1.4046288774075435,-1.8668862691904926,-0.5529850078262032,-2.481612947032958,-5.443878642097833,-6.219303244556775,-6.23378559707908,-7.250726453411214,-7.448720646837527,-5.759335945329858,-8.381932957240704
21,0.01555999085832998,2.1375584569930774,0.28162523959561647,-1.0191952732537342,2.2885886415756875,-3.1218539536467236,-1.448511482335146,-8.598598901796576,-11.518259562588092,-4.676420371417439,-4.3254171917777295,-5.065625090906503,-3.2398401648285198,-2.0379859791162067
22,2.292774390655129,2.7394512406364475,2.8108809883179684,-0.1540789956897321,3.2749189811076693,-3.8504392540401873,-0.5698325966231879,-5.1172860745321005,-8.313993858303926,-0.40095539325083374,1.313284655850766,0.587444990386236,2.0707146306672106,4.936630077936794
23,1.6099132699491678,-0.7558037327789089,1.2771150480151543,-0.6796608233185829,-0.636900044453886,-2.4678405291235106,-0.7614729041345807,0.9832164337025209,-0.6302218933239597,1.1822255870884384,2.0504259727015928,3.228333076634551,3.60082126998123,4.286700823307351
24,-1.147847602272818,-4.442062078731726,-1.8084581923802872,-1.9886625863870855,-3.966027409534098,0.6030669971372997,0.3251733439784446,4.9988585950911135,5.9444310756737195,0.647098006484174,-1.0341379216486082,1.11519077329839,0.16787353975716465,-1.7366545054539677
25,-2.189586299195907,-2.8762255183533583,-1.9433104767416538,-1.0660222905584689,-1.6975482862778126,4.358759852660728,3.499863283007213,5.785734728193679,9.08690418697259,2.7495431451317893,-0.5649541305244306,-1.280360849965065,-2.4260510145646137,-3.83420325120386
26,0.25306969207707836,3.373733394034304,1.1544208140556207,2.7207033384432284,3.19084325517286,6.171415033529088,4.6572250752096735,3.682730404006974,7.580087981324206,6.24536168619585,4.3913464685595365,0.28469810255828454,-0.07468963653542632,0.8958862831034649
27,3.298820746200358,6.993585684583169,3.473573157977361,5.260505176906348,3.8317648269702635,3.063371320082959,0.13050378192583934,-1.1815860351562435,0.32794100283694383,3.871609387760547,5.8524055964516615,3.8256710294937935,3.5915246607587514,5.316643093651955
28,3.0609789884451297,3.0384474098880605,2.2947775368038954,2.6464371607202697,-0.5168222065084264,-3.7861249413780453,-6.123206795601351,-6.059240000030535,-8.84078237620469,-4.963544155725472,-0.36548852478285804,3.9459242359371074,2.909117699577628,3.2806200726225416
29,-0.41374387595044987,-4.05889254874174,-0.9064422198819061,-2.937263054432486,-3.426927636954861,-7.814570400585261,-5.972228435866092,-5.455916591899496,-10.681332430577621,-9.838540831253,-6.870403249175384,-0.5445392211084077,-1.4045025228525385,-1.9967232995576574
30,-3.645965626069675,-6.2525372938803585,-3.35508646349885,-5.425682467622927,-0.8973206547033595,-4.021325636912596,1.4548542922390666,1.7628480624215972,-1.0174793405300488,-3.322214893557404,-5.1224296219331045,-5.041862686868392,-3.8994248222937373,-4.172016339357042
31,-4.256922467057497,-2.5904660831535,-4.1117352423512346,-2.7440026668517103,2.6810162758762055,3.671034912061187,7.018691710216003,7.916100615018991,10.818376886582985,6.902702567390264,1.6955484782965193,-5.412748718148979,-2.6562194968314463,-3.1371952151726563
32,-2.7927133957369783,0.7462032634795502,-3.273555137177079,0.8284083127740186,1.1784941454821254,6.296409983099616,3.313410823154035,4.636595529486431,10.776556405747588,7.472548561032625,3.5592233183429403,-2.6541211856743723,-0.9780278857876902,-2.657530260417395
33,-0.265494367199719,0.5331268596399358,-0.3434611120327855,1.2065843674720618,-3.7611832429827987,1.4189722934469786,-4.804831408053196,-5.253144283048447,-2.2611874042099447,-2.1257096929670545,-1.1771832461980947,0.2352642746413429,-0.814567475008539,-2.1477349469279035
34,3.400327947780703,0.7590729927023226,4.488919059140145,0.21009017929091417,-4.568960242876349,-3.8253586079451036,-6.267639308761655,-9.797609499911196,-13.559222099823264,-8.524926142460238,-3.560098970445347,3.02699945938732,0.5841848260497718,2.191586344868175
35,7.135156988205524,4.601210082089928,8.284208814259891,1.8352981599298912,1.3348078034391682,-2.9571286241401635,1.2111573751906217,-3.274581870266723,-10.166355052456925,-2.6966769431068296,1.9114875098301056,6.501695179419102,5.055053428059572,8.646022401628583
36,7.197718587543952,7.3359754065312135,6.8388821875750905,4.835779267085545,7.216752984024623,1.279339347078266,7.778866647758119,6.103711876048409,3.116523742671975,7.754857107987099,8.188670985353367,7.740639625162422,8.080681515818803,9.38344586198459
37,0.9733959748058512,2.470961362822302,-0.6468582428101104,3.6474814355877068,5.662069032133059,2.237124906755902,4.591898345984083,7.510500263336918,10.78641413948828,8.885826521784884,5.291828322974286,2.4370375381351663,3.453172287876291,0.9894901225853742
38,-7.921902364414686,-7.272458795212347,-9.07332340421177,-2.73135378093132,-1.800008531828103,-0.3618705818348072,-4.379524110826147,1.7250128742446125,7.0351480844611105,-0.916473995419856,-4.9822241369978,-7.199268101463569,-6.992169408278531,-9.383202541591437
39,-11.509816277350476,-11.341820861174721,-11.233162424629597,-7.590480040168639,-6.966619946554169,-1.0223461866928831,-7.865337845999331,-1.936968005945327,0.9956204200950417,-9.125425459145637,-10.474055429435156,-12.048399956399537,-12.8223757078984,-12.01522787168935
40,-6.0071370971756854,-4.767944877356247,-4.9830463704165995,-5.190595374551394,-5.193757536991723,1.806105704345398,-2.1964916780678783,-0.09002767614498824,0.5478605199290664,-6.096609179598146,-4.7244679187664484,-6.685480897983066,-6.816285798100465,-5.629652480208852
41,3.4088588820499557,5.044589023653328,4.187226560937463,1.1657221249629517,0.16313586423277382,2.852414615924771,4.7416311997179585,1.020093764642848,0.6231457416799634,2.7189239882234633,4.575869798620976,3.3593440789102864,5.339063994026225,3.116048600747173
42,8.31077734219575,7.882670689070001,8.754498514335431,4.064203428257932,3.345282097036658,-1.2626903386463353,4.785837969465706,-3.0861827683608842,-5.7737789863652225,5.548876991734049,6.371619270033262,8.453590397367345,11.077299054868291,8.299291854241345
43,6.281762769207176,3.19711846608012,6.652622283301124,2.352422193355515,2.9146857029858904,-5.730135847448434,-0.40865662407031733,-7.269985867173129,-12.726203769546036,0.5888931779877736,0.8119144713432817,6.106852596238835,5.904075793172224,8.537911669144796
44,2.213536635922854,-1.07357526421455,2.0162487643448483,1.21297449195114,1.4920215377094315,-4.087523094937531,-3.2953264686146873,-4.324938211887851,-8.487926538356984,-3.1151534619739,-2.5544356557218655,1.6844458586341695,-2.045415352589742,4.493920386518727
45,0.7516731290429641,-0.023527348619808375,-0.8067539132730099,2.8302304663096036,0.9648850405986351,2.2845377940539056,-0.9932257150035696,4.026909719634141,5.581115582204439,0.062119310806386385,0.7802740420752762,-0.12943309859241492,-3.5815172598323017,-1.8792111107486278
46,0.3551120489688754,2.481401894917896,-1.9103201096129698,2.907694906854815,0.4275287516082677,6.07961127243375,2.1973991273809923,8.863001415847977,14.561283884817923,4.364632151211833,4.325991553035792,-0.5261953184400868,-0.19559326967448795,-6.434156181705801
47,-3.155581363553405,0.2459663913823611,-3.7659887987562626,-1.8219809268913427,-1.3438719610327658,3.9084400455924375,1.818782151921326,5.42707786933277,9.705075236380987,2.0236748206538966,0.9458480399498751,-2.9247388961333014,-0.07381850800949685,-6.18806275411554
48,-8.694429376496577,-6.032808753566615,-6.136717778439869,-7.249435933064466,-3.3557523654219805,-0.4991044546522883,-1.11029632139472,-1.6761856129679198,-1.011258876139744,-4.5270491218424675,-6.09433728151349,-6.687330867625607,-4.7586731642355184,-3.066009317806642
49,-9.34357226674901,-8.698982118744276,-5.462133403932739,-6.690549475418861,-3.3335061948498956,-2.6500858875660613,-2.5659029631834476,-5.105855748999488,-5.656981369856263,-5.891342349240756,-7.314175262848788,-6.710874927907822,-6.359506171752914,-0.42999767307556747
50,-1.292451018021345,-2.7322153755458713,0.07871198486638445,0.0552169050525912,-0.5681352196152712,-2.5085815714358977,-1.114162244069079,-3.184005092693542,-3.621014810228449,0.3147824404271953,-0.3084370279427352,-0.0702816739198226,0.20148454665090798,1.9975781999252131
51,9.523455998512548,6.873856819737586,6.917847782830096,6.255236275489519,2.969164729842721,-2.2246820231771256,1.0368126585665682,0.025033359315247167,-2.205525806179498,5.7859554900787495,6.813505907972752,8.454669729018654,8.392404073621002,5.269320662727998
52,13.110145716465851,10.29401297589172,9.356090116072934,6.594097096828281,4.442470709586112,-1.8929477871503495,1.6677438133790194,0.9248173286374102,-3.6039325273810516,3.78345191987414,6.399156104258829,10.42225077343259,8.578478705467122,6.351693913079398
53,6.644641233774809,4.702418594189972,5.430712179198271,2.517065629167827,2.765322287625649,0.04331830336679423,1.059623382608218,0.14278314996328945,-3.1354759009449227,-1.6022107713819982,0.6533490443572894,3.6225670964877965,1.154783902721867,2.0619033180105975
54,-3.254046235329837,-3.0553762531769695,-1.9158379235747314,-1.5589324946010392,-0.6874410057022304,3.3151257868968944,0.4764061093910598,0.16335682415826652,1.3026608314638346,-2.9831156404327137,-3.136183559849808,-5.12186685566895,-5.146837736004253,-4.2345185084208685
55,-8.842514264816863,-5.972262312087532,-7.951081050225344,-3.7850218019835857,-3.4745410098511855,5.003951639620632,-0.068863022394772,1.1918757662569945,5.336902235729811,-0.7447196146187172,-2.778724340095936,-8.170883933539846,-5.551195811612051,-5.973085490186124
56,-8.238262973095393,-4.287685234578756,-8.797768925799192,-4.351394854837157,-3.7901035660148654,2.7872099635164407,-1.1542425455315686,0.9904703098967461,4.7799101795650785,-0.12571578161721123,-1.747823891411659,-5.012013558331765,-3.0519413859883833,-2.5388616661407983
57,-4.050839562716492,-1.7545762275626113,-3.4037753423284935,-2.6039877939683898,-1.50507884292195,-1.9644981996957713,-2.0872709367496105,-1.2819510682136466,1.0273166992826963,-1.4304828619798622,-1.8734481861897705,-0.3420573249261014,-1.0800129505949576,0.5272420368430536
58,0.9198039493273866,0.3806880765887437,4.355489799427071,1.4739421452770165,1.5495072890459298,-5.2394509143083114,-1.4699599804624037,-2.8827857213212194,-1.977275496481833,-0.6623687256113259,-1.0410579131826279,2.5511868736712104,0.764775413180704,0.38487598600224826
59,4.755290824768525,2.338225658116948,7.644636456079649,4.595606136777697,2.8634388579543133,-4.440713246814375,0.576883988830131,-0.8247423305487368,-2.540706208745389,2.2836179528531613,1.8826766172827067,3.6411334477305695,3.0344441913130935,0.3619107863583222
60,5.887199743698274,2.873154368849645,3.906919489309223,3.1970527157106536,1.7693276713718409,-0.770196800316396,2.232114941231872,3.4032027721311646,-1.375150502378595,3.28603555351608,4.408431544734442,3.5371690949049017,4.103215413199565,3.056087848083852
61,4.103183322612611,1.4216454560510736,-1.5731399517100384,-1.1623937280061418,0.1290118392505026,2.535440249271913,2.1686073829704773,4.928728134254381,0.2133559036545365,1.1562398134811642,3.834002084383264,2.2107224108707477,2.984609233239155,5.091573303926645
62,1.189386423494917,0.2778837604896046,-2.4679215770967406,-3.1547575979644407,-0.33522781776090016,3.566848674473171,0.8329393808685097,1.6206036500405825,0.7817138497241495,-1.0532173396528859,0.4191437190502022,-0.10626491285259955,0.6233914815046295,2.237173014337264
63,-1.1767195229090428,0.905098907710748,0.16074814449313574,-0.848750243212768,-0.33366719145450874,2.7221521272209266,-0.6075369510691104,-3.256005406583403,-0.4167953182264832,-1.7613047016465497,-3.5301338190105467,-2.5851819675879493,-2.323521201761678,-3.590246893300231
64,-3.29404033885829,0.7215924706067478,0.33635406334416895,1.8636795419135714,-1.2132990339060874,1.1151367403718127,-1.5199193574440375,-5.267022974918471,-1.787418051061036,-2.3088936599960896,-5.471293785867462,-4.091757799371879,-5.349742102950493,-6.468137920241839
65,-5.434826248266029,-2.5121626498737912,-3.091786509523491,1.1135948422321438,-2.0275632891620208,-0.6277206802459042,-1.6962381158101254,-3.477771052639132,-0.6586878201938069,-2.50855861694731,-3.5206263521014702,-3.301231678121673,-5.643807432146013,-3.9266781309640413
66,-5.317167894587006,-5.529889086794681,-4.4808975185294555,-1.6639813522225912,-0.7987487831472013,-2.066218693842825,-1.0852913195071021,-0.04184241811469926,2.446437909537604,-0.28213647120345836,1.6368950335053967,0.03655121058315447,-0.5638124176452515,1.0510379654256248
67,-0.7511240018179902,-3.4504458718589595,-0.2818697859461963,-2.3321067066401233,1.702352672998358,-2.679188963110744,-0.18383065027808526,2.6863328601113086,3.256697827413106,3.274509891168808,5.541690347947047,3.4009211992420836,6.36945914136404,4.312558966232072
68,5.525173710615823,2.515607216453257,5.063398774254491,0.05202866546728365,2.33564232707984,-2.2018877840424227,0.3343273424184336,3.5173335856964574,-0.19798099200753938,3.7808051867987116,3.9559617927653505,3.413372625981147,7.36439928543922,4.072160805519291
69,7.488518192781914,6.045476833131423,5.3093768208917655,2.4706697756445655,0.3203251500819146,-0.7261896521468232,0.8303743926816531,2.586461792187232,-3.520828778992972,0.3438458070671261,-1.231582413078101,0.5315009387945905,0.8180501126394962,1.1805453236478598
70,3.3740639368523317,4.178745765974935,0.9967539667543129,2.3461053267806595,-1.299002617709869,1.3181979381337052,2.118435847158075,1.1239630872386028,-1.7171868801569719,-2.3248792005130694,-3.594883029017241,-1.0264638698265172,-5.247463217083771,-1.7253046534883891
71,-1.8931434159023102,0.33199390820826385,-2.3188569985333665,0.339066021638931,-0.3419887200216763,2.9320165011972916,3.131116551320593,0.10305952479638268,2.9100380267312156,-0.9066496015446011,-0.761616987379137,0.37824066112324434,-3.8732941684212685,-2.075003975895529
72,-3.5376769747815944,-1.7714895299141142,-2.3603861347720816,-1.4675099210899838,1.0191469319420627,2.913829048547407,1.2792843754918743,-1.0117993423631004,3.6021678342845926,1.5674758599700682,2.380172013988819,1.0527770217708023,1.3573444875930907,-0.19641116820277377
73,-2.743159203284977,-2.738600598255496,-1.9228961154116326,-2.1799650558055017,-0.13700557803237332,1.0115177301503187,-3.424508237817977,-3.0715397310339143,-0.9839864203284245,0.5722524094315588,0.9207571792782399,-1.8029694566647672,2.309014190634123,0.6265146429172216
74,-2.8069707052146513,-4.030254596956904,-2.7145726076008363,-1.9301735448306283,-2.382134749013383,-1.5840332707181426,-6.537131832048143,-4.927711294390128,-5.084919234035453,-3.172272494780651,-3.1780639942902007,-4.673796374500893,-1.7361662009689387,-1.401106965512968
75,-2.730805204120968,-3.702599828153919,-2.0877954328532033,-0.5758614586683526,-1.7761706732124605,-3.043286863190745,-3.749557387731591,-3.750880132401814,-4.054923258601205,-4.677424963539439,-4.132569037746926,-2.528057359566259,-3.837086896732729,-3.3250261615843257
76,0.6579937648687901,0.5238276912423954,2.1302831044527353,1.805903082065602,1.8385949129445274,-2.1573342289560573,3.4026036048218393,1.5359944372376797,0.6800258166935181,-0.9527370307873969,-0.03779644145477599,3.2442911743344505,0.011315273379328458,-1.0480410277069
77,5.611192996217423,5.811264843607031,6.558100966674669,3.602469356268773,3.9454123727826125,0.5287234271362339,8.237524548077273,7.518881248175754,5.070950844092748,5.3469824968797885,5.01877852660784,6.068226732058403,5.309542728646141,4.2932441266630885
78,6.045435434115933,6.277968360006017,5.409792319025895,2.6059839800235185,1.5729792704448788,2.4834666036580977,5.6449207671687205,8.223013274885565,6.1614551632791,7.99104681823855,5.7337564460290205,2.7715391271559695,5.352071373054124,6.481826019384941
79,0.32190315760714894,0.8396852535610598,-1.563999398864173,-1.046764559282411,-2.5425638395233485,1.3469591991268257,-2.4106534186446553,1.3494068091875506,2.461409090829575,3.1419855107184733,1.123840760469055,-2.6772371418044636,-0.21618303108952486,1.9010010145514031
80,-5.246847395043248,-4.685983800898562,-7.3348275083130625,-4.033825121322673,-3.695356798110493,-1.7506560805471798,-8.302760594959318,-7.489328857625465,-4.39001240585534,-5.5594176606512145,-4.478410699917524,-4.580245249634017,-5.431881573295228,-5.137743193565519
81,-4.429281031944768,-4.752289048799225,-5.617555971564847,-3.273719202711524,-1.0732031730340215,-2.604242021606454,-6.17337804751271,-9.300417753315442,-8.241014358212668,-9.216754027120482,-5.7596224006078405,-2.0679285813172563,-5.276347395477707,-7.043445518153307
82,0.5901522859152246,-0.6201417890408061,1.1736530590966316,0.23768438292442703,2.0084335419374173,0.6475514540871472,1.6522434593009263,-1.9961948347827734,-4.032899486760237,-3.4983198739991344,-1.9635787372468025,1.1288603122992353,-0.7333744209963473,-1.9965904098773832
83,2.643422312360681,2.2477143038215606,4.997234784562272,2.549472168982819,2.504393645769647,4.141815118208894,6.8044080842893875,6.251733080274398,4.429298309415204,5.111405838948302,2.528563614361953,1.98475319183034,3.3455118758764026,4.194008555027055
84,-0.16682440001376583,1.353503493716421,2.656496772479497,1.7522585585569057,0.5549182339752652,2.97186859296537,4.412403267157362,6.558670150590252,7.542813423332787,6.644708472154466,3.526330086813234,1.1921666436364582,3.697797727128393,5.310096476441694
85,-2.2208038638684378,-0.7957635523021425,-0.868244726691089,0.006137014528311369,-1.4337015114430542,-1.9167454172570455,-1.3683053029792556,0.1075156168932205,2.1550948999063007,0.45393498443230096,1.5034156484950731,0.7285757912302749,1.1753314098079015,1.3211045066259581
86,0.6073751393859572,-1.0197068069181534,-0.7749858401141523,-0.11315023427326867,-1.4376890226170085,-4.8718400053976,-3.487921451675115,-4.4167163614205665,-4.373608782806934,-4.388123871465752,-0.3821598611889788,0.4260774853437034,-1.2322420124874096,-2.97089043170958
87,4.23784795157858,0.723530713575307,0.6748570365098955,0.776470738136175,0.2841263308725004,-3.069519719416584,-1.2348117719693326,-2.692667361186377,-4.492475713513164,-2.022134788589123,-0.9018876383875644,-1.0791249270594725,-1.6700622805605736,-3.6275840022019277
88,2.5747449103483904,2.2768286009194787,-0.584831789931807,0.5655590828088927,1.570467430004578,0.8159697362902322,0.6395444236645925,1.1243665078309206,0.19945009118076412,2.915424543392271,-0.975658169711285,-2.7754491952222686,-0.5735897464592701,-0.6160759156013321
89,-2.7360732306624116,2.075523624149006,-2.594940731381009,-0.7697302266659314,0.9162233120289475,3.3819934522365918,0.143822204950126,2.226346729817319,3.205420207000682,3.4629012419459166,-0.6462522549109415,-1.7112799428417227,0.5564124573378769,3.020835029080011
90,-4.619760788665138,0.03248377053109357,-0.9757039445973296,-1.6352544495650183,-0.7384833977328286,3.765869919786906,-0.23048582159674508,1.1906341503915523,2.2748728138401213,-0.17705828192910472,0.6850653351841631,2.008059287713067,0.6549682851656767,3.570690318036617
91,-1.4088192641655384,-2.8341047930605128,2.4053088812541366,-1.6702186003074573,-1.5628036080221273,1.8136031413530256,0.37855852400214635,0.20014798502513,-0.06712563363307866,-3.372986596765538,1.4701270148999186,3.8230021732087454,-0.3962268381303973,-0.1515378349344304
92,1.4259995171291513,-4.412289854839449,1.9353497687623837,-1.4925746070944983,-1.3085549366568654,-2.2744655234367044,-0.3007207393626581,-1.1630030606863482,-1.8612701592762395,-4.01247569179102,-0.43502766075099375,0.9082071233161927,-1.677202556779384,-4.580465531657867
93,0.8875271667645364,-2.537363023410432,-1.6344790418416737,-0.45479546577847174,-0.7333378125292802,-5.326152688215225,-1.862857269927728,-2.865621193337463,-2.7158048677152715,-2.1353115949433596,-3.0951293155840873,-2.9424799081104145,-1.5060416928115434,-4.272177185562848
94,0.6321775314577961,2.2347599609789546,-1.803816640029615,2.311533532585642,0.43397402665492274,-3.1258122503441292,-0.31709520840556205,-1.9869791303567796,-1.5272508418766508,2.3665806733422357,-1.9797576423457819,-2.411972323747681,0.9192960432671657,1.2708930103066909
95,3.0755972722199143,5.81168824334171,2.3433823171394152,4.886010621429787,2.58190097356584,3.0168213502521093,4.301790125546402,2.2513043575552456,1.9396528234966879,6.81082952285185,2.684803055708648,1.3682708125976921,3.6895501852135317,5.882269608863054
96,3.9731580352490945,4.471119229675991,3.796561909128453,3.8137352427616986,3.8216368546937955,6.10165842730724,5.459467311632714,4.921170129262644,4.3341573654505385,5.505014319037725,4.953888166009773,2.6769981073434517,3.491331257883855,4.21926854978409
97,-0.5491604603688641,-0.640579445603198,-0.8877207326349921,-1.0126644621618173,1.5259402636388824,2.346652590491792,-0.5065361236833593,1.832322820579902,2.178581506450316,-2.1706470950716317,1.6970034302277883,0.009008180106444656,-0.2836844490361181,-1.3207901948825838
98,-6.319795328658759,-4.554658598508675,-5.426769176900732,-5.361551230171055,-3.2334131905173553,-3.605832215129775,-7.442082205776123,-3.4301039177911345,-2.533132162775907,-8.141960731089748,-2.7549820282008404,-2.2918648914661173,-4.155831672155085,-4.373496692223984
99,-6.229027305966891,-4.174539754752685,-3.458767779494292,-5.534148605037221,-5.695157128609598,-5.054251144931532,-7.011875136220631,-4.23398406678003,-4.465230867593747,-5.731281189390423,-3.5142400185704292,-1.4717929513939718,-4.588044575957765,-3.2824340551653424
100,-0.5757979489949058,-1.378439056237769,1.7916324589976487,-2.22941319221825,-3.1953115874326383,-1.5217281701701537,0.013727649195764538,-0.5849270147044321,-2.2579725981227474,0.9682304160187938,-1.9888537254887422,-0.061504405573514775,-2.000269635164723,-1.6232281569572238
101,3.713276424949761,0.4016637239806189,3.2030284622856295,1.4373021139166144,1.4780512825125018,2.1811390944708995,5.489541971162208,1.6613675671393169,0.5818532891836652,3.802510613391839,-1.5977598712647625,-0.36168201606036365,0.9037168503657178,-0.8983813802769096
102,3.6052274328022222,1.1263334656197035,0.916923547681354,3.86288892669844,4.068679736683252,2.773845054942831,5.030396437475826,0.4178249858812932,1.9091575767133893,2.565780562538327,-0.7939653057662714,-0.08506195950016374,3.1322136335379422,1.7409884706670467
103,3.1453535553759466,3.1310040880097536,0.8451720771869206,5.11290682622041,3.743297542868237,1.4026179889668517,1.966795180695658,0.013179312583434417,3.2138032623132817,2.940986981942786,3.594784341590472,3.020450181689391,4.946372220797286,6.6502018298021515
104,4.493161661362689,5.473409486348822,3.599181816532568,4.372462276464757,2.0637837152132064,0.5750864426440085,0.36278884370019204,2.9263830521198826,4.678304436798393,4.902010378549703,8.24025801544883,5.5631066293343805,4.732026637477409,7.77687558312965
105,2.776748377319803,3.389240525582079,2.6863320516281157,0.2339918747738508,-0.288802309925878,0.4903557506742973,-0.637916263654439,4.558781447143791,2.847711609584858,1.9804969645182608,5.661700472354706,2.3225024038135644,0.4483040403964465,0.4426272158499522
106,-5.086326808157843,-4.119503672779933,-4.272546767473459,-5.609702453698716,-2.9289384300830457,-0.7182319663764389,-3.243681535366114,0.1374263497463162,-3.7024493880054874,-6.699557573102271,-4.3485938612616994,-5.238119453667548,-5.610288936581715,-9.687331743545254
107,-11.897230041121835,-9.845606840500498,-9.489560568745294,-7.816638611757708,-3.977570601476245,-3.3656268657236095,-5.477616795834728,-6.7232351041151945,-9.565494178250812,-11.715617676785051,-11.835613197400772,-9.100358528774983,-7.726127460462582,-11.55275337215308
108,-8.156769757930983,-6.387589942609216,-5.28495327380083,-3.3435128935423553,-2.117739396477352,-4.262579567518203,-3.3230277997270794,-7.693073606396457,-7.6694095258509245,-5.446143772940248,-8.519285988054545,-4.717907883176133,-3.855951531475738,-2.720543845235138
109,3.7533414420178888,3.257209736878025,4.2427806967695005,3.6220826532004318,0.7633901172711038,-0.510387266489312,2.527282204546347,-1.0767538947320354,1.363428789851447,6.266098527592482,1.6987750471418657,2.9806005347178512,1.734113071389478,7.215332238655872
110,11.345963655183075,8.759015007831406,8.46693272460407,6.129282623360669,1.8937877365453848,5.143448433505047,6.247829807198257,5.812389568282825,8.967757463125654,10.907152713707783,8.321596611775211,6.443966783105211,4.535542347107684,8.961170861982719
111,8.165715184267173,5.7674158355663385,4.732082012753845,3.1353525963505287,1.56612402984352,6.251463813805441,4.284810964145989,6.6150311055041255,8.775647755529503,5.43556363505017,7.43574304823617,5.100695421058472,4.858775900128454,3.9643161837933203
112,0.6769370513188954,0.15657175836176956,0.21981820007514988,-0.20764575759591605,1.860069842149684,1.0837255850687206,-0.2944710686131361,3.158932477853924,3.3396830618818556,-1.3597674970265263,3.7817241247668076,3.538925647851338,4.564503294713494,-0.5868948785837134
113,-2.8521597382632886,-2.0370944008547096,-0.3592491345825191,-0.7678787786206727,2.3134637986077657,-4.564410895022493,-2.7628028793623063,0.1673471309896883,-1.4873430010677233,-2.7006902931410925,0.9636616148929205,2.329017384008666,2.492902590191454,-2.2298351169714645
114,-3.0047814965232496,-2.3434833413860905,-0.9283007547592973,-0.9973491062887961,0.44247091190355586,-4.976503944908393,-2.7129130394916245,-2.1695943544324643,-4.615267327457255,-2.1347834352292425,-3.067923566249454,-2.4170619644193274,-2.8507856935233966,-3.439580661465088
115,-4.326405169764908,-4.103285848263289,-5.090743601182106,-2.8502792023452357,-3.2488041145186877,-1.3309705430097152,-2.253943600278828,-5.438993233144872,-7.4629342698415835,-4.4934232314425495,-8.549194482171657,-9.566171253984095,-8.138754120641881,-4.515384350334496
116,-5.718580516325157,-4.901949917492864,-8.028744511193873,-3.3915482275373643,-4.5363008794061805,1.6673031995975374,-1.3265607402438122,-6.697109664780503,-7.393537358124699,-5.997277006711956,-9.192931946482572,-10.616603716555954,-7.489192441506902,-2.767568815569581
117,-2.6289612764315584,-0.8235474328859941,-3.3293464131653567,-0.09847299092881927,-1.3758651772475212,2.4072467062583414,1.17405998810955,-1.8190167195230065,-0.8647912943600556,-0.7940912514415468,-0.9485888870408272,-1.2920360557699877,-0.33644164482111255,1.52999816063739
118,3.777762523407379,5.134835805412696,5.8741469360031635,3.585725700881205,2.547849463703803,2.1587799087405295,3.514657491393383,6.074510027641245,7.9750665696931,7.175957609335638,9.12057639163454,9.984462135138383,6.558390673700247,4.092842224068702
119,6.775032835443859,5.925146986461847,9.559149051069326,2.9068804417686946,2.7475138322128863,1.131988362358492,2.6927933102673505,8.47924345899388,9.838907878734707,8.037793772389591,10.14274792780228,11.407543590502486,6.761372567517466,2.768272040962913
120,3.7041248304183636,0.9644045220120498,4.1546540193493495,-0.665639514526462,0.16444624091673415,-1.1050094434651796,-0.6901547378065893,2.7435034524847906,2.78246162808011,0.6135445541921509,1.7996752796697149,2.7319079190052116,1.5896066052648632,0.3353358654528669
121,-0.43677097098695655,-2.755247184694297,-2.9726370499696078,-1.80629773874053,-0.742853030650565,-2.8403581294222766,-2.7915826449264176,-4.247182771482766,-4.67095739516679,-5.515533743725902,-5.596717903271311,-5.2943261330253755,-2.413434542635131,-0.3453531214883587
122,-0.8661647329571466,-1.044514709299586,-4.054295194619684,0.3947680450931705,1.1249979428955654,-1.8030239579303857,-1.7559010876164838,-5.373421336820994,-5.092228338681065,-3.749528874043015,-5.034405888800136,-5.277273000364148,-1.9623160965120379,-0.13819867520607304
123,0.3556613738001357,1.8340695083472036,-0.6961843995629526,1.7925420549800515,2.1643263017405205,0.9681907822027068,0.40551280408768803,-1.5310267081568036,-0.9112273713932251,1.3511829758233114,-0.23266897196141423,-0.7918650915757466,0.05957143389259302,-0.7353220866291564
124,-1.2077789039156126,0.3980375671525189,0.45725595677081377,0.11532183298708579,-0.22202360280195793,2.120563182870047,1.2843595228005311,1.7183983153060083,1.2422529472853996,2.358619470269205,1.8936427499171913,1.0962333918248275,-0.05239360248067711,-1.3897265687515423
125,-4.652897273231558,-3.7321805581344147,-1.9002319393539449,-2.2365198158754582,-3.645110488813753,0.7994750544191206,0.8250578611356726,1.8564708687746512,-0.060586394627509144,-0.6869039208606736,0.36702288773352065,-0.6077602453445865,-1.807331641402648,-0.9045042606139299
126,-4.838960997372797,-4.506773663185413,-2.9227337118643484,-2.3528900199759724,-3.843477691059819,-0.4625720425405234,0.1961436837011589,0.6479263170632457,-1.1999618546418565,-2.2734996025689753,-1.0074593433758805,-1.7189514438391778,-2.176882166438939,-0.16773025311448198
127,-0.2513141909940786,-0.23430259460362068,-0.14323189929582825,-0.25167690014981103,-0.17836239989881233,-0.059148504800413025,-0.11529628058174499,-0.1461230774692686,-0.19146810106106266,-0.21063390437386872,-0.308289674952543,-0.18204905649430997,-0.23726042405591008,-0.28211240736124016
