,AF3,F7,F3,FC5,T7,P7,O1,O2,P8,T8,FC6,F4,F8,AF4
0,0.01026051532468054,-0.05604672353781846,-0.020334531712073233,-0.049947261159902376,-0.02837309749048047,0.054770818737034724,0.13177590016448418,0.1837289212852143,0.13139484627823214,0.07449404813623767,0.0009579942960077845,0.026155714501719066,-0.0067021307346975395,-0.00865024055325335
1,-12.244523116071898,-2.604147864430053,-0.9329487472540258,-3.3194151757907644,-2.8725688568150027,-2.0628528548545977,1.7120584574472761,2.2942464515769205,5.187878103042808,1.6743178398353422,-4.44741154115963,-2.8559776232608907,-6.739791033960777,-3.485744228670553
2,-12.095822931532108,-6.974176663663368,-1.1229654418895318,-6.767559487866508,-4.668900117080114,-4.4396885332635465,-1.26651219699439,0.1625434367958538,2.5944676424474085,-1.1534694235307739,-7.936720749178595,-6.98339586361826,-9.497341107038784,-8.859790526248656
3,-2.5410023751793096,-8.108370117634738,-0.256951982342311,-6.489486012161457,-4.016293346752354,-4.063905315987963,-4.442696442034202,-3.5657491750742007,-4.12158042485934,-5.186533247582961,-6.765962323355518,-7.82434179404698,-6.391333420288685,-10.104456414545703
4,4.488592600864457,-1.5223617167671926,0.9007315941613707,0.08851048213894623,-0.41952697405053674,0.9540018964935632,-1.4342503933179933,-3.2121603111940003,-5.548930182196764,-4.011671562354979,0.46492401239114334,-1.1222696434453219,0.9128951839580901,-1.6398005858963467
5,4.622038349645771,7.090087207950751,0.9356433627111291,7.550466513587667,3.9890639945661244,6.333100332894263,5.008600651854913,1.6165548886723053,0.2229341229552493,2.223278881738417,7.975214720557695,8.310576774495491,7.657990534716523,10.043923287741366
6,3.0270160653430924,8.041576194560795,-0.28127764754557505,7.4680108655058115,5.276373873527866,5.721940402375732,6.263217957406166,5.436961740656386,5.525276537105892,6.468808122283227,8.22447032125231,10.479949349183343,8.874608427613284,12.317436848232735
7,3.017844240858373,1.3098808991732167,-0.9744230273049043,-0.2038752186958006,1.735519998445922,-0.7707060408301545,0.3422617857761003,4.017243074977141,4.14240769539547,4.1484446867930025,1.270769953942966,2.826804476019609,3.257211945940603,2.9021358674290885
8,1.6946439103273372,-3.7176726868930183,0.1133792457883455,-6.140772514375341,-3.1848960714048182,-6.167079304519744,-5.634980192831187,-1.0177604994206146,-1.1744064922868445,-1.448745184700599,-5.348505302485598,-6.2523354067097605,-4.850554953635615,-7.206533908698733
9,-2.4703916291914827,-1.7890448775849126,1.4842569571943331,-3.591310815527383,-3.9707647346437747,-5.102072435321686,-5.401892550981801,-4.873700859522475,-3.9711577081291067,-4.319076239979972,-5.614573099825895,-7.772004345848264,-8.172493596267387,-7.930510466261069
10,-5.0195436869134795,2.0802108120798137,0.76284890404026,3.0758896325716196,0.2324612971450971,0.3958141915162606,-0.5904170074496794,-4.667750548089538,-2.5758307905363282,-2.82364432432187,-0.7338147010228309,-2.137598841921953,-3.322495930158116,-1.035954965518366
11,-1.761053635831257,1.4703964840331496,-1.5068580745390259,4.789115737068621,4.057861527225316,4.345072499708947,3.1547304660780586,-1.342375885889932,-0.24300591826253204,0.22164058151402802,3.695691237157854,3.275815497506473,4.710802593258758,4.70500997090228
12,4.1859562961277295,-2.478563055847245,-2.155848620270682,-0.17885530918166087,2.55876425406662,3.584679822315262,3.089213098499273,2.027945015593924,0.7072334808823941,1.9425680639191722,3.572180435331758,3.6361262085268904,7.12005900785754,4.2397644932384715
13,5.264000027685087,-4.171542408073361,-0.04351545741220021,-4.854290807252188,-2.511945984607629,-0.006325610230059824,0.7266504936494936,3.131717849735159,1.2285110867679876,1.650905212521063,-0.4777134794538246,0.697032739701799,1.376503947434533,-0.464804404769619
14,-1.0973559086073608,-1.777193003960823,1.9584671155152733,-3.5788921092275445,-5.190129152534283,-2.475755155921436,-1.1394639779819482,2.170155641386132,2.323348858978952,0.1993411377041627,-4.020291278832201,-1.5019781345574004,-5.565122080933031,-4.493080299673957
15,-8.335293714602333,1.4803119536640894,1.1798409132807368,1.0903621519284583,-2.6773820872242458,-1.7841161989797136,-0.9466841386263126,1.0383754424958653,2.5943612865678425,-0.9191594909856444,-3.2048544266094665,-1.5687077712813347,-5.911231196754562,-4.450587422683649
16,-7.753322447896902,2.6205288636568094,-0.8077617597710929,3.130951125384371,2.111147176652589,0.5985663372340944,0.7641386976422129,0.7087871488715088,0.4532073856435717,-0.6202238821584671,0.9886017186147916,-0.545969376768875,-0.432329032884793,-0.479196599611167
17,0.9478846344744126,1.974073146880367,-0.8127333513759761,1.2493626952817667,4.621804379178615,1.4917257388341034,1.6804414378005714,0.005905916139969566,-2.866946805605648,0.33954147140695673,3.7247563048651164,0.6249393537661605,3.6825526993899222,3.9141245926310297
18,8.97943140808715,0.9662870938964603,0.8859746162324581,-0.8096555907737171,3.1648860860656045,-0.3344358474801225,-0.04855854860373103,-2.1935037350097835,-4.293569296816411,0.04448398956310835,2.113684617111646,1.4354811211657272,2.6470788586302967,4.752160270449116
19,9.132900529961386,-0.13884689563895058,1.1875797321556247,-0.35881014818703005,-0.3622650507932383,-2.3759278575576985,-2.949339785750113,-4.147331678084198,-2.3658344172774792,-1.339779141255506,-1.2359921394136235,1.1359427830269477,-0.07131587170800266,1.7627386150608098
20,3.4607446420356656,-1.1106442020321123,-0.7256485724195756,1.289575585483128,-2.622311541758928,-1.1878561819330165,-3.052154737483272,-2.6209059124854903,1.4571747750484192,-0.9103972499499062,-1.6956813287401682,-0.12589542848711988,0.20198009263718084,-1.1727819866854117
21,-1.9166632179657435,-0.8347005763194107,-2.1854191832570224,1.6902688554602285,-1.8660024695577802,2.749358847549958,0.8667565331470386,2.2160131364618523,4.292136122881201,2.257859210095887,1.1114974836711242,-0.6269744145688104,2.7032766661344594,-1.0775745832112642
22,-5.1863177722333695,0.566990338605787,-1.2374714122810926,0.26266587694055765,0.24742042776752968,4.475299494745929,4.4145547784442,5.362045032813974,3.797162184500155,3.957356235757162,2.565934586520591,0.30815138742352477,2.500403754863973,-0.013427230301163447
23,-7.532233681741448,0.7774592410311703,0.8149498264649552,-1.8895976487562036,0.5941144717422067,0.6015828456950555,2.6387281939739586,2.6904975289562754,-0.051089020473135724,0.2448563655113957,-0.5071864267018855,0.41864866341896645,-2.4138501954640605,-1.674997789822989
24,-7.187135619054809,-1.162475448863898,1.864840154538396,-3.105227890871368,-1.022383015422766,-5.080153785537777,-2.772357751505355,-3.041443623355649,-3.9754601850290996,-5.345689440545167,-4.624372973037911,-1.9212332208425988,-7.215092115291041,-4.7650223099219255
25,-1.3707611263863042,-2.3989523306313694,1.5892166338051685,-2.0066217139448037,-1.3387870656946808,-5.256405829304034,-4.861315822883678,-4.961173821488406,-3.8768047500963054,-5.169843044433377,-3.7896201035484327,-3.7442439960086427,-5.354999907260198,-3.7468798524153826
26,6.766786870728684,-0.5042505046600843,0.6003640259169154,0.9473686766261149,1.1163004450858316,1.0193952014174688,-0.6922684774184404,-0.9480652305735754,0.16163002129106138,1.5353773055805582,1.7986808845233886,-1.1000234580795123,2.4739867300940803,2.6463921348243997
27,9.502181895156413,1.8471735237593918,-0.8466261517608544,2.9468587893271376,2.916210455634588,5.948985740995455,4.359544973254292,3.665465440612089,3.278379132324774,6.526050227497046,5.2575028380107565,4.085161701068573,7.721964490314753,7.713999642316876
28,4.317198493220281,0.7536100729869039,-2.0851795541124405,1.8396946658211386,0.7658620442116937,3.1956475702203546,3.964815152383983,3.54325472079499,2.0842915763024656,3.6767257756656146,2.401028398729629,5.43561476214153,4.502500317079848,4.967215018540743
29,-2.4805362414431125,-1.828412403305755,-1.7788639157662354,-0.7068261321310858,-2.692787469769758,-3.0237084094238837,-0.5219238028826427,0.09628974513601042,-0.8089181838076883,-2.688097035984166,-2.4703296550922147,0.9735648539696397,-2.506282811524131,-2.646973494489287
30,-4.3166499109909,-0.5166985275950837,0.1738432590116483,-1.305403687528933,-2.265894717647194,-3.86462142878595,-2.7600690217788335,-1.7940366362312778,-1.0684324691664229,-4.414757700818578,-2.9270827403924717,-3.9416712527930224,-4.541130371708556,-6.210618741850196
31,-2.4120174498460085,4.058738222150317,1.807202773574271,0.27748332424227623,1.7135924810683332,1.1657227124386143,-1.115808664602232,-1.03526766041644,0.8347491281685988,-0.7659364223538041,0.7092612282320255,-4.019787215385829,-0.517461592681573,-2.5139882613039863
32,-1.5754419538108806,4.832172628865904,1.4893235269536256,1.1164106593227658,3.440144371218336,3.7180972195853643,-0.20741931722182683,-0.5563529568550313,0.9410684298358395,2.0564729205025016,2.7831312593249056,-0.3959863702198947,2.8478435550786103,2.624992957057999
33,-1.5778546555107855,-0.6922739550976148,0.10088294728864464,0.04899292942681119,0.2814935195466695,-0.3291166871761089,-2.0954497130639917,-1.5025731811605658,-1.5730220495493998,0.8486095041098951,0.8046509274885636,2.5135676467446424,1.3952868754210015,3.2329185932179363
34,1.1276914798734026,-5.636366474992529,-0.48646194997714504,-0.6517677506087374,-3.229157660330747,-4.482174390896294,-2.1341881056297525,-1.3410533168902632,-2.9836070528485674,-0.8747259123935752,-1.8867649296077718,2.8943232273361774,-1.6880639019305084,0.4371137662491017
35,4.656288980320219,-3.9913683460642533,-0.16870612231190268,0.3444250333205081,-2.269983118890579,-2.062594101897402,2.632878866094875,1.345339116940053,-0.7004808848946434,0.17410882385365634,-1.9376394279208031,1.480113428582345,-2.0226929769187096,-1.3614394208344003
36,2.6165073797323792,0.3678233152533137,-0.26843896168867787,0.5996849950889709,1.1597381107646363,3.1926280143624233,6.377010307841047,3.4529706407741085,2.646026574419419,1.55847881223796,-0.4627583850566385,-1.2894535742598086,-0.14102762001649222,-1.3594936220681724
37,-4.551628429773049,0.7579431419830353,-0.9818179868578567,-1.9292412742146248,1.7752396772495471,3.3750898248994177,2.313761712727748,1.367793529978016,2.6120956171548104,-0.323536599537748,-0.18160765045220062,-4.454821338758249,0.5725827582140078,-1.627817605250966
38,-7.154190866416712,-1.2721770983845138,-0.9846098355147255,-4.223266888671342,-0.6183262618582567,-0.9096789382194856,-5.573079841945694,-3.0939081533347834,-0.7957834619314307,-3.4737635090627115,-0.8546900116791121,-4.8763003757515175,-0.7888812883033314,-1.9794291663523298
39,0.15321212144807989,0.4394943849467116,0.2619701675486324,-1.6476754831043685,-1.1899469897830734,-2.1755784714118054,-6.643247707368088,-4.053639987119658,-2.621857358366168,-2.5221407272610032,-0.02418656782442974,-0.3638094114058855,-1.5668737468885887,0.011289435667733437
40,8.98874382265232,5.1568271010188385,1.4343550647922656,4.462675413111319,1.6292333772432834,1.228801291622581,0.9556984181779025,0.6304182288378859,0.33530287860942315,3.0002641689570653,2.7295069320060596,6.005417846532324,0.7862014328606965,4.029385784873362
41,8.136076601184824,5.806722188131843,1.2345188521865105,7.044938566986771,3.129166354184006,2.7286516711627185,7.01949475601583,5.789145499916515,4.264749995583545,6.790232175905559,4.524927647629527,8.02284634176339,4.80084806077869,5.7494972671954265
42,-1.127217122677732,0.3599022142681703,0.14125884960737045,2.5049304899118607,-0.15847746262314336,-1.048868731468406,3.707872887826331,5.039701000607777,2.829025464810935,3.573658484247681,2.5292569499440583,3.299826361675639,5.4648486404852346,2.0659397571613307
43,-8.233133774960425,-5.144000544860591,-0.5775985267604935,-4.136401486719145,-4.26831052547913,-4.559058652542853,-3.826249693683454,-1.3044606779921524,-3.5202741253696073,-3.958003241674074,-2.558118149422893,-4.069738171249946,-0.2065046301655532,-4.424950107653585
44,-8.038177994289077,-5.837981488862873,-0.6758874653255775,-5.821369969676749,-3.257831918825178,-2.389632201344728,-5.646027943109629,-6.713083281823327,-6.950543474983931,-8.189543903013186,-6.7599601678682735,-8.087930043143553,-8.117556324327088,-7.817401672303009
45,-3.67323621915841,-3.445360818392405,-0.7247634872193721,-2.1508472980136535,1.813347779275287,2.5096459543817935,-0.6645688481128174,-6.023726608064366,-2.6252356058867674,-5.169299140426794,-6.105825716619977,-6.250217348444159,-9.734730453411101,-4.840995732495476
46,2.3359573045022595,-0.7071903587008102,-0.7281832056930256,1.680837569551826,4.3093882935311685,4.082322434985283,3.7175601234803315,-0.45967216698172364,4.3770007526218055,1.8501156835716228,-0.16586558423605272,-0.4010011366633349,-1.4703710446229825,2.3712475126183836
47,9.279642123443454,3.0187621234169852,-0.15348959720868788,2.3775627799010524,1.489410478465381,1.739926901276616,2.7882232167338548,4.601899998496535,5.824893537172995,6.628927621513044,6.611781136206248,5.3701915589401725,9.545974457617433,8.144805138700772
48,11.565151962996902,7.209049203395011,0.8253088039196042,1.2337543791777452,-2.3130573511409835,-0.9629046778994853,-0.6905300345833278,5.076284278274456,1.055079796163641,5.798573230182636,7.965043360902018,7.074112433451301,11.69067574493043,7.396581678063073
49,2.8334993554200705,6.959657546209561,1.256593653867092,0.37833589944163576,-2.4570645038869614,-2.388770242149999,-2.3262969369039137,1.4157163368797825,-3.2477237968766035,0.9433969185909526,2.300233725645858,3.524443214947411,2.0279419163078236,0.1251082024818878
50,-10.998350889095724,-0.35790964134129555,0.7512538956326855,-0.05538165192177931,0.2180595243008927,-2.7849243535481727,-1.4723445468503547,-2.2753556868957965,-2.489704198759385,-3.390434460871614,-4.527471164350357,-2.013642459354805,-8.98958783112067,-7.2030619468577335
51,-14.57498908726241,-8.683155406994224,-0.04349646149236505,-0.674121338901342,1.8310906413533012,-1.1959769639949174,0.2765968580878862,-2.3550266872788863,0.9228689448532158,-3.7651955544257945,-5.629711673206428,-4.659515227871866,-9.218120531609529,-7.398535410905572
52,-3.591540607583625,-9.277630554176222,-0.5521873905507969,-1.162218643478759,0.7691842143289894,2.551384177311119,1.9272035314789022,0.4899102056695883,2.2058046113693686,-1.1034964115530292,-1.653252668729388,-3.284524301477588,0.03759605017767225,-1.0673110723727224
53,8.310732633049179,-1.7692184621690952,-0.9167765115118734,-0.7516853895832531,-1.189662389183671,4.741238487517305,2.5817102653719326,2.0726647981334763,0.22579197424874414,0.48879371444262043,0.8422788934026396,-1.105278246454346,5.892234422611791,3.8196029259779807
54,8.723383344709637,5.798611822358188,-1.1465960485491948,0.5043164477398103,-1.6076269860232282,1.7350241744948909,0.9939367841994468,-0.019445454507244858,-2.2307106879286858,-0.880020897520552,-0.5884290165533518,-0.3622961031487154,1.716252715754639,2.633965955554214
55,1.9768336291827462,7.228154171265599,-0.6360639030754824,1.368130314831319,-0.05969429167361876,-3.789338108237166,-2.189253780845572,-3.107657930229922,-2.117230375318437,-1.975679170138711,-1.0832380687005696,0.6315114883943811,-3.927458734727765,-0.0038217469553216907
56,-1.3600770070344583,3.71875490957376,0.7061382860732954,0.62047200913622,1.5653153682801992,-5.272323527383315,-3.707249784305509,-2.68244208296626,0.9490346710789197,0.9655287888623204,2.8783270781523744,3.438781424082985,-0.7949297405145547,1.5556444101276574
57,-0.3135276802323606,-0.5262200644474948,1.6831319405715488,-0.9867133424159984,1.354710102527529,-0.9746860723296523,-1.4402810945067928,1.6179493788041106,4.139030795392277,5.871925188119702,6.835813195951162,5.429578240008878,7.069829618888482,4.5393327181140934
58,-0.2691371272594404,-3.2212247805445413,1.1909053934929563,-1.0002583139147192,-0.13730942098689505,3.8387201690988197,2.264458118154756,4.924567062229964,3.4441758776630844,6.350513493419883,4.383857295566446,2.905473539570072,7.255767096507289,2.3729816821820346
59,-1.9844228924732676,-3.7272141023045537,-0.18828422235596964,1.1542383783108832,-0.7723988126195427,3.965748744302517,3.0565228175292223,2.6554036957638956,-2.1465396356913895,-0.10815140330066482,-3.4143738049994905,-3.1056990944305674,-2.3872131362371007,-4.2483485009005495
60,-2.6156890935443253,-2.1686939794129145,-1.0159033726122932,2.2827372715794567,-0.17730194790056744,0.13298639626194297,-0.00825470151600523,-3.648468782520489,-7.976299501255618,-8.182349172132897,-9.017818945585734,-7.2897376606174085,-10.64270093434486,-7.8600485362378585
61,-2.0818168728236293,-0.14815567489466017,-0.9123813319668111,-0.30449287484955756,-0.10709663830607541,-3.050502953122362,-3.0742385855450896,-7.188978224012901,-7.144135013460373,-10.036926314873151,-7.306826824143287,-6.026006042779256,-8.59904599928107,-4.889124178874885
62,-1.3624752065210173,0.6318689285318686,-0.5225138452947783,-3.8120250495898733,-0.9622238671293079,-2.488227619447985,-1.9549345961929039,-3.2132254580466313,1.7722890156390951,-3.2463539559339023,-0.12944901948687731,-0.6481294248490762,0.15283790505336242,0.7251816164012032
63,0.7232295438751217,0.8121135425714698,-0.09177757773411527,-3.0414307333161963,-0.7580156020457134,0.8360135100444981,2.5591809963714542,5.13263880090447,11.363830900941865,6.8007675776236525,6.825063598938941,4.890083077629159,6.956703851119862,4.612458951615348
64,3.7962650382593703,1.7611777590167597,0.5615970603930975,1.7164512561755587,1.0616624249264106,3.1370428514376454,4.972526992617489,9.497032985137214,11.839322959870081,11.469613850966743,8.709189595148738,7.2482787582053,8.285567292904183,6.292207869056233
65,4.150440507118972,2.356503839808931,0.9690213475392594,4.339122474151008,1.7919515737581588,1.5629726016170125,1.6324917701464758,5.180323358695856,1.4742419565922291,6.540409698596127,4.193058328212479,4.9226237941174835,5.26324869953403,5.538218151003753
66,0.8832544231989853,0.8072961754134109,0.4028903429375685,1.638943039787828,-0.27441227183976197,-2.350559763574334,-4.100385893979374,-3.7626042419141084,-10.544494810689255,-3.4387234988421267,-3.3416763696617706,-0.869456242772947,-0.683002178794995,0.8918867576105753
67,-1.7833094988470293,-1.4167337400330673,-0.6322496557637507,-2.0432818219593143,-2.3936159599177076,-3.8172734880623285,-5.625529795935036,-8.941392418502778,-13.03323536628955,-9.23606723880952,-7.562819956797696,-5.883855317249614,-6.928815347283677,-5.660911355745323
68,-1.541907126370275,-1.474201601976587,-0.742200785731202,-1.6687776566157688,-1.0961259771924146,-0.6021617344383733,-1.509117544425617,-6.282092011873706,-4.426103825342127,-6.399154050901287,-4.889002009752274,-5.869934537293039,-8.477584904098693,-7.9043351182863795
69,-1.117958630001623,-0.030433004410663198,0.22726565947936836,1.0748031069274424,2.411651595880111,3.690416604504304,3.1375568440704917,0.6312679025142284,5.913863159733979,0.5498247190056557,1.341588762207686,-1.13103330050284,-2.8898463325291077,-3.028346512520392
70,-1.8673406053675228,-0.09610392203228504,0.7842779124179265,1.2100749567874618,3.570042858973687,3.902546350495599,3.8130296620501976,5.191756780679813,8.404112063092402,4.283999527938371,4.467762176935919,3.344386921654608,5.032403664583379,3.477691074923841
71,-1.3456157574059546,-1.7094871244797785,0.08113335496923439,-1.443141029917734,0.5207677870257661,-0.2476030122909863,1.4581556003523124,4.404185338369072,3.3268133616944056,2.9494168460992465,2.2534512187015996,3.259523801058298,7.485722949564462,4.4664377480367525
72,0.6089191258514884,-1.8803450396563108,-0.7429938307178978,-2.4843170161854005,-3.5120715624643046,-4.04412968228297,-0.7481340454083271,0.6962437634950069,-1.5677476104460213,0.323050130851309,-1.1928839378249831,-0.2847006952999493,2.569358949119367,0.510505166762774
73,0.998094065660811,0.510526177373974,-0.4473002442674789,-0.1602074709221849,-4.118519344547548,-3.5370004119838256,-1.712183054627094,-1.7251127883043351,-1.6349865136748676,-0.31252108216722285,-1.4327842693056239,-2.2284516762128734,-3.615007711840461,-1.4958197195588159
74,0.4549497962702096,3.2610998373028046,0.31589546447809896,2.3305011344546123,-0.7151431485711183,0.36752245600837175,-1.7781917793886963,-1.1886034219047446,0.30364098657011374,0.5965599456908799,0.9388814595754871,0.3328468865436836,-4.257498987146469,1.4772040192640516
75,2.4785265996308814,3.8870638514477247,0.24419524724523015,2.0450786737036046,2.9897810384737262,3.5509506258491887,-0.7850883707504689,0.6004925151632549,0.07809115044313907,0.9768009089359098,2.0719783232049753,4.102903291403926,0.35163748024973884,4.164749902025778
76,4.5827859465725,1.516211536848487,-0.3209839259600966,-0.07212827355229666,3.3207975696259306,3.110395759901083,0.9453895461734679,0.9933658686137206,-1.8377257743437108,-0.268749443710991,0.09082594441020841,3.0940275251936513,3.5208659200670986,0.7133499039290331
77,0.1372807199149917,-2.9187396090342896,-0.0461397574496055,-1.6259654738830573,0.6413990633749127,-0.10704362091740419,1.6820667721312172,-0.7237329672020818,-2.4693809471456993,-2.49424704788482,-2.944525914130019,-3.195247040439426,0.6646448134813474,-6.130777631098378
78,-8.352088434409994,-6.071810443606419,0.9116494463547149,-1.7599900380398341,-1.660882520558412,-2.6932658270416447,0.5427505127615537,-2.507172602749959,-1.0286466745323959,-3.365055906451424,-3.5069352768751387,-7.559241360059213,-4.390185516754626,-7.5497067460458815
79,-8.703902182087406,-4.120431223018292,0.9098540362973567,-0.7495087899471125,-1.5554970997909345,-2.2108799185069166,-0.6989249987258414,-1.7350804244559417,1.1474135752567822,-0.7628930924479028,-0.34581990893071823,-3.817529684736047,-4.003937734098992,-0.44934320172474407
80,2.781472956413298,2.0807963769439217,-0.5457269528930916,0.9328496826142297,-0.21036566100081389,0.3298777333473641,-0.15209353221388128,1.4033266010400793,2.832772045243246,3.649087471408071,3.7872796836890896,4.274843370564107,2.5322462111440216,7.368773594123838
81,12.69013711511421,6.485066579778436,-1.7557470970528035,2.212136086713253,0.5294201523508244,1.8223541013993785,0.9949662156501058,3.501364138800034,2.8970582058001764,4.817353070436434,4.5434614934115,7.396736334214699,7.016356989580351,6.8475296156577485
82,8.123345167951497,5.015810490018577,-1.0479777546290032,1.8649761345147333,0.5334685472636086,0.8342364011021778,0.23840777127312063,1.9804494740958378,0.4864517563203825,0.7022243903442988,0.9577310623536308,3.05600617714051,3.413068874393124,-0.2823744104466937
83,-4.990822056208908,0.228168530873879,0.9549960897676549,0.04572926909511678,0.3610233352111585,-0.9282962453725335,-1.9761658584218829,-1.4335085007739847,-2.8479228852648486,-4.04954392715004,-3.0722193494531265,-2.1256649140059847,-3.5249469048737048,-4.332700888388655
84,-10.925754249274323,-3.3135563785326436,2.0405370483170473,-1.7502549982429556,-0.24116955331943912,-1.2272822609323084,-2.517225049391935,-2.990845934050718,-3.705374211475918,-3.988802533356451,-3.6551151254823013,-3.016900322123377,-5.333289071611146,-1.712851877060543
85,-5.6854149460993755,-4.4496723537940595,0.9775659797863079,-2.2826768066546297,-1.124704881366069,-0.06307914959085059,-0.1650271902303889,-1.7648605626601592,-1.2262006739362405,-0.13659812761974593,-1.4980600900015517,-2.0926314934035215,-1.7559759523856069,0.9094306614477732
86,1.402845087783508,-3.7868154176443793,-1.1599613010329852,-1.3637864965107163,-0.7305375629674616,1.02702047024256,2.5935966257450507,0.04182049171037343,1.6255184802120244,2.388250422612584,0.4505810321836115,-2.434618254428639,0.851914357076476,-1.4207954749052405
87,4.057750902099054,-0.9895322398463595,-2.1673967311480977,0.313820049672424,1.3157535056700915,1.197844640278716,2.9070249872884393,0.9346216231630519,2.418963451125663,1.9425264467611503,1.56704041647176,-1.6666582656401276,0.47511830918406944,-3.6466596641918856
88,4.935600743729427,3.036591470617641,-0.9583516624450559,1.4212119747544718,2.159227246599599,0.567643166668483,0.7367026440788079,1.4832985108547663,1.88201655581176,1.0155369273650288,2.4990973689083584,2.2271993961497865,0.9284736934829543,0.003664571661196773
89,5.486219625117652,4.885209855123381,1.307557197038101,1.046311891549222,-0.4631310165967288,-0.6607959774839837,-1.7660705536383878,1.9017908576505798,1.0336677828182037,0.594657819594355,1.920971897220699,4.955533195981522,2.954831031639046,5.076174116631369
90,1.9513077801412333,2.8012733092109605,2.2980675674263544,0.08235039963067235,-3.527794499867219,-1.8291499211088582,-2.5156488342652272,1.1491117368072938,-0.7014163576133858,-0.9642227295755175,-1.230952793481344,2.169096435460733,2.1677139590955776,3.6333392826483535
91,-5.278606903918672,-0.6346777530210708,0.9330552038967584,0.24361252620952517,-2.060524670622155,-1.4869940056320203,-0.9269554477882116,-0.7588069235174656,-2.772992810316813,-3.189273721977385,-3.836464417057661,-2.5565208536186805,-2.195045909891962,-2.223230057723519
92,-8.400244582835137,-2.283329070875,-1.3041614809194386,1.271017142102465,3.052047353200878,0.7595601681098842,1.5464834755003696,-1.9013032746889327,-2.4940222923655857,-2.570340720702658,-1.8358677303256037,-2.7479161841019444,-3.999810397084461,-3.3122655643469114
93,-3.4189581305500054,-2.192429524207756,-1.9854844267320177,0.962670726071599,5.222903851175896,2.660868790342925,2.3097410132426077,-1.1819951691605397,0.7365309222895785,1.7231945394927735,3.065392902056882,0.7987258398026048,0.2710780556600113,1.5723759659608534
94,3.287808040450526,-1.6478368156944962,-0.6428500627101607,-1.2303594259167159,1.2058681175261798,1.6568158917567588,0.3446387680645416,-0.0308212501127602,3.1806113680894,5.0342230226141575,4.707265356639032,1.825493459487956,4.741091989258258,3.7376606647380255
95,4.893760592284912,-0.366296602994417,0.8261870602190796,-2.6934023030973737,-4.2414136175814106,-1.3238828495351467,-2.1325671126477705,0.0847361268074888,1.690150548141938,3.0146628065501897,0.9473554785697413,-0.9325068163348854,2.423747052881031,-0.9396449920337582
96,3.2380726598892955,1.8438710072404068,0.8657617469612405,-1.2682998410454418,-4.870088448617288,-2.6344626895665346,-2.1330725390698886,-0.0003119455814574422,-1.4796318392627894,-2.2082152944505973,-3.5394597489252426,-2.316729105609564,-3.923078167248768,-5.37223571229179
97,2.2930221239925994,2.760194805875854,0.17000242229502444,1.23704834554463,-0.8608342590195012,-0.9077739399128271,0.17803401490431361,0.7363737452070002,-2.1252593161710625,-4.793078341431113,-4.096974792120182,-0.022382850913050173,-5.743777523496222,-2.9741101031900206
98,0.09697900562187334,0.28490692310433086,0.12354162321799891,1.3882120249610956,2.5944827337618555,1.110711087656459,1.7482656381037587,0.904159706940024,-0.5054923665699169,-2.7834588379755885,-1.7217274548843684,1.7131994407254119,-1.2119696032836065,2.315417582123962
99,-5.283032504272241,-3.348157220779994,0.487629561871586,-0.7655113499845375,2.5613497834169903,0.8727142308353126,0.9555551205422823,-0.9537032283237841,-0.2399420316091238,0.2515046143815748,0.13126464617994923,-0.13712809650642407,3.0796348939015576,3.2809406072388696
100,-8.072656551392692,-3.263948228898399,0.05943264339402107,-1.5725536506146722,0.9233115277901509,-0.2443316384115874,-0.3612501900698085,-2.6880106194133644,-1.5966269224337508,1.0598654865750112,0.9960760482517971,-2.063519360008845,2.7138312101512163,0.3955824358720807
101,-2.0449482231590936,1.267587168263585,-0.9539445599287166,0.7998256829812647,0.23680885847296468,0.36109651606967863,-0.04504669514578839,-0.7347581177674887,-0.5765785467329442,1.0543968346136212,2.6374409541829493,-0.1254116402542523,1.0349407747113661,-0.7075559300934361
102,7.969634165992732,4.861472278937241,-0.992953802593035,3.4099938481213408,0.21646470372541526,1.927730153888225,1.0588996118160299,4.010460845824433,4.069110629152621,2.9860546235530205,4.6159700530510195,3.270571033261287,2.0384622429339117,1.279054821924569
103,10.278467194150894,3.041555375036408,0.2538719170603314,2.565905097407739,-0.623240689245228,1.3626158558520283,0.6078007141109454,5.889096796566775,7.027794175491672,5.196519185958797,3.8395946216756176,3.152687022970887,3.195548160645894,2.371594208690908
104,1.5891031053886144,-1.519396979455414,1.04431472658536,-1.1372453935001643,-1.965403871725411,-1.7153881252852834,-1.4251518918978303,1.5158919241210218,2.9069485800307358,2.870558157779096,-1.0169639521829237,-0.4411826612302579,-0.15363471227469777,0.17788286510699058
105,-8.25696317655228,-3.1911554507727766,0.21197934118020162,-3.87701247410787,-2.0540287579222487,-3.8089763315539256,-2.4273019227269415,-5.152666416180787,-5.524397071236526,-4.244981031008482,-6.4377134005272865,-3.0326603282273195,-6.108305013431379,-2.91823105237342
106,-8.401349997833716,-1.5142203472300948,-0.8774838508792054,-3.3683527617163214,-0.22652515941156526,-2.0973441613357227,-0.7138496499816506,-7.048418794620996,-9.490567156769538,-9.125852309630918,-6.95098931721242,-2.2532498936513954,-7.345640865906047,-3.4815754414026956
107,0.07702931117466379,-0.406823768566728,-0.3704325136546178,-0.4778812374559193,2.1641139064807824,1.78624960739337,2.0702989772015608,-2.4262562296184362,-4.779552651183758,-5.61732968418676,-1.3136874131142005,-0.08241343196683965,-1.1411566823419388,-1.1226015888385217
108,6.372674652202556,-0.7283452347170731,1.0985311809092027,2.6934653774342476,3.0207581381733903,3.724431449532662,2.778867099466675,3.2141291953295386,3.0509816660643265,2.883976252744973,5.176872616215724,0.8242241026413506,6.172974940633664,1.6236868885381295
109,3.756430896760302,0.33298427538282593,1.2244445661893453,4.027528628765859,1.2380258242365807,1.9142518096722905,0.34810177630904954,3.9383825566640898,5.662125187501294,6.94875456457437,5.847719885665336,0.08423888934966178,6.718816886975622,2.1073380604652074
110,-2.774542383057026,2.5152974657722567,-0.4911796480177511,1.9025463504958129,-2.042780452423193,-1.361768012030289,-2.8922205405828474,0.2556213291457383,2.044051281327035,2.9699601333556385,0.26987905156262804,-1.0655143004134622,0.4634518046698634,0.08930036264286985
111,-4.086705232125779,1.8755169564313867,-1.8449162896559552,-2.643935962121453,-3.702017374164047,-2.5105521557633703,-3.3660602525987597,-2.1262271905727554,-1.125148456692093,-2.483817873345215,-4.698095894273867,-1.179875406800617,-5.064824379577139,-1.7209395080088794
112,1.1558744121937414,-1.5675875327897932,-0.9673061760499422,-5.048662963108982,-1.617339432692508,-0.5900988870009095,0.02437663401677998,0.29183897825929794,0.9925822450216214,-1.7282025753233579,-2.7414192549841587,0.6890852919696002,-3.571482430845431,-0.18704709180529505
113,5.545112765239858,-2.324933409735217,1.0773767988678709,-1.8231293393879078,2.2193668877272605,1.7086128331347932,4.093692583395869,4.345786000769917,4.7073696087416135,3.725894278160678,3.9655728339369576,3.8090428429149927,2.902990532752806,3.9732057239325234
114,2.8096427377595368,1.5421797298630682,1.714353823490499,4.027330506569956,3.4847985556628216,1.3124949280022926,4.25300681457827,4.141579484769229,3.071209078011716,5.421345134703257,6.932516047961878,5.112597363911584,6.204380871002879,5.438236154768916
115,-4.416122676039512,4.105727660321407,0.24086662794392794,5.607964194665627,1.026812897281863,-1.2282419797801187,-0.04341203883921898,-1.3344469640783874,-3.95239875751445,-0.41477495326187597,1.7304298170241745,1.754202391771638,1.5977006261068745,0.3268861428991306
116,-7.598681706324423,0.41138058235661656,-1.3623587435796396,0.8865098561349868,-1.8017321756486857,-2.3227375168755007,-4.131580832644727,-6.519528427384054,-8.719564714190808,-7.707533882323717,-6.438430565190092,-4.771829745147065,-6.052217009130726,-7.413225458636933
117,-2.2799389293169323,-5.349380660501955,-1.0896771201490862,-4.470613931911581,-2.0717340969460607,-0.32107929503367827,-3.7807288466714057,-5.924127426122859,-5.844674678302358,-8.450060789739402,-9.062803250302292,-8.713544784814765,-7.797803658442907,-9.223574593557407
118,6.163062771851253,-5.48597369143724,0.5518590723769724,-4.496925166159453,-0.6017099525389017,2.1220585675160724,-0.24653061274719923,-0.5554863500538689,1.2623876052003706,-2.252569314973325,-3.8967513131648355,-5.754255597410729,-1.680508952130435,-2.4768658996624957
119,8.236845471318137,0.47812293621249424,1.3473776444877141,-0.15807966376823784,0.6997092899134489,1.9504818632128378,2.292594498965056,4.060778754573532,5.829173828701585,4.716573580117346,3.940258895048444,2.0683680296689024,5.2283419496621,5.85853129645646
120,1.5855764948444757,5.6407298561293855,0.338878774347969,3.040007191279733,1.4213300390062096,-0.1515040701432332,2.2441702261498615,4.6084719038152775,5.72893076614815,7.513548287111663,8.245434433799335,8.17881469278955,6.2515430822284905,8.014029973441987
121,-6.225497650164615,4.9386466749079565,-0.9923301991137957,2.327985176036527,1.1677899257537516,-1.4446300473096707,0.8699107017834123,2.240713333050189,3.0430223987629996,5.75767412576956,6.465828816872382,7.7918152786930746,2.462264469016829,4.2843410453066415
122,-7.116530503430182,0.3674453611342074,-0.8704771873578433,-0.19176263109312605,-0.8108531298389691,-1.0967179845303836,-0.7465503581940396,-0.5276863385417496,-0.477541027476915,1.3810111119210007,0.32145746100968586,1.9711662043796123,-0.9887724771888027,0.19836197211967163
123,-1.5155808113462828,-2.982462644732192,0.3231621447812956,-1.427640545566354,-2.78712280728798,-0.25558011131949476,-1.8249987591505006,-2.13456079725812,-3.4583837730034848,-3.093272899053886,-5.204070411688656,-3.9630140855607654,-1.9979541238474692,-1.8058539281775785
124,4.0080049268385745,-2.8943012864575146,0.7888619002888834,-0.7134619618724363,-1.376300805062881,0.36978189467349115,-1.0512662060484628,-1.8831749084480043,-3.678466885569625,-5.085245315228334,-5.403483797912984,-5.615468506617093,-2.0712531490284416,-3.4582726932652124
125,5.172685545034403,-1.0333037468748898,0.0550894018314059,0.5199152579240333,2.6846393105482695,0.8187214493649311,1.225916051361447,-0.34231777359605753,-1.0558860772638823,-3.9217441914618663,-1.157053122015312,-3.3462694817126413,-2.2364783302792834,-5.129810594972947
126,2.961995082071236,0.13095311957312072,-0.4940323289839691,0.8106369144269675,3.9252587273566513,0.790314263683265,2.062987479844113,0.5830285345476325,0.8545135066207774,-1.652824862696002,1.598963389949073,-0.8263823647878518,-1.6714924753578189,-4.250479589184001
127,-0.13556123821220156,0.006044047489189325,-0.012301555878201377,0.021651579425571138,0.08125177799097233,0.07676101442433167,0.06743728354189446,-0.025921265429511522,-0.06261811399839193,-0.08242355805505658,0.024525196153949033,-0.02121728440112354,0.06460992814109945,0.008570301603709092
