,AF3,F7,F3,FC5,T7,P7,O1,O2,P8,T8,FC6,F4,F8,AF4
0,-0.0035301659183977,0.009376556076360967,-0.02278142580860272,-0.01968163708952953,0.02363676761534664,0.001616127877610063,-0.06152459461237671,0.08981017547599479,0.2659164170966349,0.1439237190129344,0.09039878596279613,0.032767424527465595,0.044129177097413486,0.041756436734336155
1,-4.568358853943698,-4.640113643398825,-4.171451137438868,-0.2244265716121558,0.5265420701743505,2.503331737124038,3.18240888022853,4.207255955353468,4.3282964096078675,0.18167680518203963,-9.232928004550201,-6.8867676041279235,-9.032184362922088,-6.616770775911446
2,-5.441970524284066,-2.865679653880936,-5.59830046528178,0.4795868351581339,0.7073027865934997,4.2741836451108615,4.218551928031756,4.02179053887125,4.622435896283941,0.25367362332106314,-8.8045658285238,-8.139691330909576,-9.615491187301444,-6.027629612515749
3,-1.6794444720458395,2.9047522837334623,-2.658889426521267,1.5389905661169974,0.6689490433257808,3.9103127051353077,2.5759738754883457,0.15445656207398628,2.1379662208051817,0.7683846077645266,0.027529209220226045,-2.1131319951879544,-1.5871356259089997,-0.09601635933070525
4,3.568104845637032,5.204391169053268,2.8434375065022692,1.5903558939751874,0.46181287356669504,0.509767607980702,-0.5119055459423726,-2.965352630677673,-0.1550026453732699,1.5294597444054365,7.643643269433427,6.0205668660142475,7.161063859233917,4.061295736545118
5,5.744102637799427,2.050557639748918,6.150881726305454,0.2993112662727805,-0.10304961777508448,-4.080996319349517,-3.197545120918271,-2.492609334655317,-1.6908666912450008,1.5549122677905693,7.848715038682916,8.501118924015412,9.286126183792224,3.845608834176109
6,3.6263004843365727,-1.4614647014226427,4.481854920865889,-1.1993641462569697,-0.7611582728808195,-5.687259790756328,-3.7972328962693047,0.010444196233415245,-3.09519050909449,0.5040635914333779,2.7849331468571674,3.67702929923424,4.706128802269191,2.040492628442143
7,-0.2026377513284412,-1.796486658316788,-0.07555145368949293,-1.709842834717965,-0.7751826846844151,-2.334488437813644,-1.7420726912901006,1.2370254719850657,-3.417037475788896,-0.8903826564169974,-2.617853360031614,-2.818420417222956,-1.7710289709181746,0.3401550159804352
8,-3.525510963342599,-1.5676219142401926,-3.9257494098499124,-1.2354328453081769,-0.20218931836981757,2.4361537844007706,1.2437352853355363,0.04003836177471136,-1.9110360817572967,-2.350996150407286,-6.293827660371197,-6.217674038176624,-6.781298655759343,-2.2392551191160783
9,-5.957070284862077,-3.4075894525668673,-5.658916484126103,-0.5792645388675026,-0.10245372318332403,3.391503563079269,2.170634268894949,-1.893423098993221,0.002890521508151868,-3.9758493708050966,-7.666651188075126,-6.58916645884789,-9.147682948020543,-4.827471850651589
10,-5.868723349350216,-4.252438074178144,-4.792087204088827,-0.10020125077357143,-0.6441039839291208,0.576485167176316,0.4515102429212715,-1.9549946063248778,1.5605845895492951,-3.8879861628997356,-4.664946303094215,-3.893205925610527,-6.50915751365484,-3.9593744724510334
11,-0.6252173047560988,-0.05915449942684104,-0.40186255010097444,0.5880666589754718,-0.3498177581079411,-0.8159826618979635,-0.7055967148333212,1.1880683110771262,4.183543353609765,0.6241745122118167,3.476721880086629,3.1971444438049685,2.603560300429032,1.0915949871071315
12,7.58405412382601,6.52144859640061,5.923780629404888,1.6608321922567741,1.4243262924743345,1.7147138551067893,1.4582228939638735,5.755376217869664,7.013099065248698,7.4786343814619265,11.37695192796467,10.623379921331187,12.468507533188316,5.952776808762928
13,10.648151536999395,8.189113848137525,8.75781879109682,2.3581241987320127,2.6490831634713548,3.9899524042746113,4.597041521867306,6.917475285939245,5.051474179380225,9.208252321354253,10.580588257350065,9.441555778365592,12.653391489740208,5.971191110428168
14,3.7879765531937837,2.4987692806469224,4.365304716005198,1.646349032997517,1.211376510708095,1.262789606631068,3.4705841025577806,1.0672974761548704,-3.6511952561538674,1.9326783347887313,-0.20261920456865073,-1.6217611747559628,0.8189539545176587,1.10983451447598
15,-6.678083071572574,-4.732389156371267,-3.8448800048415657,-0.49781399738377063,-1.6506622148912573,-4.631850369366754,-2.915473403100941,-8.557862029378065,-12.174633462633716,-7.9066157573130305,-11.290828459645068,-11.098982566414458,-11.737955478709075,-4.77351368243015
16,-9.838643666699793,-6.715665779584469,-8.503094330745972,-2.7617599179039174,-2.7841189686060206,-7.394041742728686,-8.702571363512682,-12.76646976096565,-11.327143216875962,-10.338305230830967,-11.88353190064645,-8.726294500555776,-12.398562914311828,-7.245010100578062
17,-3.648630178681331,-3.439023341950448,-6.183671159730763,-3.5340344560988184,-1.537905153885793,-4.050482155080586,-7.43858772236895,-5.837679551194829,-0.9504062965361163,-3.8568988559831237,-2.2156522018032474,0.9092745914857792,-2.161828704658566,-3.9362579447771258
18,3.1623760915534693,-0.030170460765078552,-0.03783586932822012,-2.2115515972122046,-0.2562616546835385,2.1897630688119807,0.06187497693938507,6.679576915855539,9.456317174048,3.7646311128083836,7.220401829030479,5.5426378931087035,6.757482459106139,3.0097805733819825
19,3.466080774427395,0.8161014606108904,4.617424865599503,0.49889723429689414,-0.09661768436190549,6.274743951125073,6.559957900853879,12.955410481836333,11.551060808557137,6.076530596922106,8.091199277452334,2.2234214368533722,6.570850558715294,7.222551137251327
20,0.6422659458143746,1.559264325727449,5.29506655288958,3.260847454356111,0.8633041296163121,6.131443996458261,7.209771220819595,8.22882229433018,6.503616417914965,4.641865180016945,2.7750882527471146,-0.6414066239049409,1.6250617383483887,4.463919848067993
21,1.4166681578955542,4.284354609029358,3.0231105743393636,4.565242941845947,3.5869050639132807,2.976644358964458,4.222123593929025,-0.5144125186635479,1.001774547864752,3.5616020479807227,-0.850364465824945,2.4668345470046313,-0.27276238735430575,-1.5306958140899103
22,4.209777238198374,5.561998547582775,-0.20023046688665447,2.906937421915016,4.557059481320626,-1.1924135068217965,1.3085354486905403,-4.832237091569661,-2.591597613623458,1.7640618603972966,-0.6661655666174674,5.590085305041443,0.9586036579837681,-3.7530004057114685
23,1.7454802919635293,0.8236121466010655,-3.1079317384252616,-1.6859706805198025,0.05924702395895981,-4.838972380296267,-1.958952270840792,-4.979798413172597,-7.342460190011761,-4.07547264328084,-1.7744626213254837,0.8507805915475579,-0.3894423426232691,-1.697615894978486
24,-5.672838462508971,-6.791442638910564,-4.323988255407142,-5.710303870387678,-6.608152158632283,-6.128223610579964,-6.248092601732339,-5.541967180200926,-12.481601517592376,-10.475435034509244,-5.985647747152333,-8.115228242082331,-4.884998929577132,-0.7463876284906006
25,-8.102002521744314,-7.926702940927153,-2.1305842459537634,-4.474216998471369,-7.180163294718802,-3.367173428438173,-7.404548914323924,-5.605817839714154,-10.159043164468876,-8.548709656903844,-6.466722484562395,-9.491637324116551,-5.742013174470718,-2.21530334545976
26,-0.5080026591783698,-0.056410579348229434,2.6108701113507715,1.5776713542557257,0.3563939610479236,2.0999748721926688,-1.9002606273610336,-0.7971886931311427,2.7619444614518858,2.718832474869976,1.4627523210947178,-0.07055400886273863,0.28444319252989964,-1.3984275755354245
27,8.127920348772754,7.064497223188156,5.011271789970397,5.60267565937956,7.390542564624871,5.337939202119379,5.283670351264421,6.798065355023164,15.420222580935343,11.746097773827653,9.85797315983347,8.96333963349906,6.265640891505563,3.1205831456144932
28,6.634126862873389,4.46404286887802,1.4737865116265862,2.7083765625943195,5.596786915331904,3.173096431232011,5.7606552551107155,9.1658978497844,14.595215120838503,8.767315381383316,7.717941769286186,6.9681148904096935,4.7250235706396895,5.754787136368308
29,-2.5844042030296426,-2.980326715484035,-4.2075710839325104,-3.0280333593494455,-1.7455916280189736,-1.0942172162474586,-0.05365432791590252,3.77496455072651,2.587792544250456,-0.8632477745254097,-2.2264811673132967,-1.9094619436797553,-1.132195227304346,2.5755842285474273
30,-7.431222579926116,-4.284536472432368,-4.722910041984555,-4.169560814348699,-4.990143464959861,-1.9440623837335258,-3.2994123535159394,-2.7455997425225687,-6.476846183301823,-5.226767532859959,-7.0580326016663255,-5.781400145504484,-2.882939294270402,-2.591520961889411
31,-3.0919048910772298,0.9521989947683387,0.5174966639000455,-0.28902319987128056,-1.8328218958517872,0.41849062795056124,0.11702264878388098,-4.3905082734226495,-6.51471331656755,-2.7810851878339564,-2.826438460363354,-1.5916666784773916,0.0052251132946594114,-4.345082937754075
32,3.1867433414768502,3.3816063605605655,4.362166563955236,2.6775757410081766,1.3400532735093948,1.0117476356779724,4.005640917635467,-2.852427440649572,-4.456559033438186,-1.381735378282351,1.449570096253114,3.1276594115773206,0.8582180687629537,-2.8453187041511443
33,4.206347405998738,-0.14576934238040173,2.551730325113929,2.0768552421476807,0.8449340389006443,-1.3627700466985129,2.1290823196328548,-1.9630310770069108,-5.138222364498244,-3.322514209382729,-0.017099555447336046,2.6686974891186206,-1.9837684975128198,-0.9857470791731908
34,1.6454841515490892,-2.333918090661203,-0.6206601717657851,1.080991247343139,0.34196244529865993,-2.1806592400610305,-2.5554045293087193,-1.0835847911472334,-3.6898050896676526,-2.381433108378091,-1.5655674370620207,-0.6367641223442289,-2.643301108859326,1.030357330181737
35,0.06564610125418717,0.9226036561471325,-0.5221018998395074,1.2618477097400147,2.2615731082846495,0.8025190828340116,-3.5281451738636282,1.467469488989178,2.8876193609909158,3.3745813195075374,1.7565758550160482,-2.6400127164177123,1.3092468432938795,3.621804268215123
36,-1.0003286262959172,3.045398193545948,0.07967258175356097,-0.4646260210915686,2.354633504841155,3.170743132639743,-0.9512677165853062,3.032032322352014,7.6194562102042624,6.307214849750869,4.513532134498204,-2.891973240140221,3.7198215363925278,3.8881777285190258
37,-3.5763375181328456,-1.545085816447808,-2.7580159461137006,-4.792386881195699,-2.447892570272893,0.6491101125690334,-0.18272164053570428,0.4699012250098804,4.246898011266021,1.190377211060408,0.4799128412983027,-2.0794527081152463,-0.12020132812978283,-0.4596695250455525
38,-4.602869238463781,-6.571933227666944,-5.156158379368262,-6.074706053217503,-6.636102244694388,-3.917461076574404,-2.165344102153163,-3.126051065834007,-1.8756942153290856,-5.3851298057571855,-5.620465403078326,0.674420282691637,-4.710744294855792,-5.068618933998105
39,0.03767290523068638,-3.0194748379984055,-0.7423834224925374,-0.28592039327125207,-3.245472230724172,-4.401611373922282,-1.8598751515352416,-1.7160286189400369,-1.797807733242589,-3.978611702619433,-4.416718303822966,4.855188951271451,-1.937950088708086,-3.2403043649336807
40,6.789044113739351,5.9851789175814485,7.3090073500608,7.204413424145871,4.873600561787252,0.24188862312454532,3.068326572177609,4.203574773829704,3.221612334135753,4.0319340246020134,3.783463050158245,6.486617274967242,5.992651558549775,3.6424304305017854
41,7.122027004039527,8.774502853359017,8.462750795914863,7.637097408452064,7.9691833708265,5.139075229539752,7.525597798457021,7.090171393660222,4.293445821250417,8.299828781113174,8.764183840504478,2.5689919988634657,8.303461762037026,6.3251348616706755
42,-0.5259412138920148,1.8429935478993718,-0.16267345153645227,0.6616012321777063,2.649003014535055,5.76549032532071,5.565698732718393,2.380356235463928,-1.3443100222569684,3.075546271586675,3.9661526047773377,-4.199346473801527,0.32011313995917773,0.3961320202475257
43,-7.723746991420697,-5.873622514089587,-8.772513130004244,-5.496559370262728,-4.19986197721428,2.118644679864185,-1.7041643389212384,-5.505285918810583,-7.029434777472059,-6.396425555918126,-5.550446528660832,-7.979231958441649,-9.529178444156306,-6.787422242393319
44,-6.761167012272375,-6.159815492187859,-7.748468581688092,-5.120170906602771,-5.395347810609358,-2.668033780074632,-7.599155667751375,-8.93828580348558,-6.858658602248174,-10.743731630485163,-9.969909452864261,-6.017619992952688,-10.044282995733207,-5.905250400177544
45,0.22855557769426646,-1.407556460152174,0.38403132306152055,-0.9621502300015832,-1.8115882226793445,-5.46506383705699,-7.4197528409186795,-5.576178547882837,-2.634507473443249,-6.175220770591039,-5.755006263142186,-0.41553892249567975,-1.0436683625876713,1.5477066356041667
46,5.190843091056347,1.4153928096636677,5.774994289449808,1.5718098066797401,1.1858753837708222,-4.959432798293495,-2.319218712419547,0.7655953955818715,0.936794541296388,2.917056978641393,2.243657255412432,4.909960590237965,7.20725132479946,5.841444085630578
47,4.097543822495868,0.9346634395827843,4.099697776580243,1.3829976694318864,1.3614878189903403,-1.9315212541034947,3.2081780398526805,5.351139504979697,3.1906192402531084,8.912539390544127,7.381274507146203,7.01646118185809,7.261390181984243,2.7299741061684615
48,0.20798415237845247,0.9421310425993922,-0.08881090774295002,0.6895518001294543,0.6640070930063853,1.761744962931801,5.590661471476906,6.417810371816517,6.244414879263593,7.911671447090178,7.091244094396962,4.90336228210328,2.305533246121998,-1.8312962334191512
49,-1.4177416455812777,2.7483695119617897,-1.3133306022861944,0.5988040798786595,0.9292818961204632,4.534137990151668,4.227648621389394,4.774223437028536,8.880999188587838,2.4220649553412708,2.9179759679552997,0.010390312495220919,-0.7967276883445755,-1.7073569311285663
50,0.016314881476343385,3.239737340562393,0.24164122715309228,0.5862564325981905,1.5373049118821667,5.299174641530302,1.071314925743423,1.7085986337979862,6.226518125953677,-2.2786292570240043,-2.0553796479050637,-4.2306946541044725,-1.0956160034405984,1.1357741108302777
51,1.2953180591424236,0.6464744273290846,1.0881253334114367,0.504752041296669,1.0680601497081874,3.2744966192106566,-1.2509435252562353,-1.818489114057571,-2.8717744338064572,-3.625908841728333,-4.74979582251573,-4.80757073303662,-1.7957492378157838,1.8403120687826868
52,-0.014494950195338835,-2.332501764111404,-0.15570657357946488,0.4637598243369683,-0.5728075141203078,-1.0327381789942576,-1.7704887388870565,-4.7744580362891575,-11.57300154546187,-3.1554004593035283,-3.697701593034935,-1.8991694973414406,-2.995086481016562,0.3642094595460131
53,-2.7806127756780312,-3.0309775114626842,-2.0810055874965263,-0.25936351907805505,-2.1742458037996197,-5.028214029619811,-1.888808213299006,-6.013105765528838,-11.871616333661605,-3.246763960251653,-0.9350624183737424,1.0178196059079068,-2.354918288962489,-1.0635501235366203
54,-4.082155415871212,-2.592608758591996,-3.1323624350625234,-1.9188734295548324,-2.5318765783510315,-5.761077110110005,-2.8637444811402024,-4.700359730653418,-4.082484725107935,-3.682237045926333,-0.21488986022797357,0.746692785076129,-0.6539208729151073,-2.9931789189439058
55,-2.345875098488879,-2.4875194232026043,-2.548299624175151,-2.7182096057412504,-1.3206706916902773,-2.6771106742484765,-3.0284249526297473,-0.72014127700452,4.2644952750031,-2.0421009107826458,-1.7097739676800523,-1.6013308480515431,-0.3837841966285416,-5.213482222379085
56,1.4582882686045273,-0.9684208552897138,-0.059304453016188335,-0.8564633778353598,0.7951112877415266,1.922731877500147,0.11636746349942706,4.4348555183796785,7.7112879425580605,2.4935732898878613,-1.2251400628582312,-1.5562333818242777,-0.2890855075235056,-3.203124633572359
57,4.745714245656977,3.1257396824894226,3.287155771652273,2.2794298841293705,2.4964376444499687,4.828379921101478,4.839528762194938,7.267161971943364,6.879972003703994,6.7926378204054405,3.138835902774303,2.5909638730105,2.5813669594236726,4.587036441776671
58,5.239913217837225,6.188536431264677,5.085501375240868,3.3208991168742115,2.6785201125037537,4.168542461434363,5.765707512358184,4.990226592830605,4.180576722153791,6.731639031996452,6.871091063729007,6.473923590540383,6.264799465791188,10.315473342046657
59,2.6107960282499887,4.123327800656373,3.8498671729745846,1.3207327999412497,1.3720898482931685,0.7599342353170698,1.1883569906626268,-0.5375288188217113,0.4914072599431613,2.200596281404934,4.962398920592734,4.797889159818051,5.2949644814315615,5.990341501608547
60,-1.461761752349838,-1.2285824054518992,0.3894688469772578,-1.1990716976304454,-0.4918749885338393,-2.389344736718667,-3.7860043998113224,-4.0460927792490615,-3.183026581665494,-2.7752972043584836,-0.907706810746337,-1.614652621347132,-1.0525791164287102,-3.9369731871122084
61,-4.594996770228141,-4.319629120792701,-3.449918061309148,-1.8305052124332915,-2.1352232953362065,-2.8543267624527062,-4.034132599508699,-3.2150231044730826,-4.796450748286975,-4.942474396644621,-5.000305068369894,-6.715199316672764,-6.867340008799925,-7.899205086854532
62,-4.9477368355707325,-3.2377823982491423,-5.7214586069635205,-0.8838224599269173,-2.9947522887381064,-1.1955919361143525,-1.0288157029613731,-1.109413219288234,-3.6593824557545647,-4.57835700889836,-5.112358616321367,-6.317167938737523,-6.932241997075202,-3.4086146638254413
63,-2.2470663260780332,-0.9992650280138571,-4.491820998613485,0.05521465827102797,-2.164423277405092,0.2574796212643158,0.6204853934700344,-0.850567050755075,-1.4671781842718186,-3.0863213984886984,-3.4468950777808116,-1.793310644758934,-2.401685011620902,0.9321664693641295
64,1.3256228491288256,-0.36446406365284445,0.025536323441470644,0.2860604781324916,0.5466383251574162,0.49381858157562836,0.19371286673232835,-1.170151975680826,0.04004237029301588,-0.7136238841798546,-1.5673910259158312,2.5865066770064846,1.9359007691618524,-0.3307239751949195
65,2.5521993514849255,-0.6844647365910989,3.8566426527781275,-0.030059006278636027,3.065414803275177,0.2899769307455815,0.33446472964844687,0.25465856694556116,0.7139489366858848,2.1199560136857576,1.0581030411442196,3.850884300492946,3.4258874998661533,-2.1194680540245683
66,1.139552933776253,0.10172366543874438,3.443469747975207,-0.5088452271888279,2.761126106436528,0.24638157641924427,1.5839288178920912,2.1718834920605246,0.9917419448154522,3.7738602970554944,3.9345715612264116,2.3515948252496846,3.037707032792701,1.3134699003800019
67,0.5722161157097031,2.3917326299907664,0.8789004430717272,-0.41262146086060497,0.1518587622240549,0.2935897318550777,1.8360338583807063,2.001717074813243,1.2255467128397037,3.3474424988490843,4.926815561528264,0.8742089520547144,2.4993174073484914,6.288963344716304
68,2.722407622017028,4.1854580265539605,0.628848214079199,0.7997958202078327,-1.3962396166050801,0.739775653816108,0.47342515165125254,0.5172522132110569,2.1475012007299514,1.8838496564166292,3.2442359614185508,1.111219757321551,1.7758562120983685,5.150803299513462
69,3.9653011624832404,3.0443084647813903,1.9691553620121078,2.155431025911465,-0.44199587693092834,1.5834034624777475,-0.78099472692831,0.3170558219666949,3.6568524146983497,0.43132706732893583,0.3235152325504143,1.1321664988543019,-0.15804130611743872,-1.8054882012478748
70,0.3382284865760243,-0.8612409028396578,0.38082299692745886,1.7101716005412193,0.5472555210648982,1.129402924129378,-1.0869389197568886,0.9566227796236133,3.207250352079459,-1.264614750102913,-2.3798641734069323,-1.6140724465494867,-2.8214908837964927,-6.172989482946352
71,-5.451720198953172,-4.174182426653813,-3.8554722416262486,-0.7945732613076852,-0.6225867131389659,-1.8320424429133473,-1.3278853697912876,-0.1443438923895717,-1.244844630631925,-3.0603660196988027,-4.129383123917455,-5.147680689306433,-3.864625520398758,-3.0336229218200645
72,-6.828261800849508,-3.928320412342959,-5.026977049014992,-2.9151963258681564,-2.1429837701545598,-4.459397968965355,-1.4653647367262568,-2.414991286065173,-6.336561210717032,-3.296698456102719,-3.8046123451143483,-4.3558263563815585,-1.9035656312987248,2.627284182810318
73,-2.2370437120251028,-0.9812220123417085,-1.0097514344847611,-2.2261627543410207,-1.0977636422835262,-2.3413184499584236,-0.1772489838312391,-2.3441900694470648,-5.896921828654982,-0.9975983333673915,-0.9244856270340502,1.5316410653204606,1.2264379047371745,3.3008417264834957
74,3.1633121103220514,1.393849394443361,3.1492897923256584,0.43505528886772366,1.4947945599294272,3.2764878817104206,1.927892605341391,0.32054480123610607,-0.0907923620471937,1.7960546938477324,2.1446148550588306,6.372040981037041,2.296765413279553,-1.0932171693668755
75,4.512343649312485,1.4005994361449299,2.799305828759315,1.712362663081153,1.8239795491988884,5.23062907187541,1.8508348670139112,1.2688674984390653,3.303314902931478,1.7497296663881363,2.069073725356342,4.31698305215452,0.43988810689285135,-4.275723838297335
76,2.301976717226506,0.046007976238880394,-0.024817518679392657,0.19355902859724758,-0.6001617876433251,0.35186471448782947,-0.9698877065531295,-1.2842927616500641,0.2325601163027472,-1.1845167473900458,-0.5160561173972227,-2.4604823801938194,-1.8308713839149244,-2.496686580898903
77,0.13393882159528134,-0.4029335632660589,-0.6670150331605456,-1.1924810144315798,-1.5185367236408047,-4.6704700923558775,-2.24478863332391,-2.5778300371178324,-2.496155857705212,-2.4552727005751485,-0.9629391643906244,-5.995056266402082,-1.2842517498414716,1.7576844901683613
78,-0.001009440968814626,1.3066854832923915,1.1444865871634424,0.7752894337361493,1.5829273540735938,-2.240041407433861,1.1373101883246333,1.6025458159009878,2.4766104632391657,1.5204112489816746,2.6634175861855702,-2.2556532474722117,2.416521550795741,4.336080971398069
79,0.5768465151114907,3.5723862111564064,1.7060304990416084,3.930458416909074,4.508437197492473,4.464432938001292,4.807079095081948,6.968663417918902,9.933226889875481,6.9801309180314615,5.596488614431603,3.8686765499585034,5.456548810096804,3.9780920962184774
80,-0.439728515829952,2.875223573060771,-0.5376628927431844,2.7995900729919074,1.610170806287066,5.3332146145402675,2.031960066837366,5.482158106196046,7.937873048789621,5.954021655077741,2.405867841467518,4.917696610087863,3.270225734430397,1.8307316679765446
81,-2.728536040073844,-1.6278223763870623,-2.6199980726689542,-2.8660474184486096,-5.195911015648301,-1.9929960117731662,-5.321487330104815,-2.8470553731196055,-4.431509960712549,-2.7356991343564103,-4.682897744210577,0.4478184321226245,-3.4891331938427848,-0.8689963052466778
82,-3.2291838134713786,-5.673038814066352,-1.6873236456436476,-6.303595735849237,-7.465324855936792,-8.298011717451637,-7.552412719372271,-8.821720747932131,-14.297564454485718,-10.058927898723198,-7.9012128156876065,-3.1201454515939413,-8.03879955763586,-3.4584995320711127
83,-0.5990987572997711,-4.723729898277016,0.5972417780495787,-3.059800150798737,-1.4791332980623886,-5.37510309905063,-0.8035547694726384,-5.984357143855813,-11.460991808338365,-7.81571162036618,-4.174975339661583,-2.0108039513271985,-5.090039036856878,-5.133913073326901
84,2.1960007686802885,-0.04140434128887308,0.8172902585902411,2.524538030732446,6.007439040762316,3.4268885572676124,6.612676923604394,1.428094420321762,0.002936269951696893,0.7827985664837425,1.5008639226411182,0.1879883212699428,2.122238763788505,-4.4466788250426
85,1.9466055075424429,3.1032976495867253,-0.6724434435836308,3.978729272970152,6.450085907300062,8.474416013110934,5.723823009736572,5.114886926268122,9.073999863982827,6.1808003257697015,3.884333515386363,-0.6857196049850003,5.774334648779377,-0.5196730426690852
86,-0.09845092891261435,2.4096318377436985,-0.655549464854954,1.595580395055511,0.562467800141651,5.490009273446757,-0.8873708586604134,3.168906934460006,10.101862957612816,4.936504426034098,3.5971172235575226,-2.4836906288324245,3.268930275517892,4.534517047545128
87,-0.47137796286350847,0.6521691520661658,1.241978298075053,-0.05586800130079489,-3.7970913902018486,-1.5700659314954266,-4.102976030217218,0.17429960149761775,4.93513405870949,1.6192712807126985,3.1623175782713897,-0.7226616700533144,-0.6769477064706283,6.238362276523698
88,1.2378705150801452,0.9675847965985102,2.1752091494584573,0.13746185694573382,-2.6705788877837917,-6.343942264573474,-1.3397040218616652,-0.34566770800222446,-1.493220616132631,0.3951095986996088,2.0203737855783217,3.784147573143117,-1.187018597484748,3.094491272758494
89,2.406857602033649,2.6307308221204595,1.3203088620395171,-0.061039678333581815,0.4133830119026658,-5.48820996855167,1.991483649853877,0.6936231278296348,-4.447388537121164,0.5682234682756946,-0.820556889805594,5.933277427803892,1.2309620654529732,-0.6276308250849164
90,1.339123734314874,2.3159063696739945,0.4833977671683658,-0.9924839402957462,1.3243698109313078,-0.277971176300363,1.7162365090407938,0.9445509057823117,-2.5855525712860805,-0.12294914125922533,-3.30671564986421,3.1742930513000753,2.4310381659956093,-0.9094666225473622
91,-1.483996952133655,-1.4970992828498542,-0.6163391154798632,-1.166991633262954,0.34201615511819317,4.463672829551389,-0.8028835351462137,-0.5383499422889524,-0.1854321008255591,-2.394053049854404,-3.5021174470515226,-2.390532941691673,-0.4877922799099381,-0.4515671461331331
92,-4.51553077424485,-6.039902284153828,-3.5792285429978454,-0.8499934625504422,-0.6106101059115264,4.339569453075533,-2.683179970263464,-2.989359966357958,-2.1543247729629815,-5.162210062763221,-2.6883166352175225,-6.937337221310158,-5.684046463088875,-3.701722147247775
93,-5.139149369902557,-6.519247399498065,-5.375914496969364,-1.1113401823666682,-1.1056942746476108,0.050447652592938326,-2.5474595815637078,-4.07524719088593,-5.818288580114603,-5.397674733675795,-1.736715252163979,-6.945373304522518,-7.03149237855994,-7.336624245902175
94,-1.0253748445883382,-1.3909905051713884,-0.821449588863338,-0.8352305099161957,-1.0009215555907913,-3.254960731043858,-0.014028248517911103,-1.506621287748669,-3.410212236133721,-0.2898171902653358,1.3348218894148245,-1.0675673556863614,-0.5454278796667891,-3.6675137883232884
95,5.484231602490582,5.0616900786942995,7.037053282818671,1.267239060597751,0.33926972683745366,-2.3105611336816665,3.483656898269055,3.302142460204111,5.397350204832408,7.300870602893666,5.883052917270264,6.51561417779041,8.514175667383169,5.899474372107139
96,7.313532376391603,6.801546296914339,7.630207651180339,3.1583460990223005,2.076950904203644,0.6341730232487013,4.107413372555819,5.144986842808265,10.474397011877628,9.024714610706852,5.76944751667316,7.843578157708595,9.431534412915589,9.845540641486586
97,1.371091465703949,2.8874001909308213,-1.6193695305212705,2.038081969703939,2.0194613348296233,1.790667779525636,0.13030838507271975,1.52911692639564,5.113730695884087,1.4610726322465466,-1.5802664814340166,0.864629628802565,-0.07061879149709506,2.8425607722369786
98,-5.267478227961546,-1.4253682996892758,-8.771628391056698,-0.7708008066365698,0.004672461137176392,0.9975180091066531,-3.815196433486671,-2.816985462876235,-3.605446211748306,-6.954320290105141,-7.674585581914581,-5.677820714127364,-8.727153504610497,-5.222519505559752
99,-3.8707692839453425,-1.5478240882894023,-3.5277723133534544,-1.6557724584176083,-1.4220152832732993,0.5077276731350094,-2.035195348966128,-1.9573918704847064,-5.12695263065189,-5.930753518524065,-3.3184397519085507,-3.056950670171258,-5.892437347256185,-3.446579805413488
100,2.8031754249933125,0.3097109048491001,6.666601646792764,-0.632768266122766,-0.9410230094682289,0.4331347484089793,2.967020646640382,2.247359047718671,-0.9698208000881737,1.9118666868154977,6.107624318279405,4.171967481638907,3.4371063511294753,3.4074215649298325
101,3.688390869146603,-1.1821337249745154,6.545219847296697,-0.8561002945952334,-0.4031883594826217,-1.0599300467924313,2.8214667225921723,2.46029039373414,-0.7481020752704307,4.508615794207922,6.5240138162156835,3.9463660208617846,5.662262605906346,2.494915054906547
102,-3.5549307820396345,-5.44333851139888,-4.229526349181598,-2.3382502585880633,-1.2194880238799553,-3.2922196274691156,-3.653781091801553,-2.7555252323519324,-5.237887726499914,-1.47150733195299,-3.4971092909494867,-4.630443386040514,-1.4575829549254644,-6.093307041473922
103,-7.7882031645996275,-5.480065168277636,-9.86918119485014,-1.3591392376809304,-1.5017676928291839,-2.733739181859779,-6.92919900649014,-6.010902062060827,-4.7533321808522695,-5.650640083693922,-9.352782176700346,-8.64368069504709,-5.928548635212131,-8.481116796039572
104,-0.923493579970905,1.6564728175893684,-1.4805690112819299,2.64738316555959,0.6974560739364926,1.476138208055522,-0.60260413872266,-1.9557408041663622,3.940181490984106,-0.5693535589583048,-2.241534042307115,-0.7907377054512172,-0.25750506858118627,1.0597724586833346
105,9.060514889083322,8.744076827961557,9.797304871702016,4.7876483935566965,3.3762818869963667,5.037377700412983,7.868947760027756,4.561164369287986,10.326114376267045,6.3669924763134516,7.508486114654829,8.837804315900412,7.1899111344994155,10.090074579987968
106,8.991293848537703,7.167189205249461,8.78373639269718,1.7977030792639552,2.929502708822383,3.8407465696563574,7.254409962322795,5.561306098676638,5.482704125410661,4.697167653909125,6.521582552210164,7.52416256473768,5.189527195962523,6.582402117746355
107,-1.0759013924124237,-1.294019040920943,-2.7078244609060347,-2.8877405387432207,-0.5201475377264457,-0.7051812459442157,-1.282653273030351,0.9762969022470515,-4.188479983507139,-2.872882113615901,-2.098883129121086,-1.8572621817216697,-3.936590853244547,-3.26699807274223
108,-8.861111586963142,-6.791567588952957,-9.747797636426958,-4.13240934293856,-3.1404073941725024,-3.9995934594002915,-6.54192629974352,-2.6771477924268727,-6.639985452920968,-5.493062030736943,-5.582764475902805,-6.7178727889071315,-8.624805147270907,-5.851761394096867
109,-6.831374251613218,-4.269413514686442,-5.171855802366178,-1.6714608485981055,-2.5089325124037423,-3.7547636235543855,-3.5668150773807565,-2.0757204967403204,-1.3665537001970964,-0.8536908530672511,-1.0964796201846307,-3.1661187624674345,-4.05772341330227,-0.7227261821443598
110,0.21674588778050305,1.282634247209268,3.065814182166807,1.222314149657818,-0.1194768797663875,-1.0586243146624557,1.3007757340846546,-0.011550332943243955,2.3306136753294013,3.281166471562592,2.924017599368498,1.5968683743125658,3.71230408444555,1.9339865561655574
111,4.565320140397127,2.914297294470021,5.309475896428543,2.6233445900504986,1.4284443880201054,1.985299009334851,1.8499536832641124,0.5223458593899695,0.6212064543658093,2.3528129161594955,1.7806290128869935,2.289815436869095,7.334142931856937,-0.520445008438267
112,4.749188003889005,0.3739306343385988,2.1560106387211784,2.4986834768269808,1.4325812519161871,3.415839199981736,0.04816518129579843,0.023118978285436242,-1.3272127866164762,-0.06973491173047464,-0.40260328236286114,1.0756683408895296,5.286986208422356,-1.1021565382030993
113,2.952616776629181,-1.5971195708809025,-0.23422716089674933,0.7839488085767066,0.6349164980467523,1.9189295477823678,0.07419398470442562,-0.2713470713603756,-0.30460298599391294,-0.868234362477004,-0.4009685995846997,0.5606535957684583,0.12285048828811139,1.959752191781051
114,-0.1999168626610603,-0.5126530946587909,-0.1708639641945332,-1.9301399081682986,-0.29954716868998943,-1.448966118046577,1.1846763731236134,-0.6317027649580053,0.3783794964526195,-1.6353203820439821,-0.6354987453800823,-0.19786702604744688,-4.878303635703279,1.8528840718364323
115,-3.982225247909269,1.532821137137161,-0.494497491756434,-3.2820461001674683,-0.8411043535025964,-3.1785234811802856,0.6212663778434748,-1.006352327034364,-0.9376354110146929,-2.6480715328411457,-2.2512437487903263,-1.5184271987632088,-6.582328025489546,-3.1462842774077386
116,-5.128823280114071,1.671778033653682,-2.13614361603733,-1.6049083706090483,-0.5043266054469286,-1.1865884473196544,-1.011199622576918,-0.17513594199827243,-0.5069641940382149,-0.9793460690032753,-1.9108581995543443,-1.5161115130648075,-3.6114914601553885,-4.7865849345183
117,-1.7676942765334138,-0.2331766577724804,-2.8560144355831385,1.305516509763631,0.3397945656491609,2.079576878093587,-1.3306623263628252,1.7200850630504623,2.9598700959254938,2.8235163587121415,1.4285895671984457,-0.10302878159784978,1.5384787565339793,1.468852271190655
118,2.723983934106186,-1.9349339223997144,-1.3056370175395413,2.286253541999221,0.5691109814238287,2.6424789436851723,-0.20745734842874336,2.415258282943246,4.432205971783013,3.7145870793330733,3.5026960147227832,0.5775609182316451,4.433921995849383,7.678160926538855
119,3.724700407551523,-1.4041763932252411,1.3250364054067172,0.9828070360406113,-0.0927592369000591,0.2827358584224503,0.8753638532260751,0.8139030485563522,0.747180770223924,0.48766364493428227,1.7613512456968816,0.43885757731138697,3.5312041444373627,4.861413063172687
120,1.454364814029544,0.8839237255891425,3.2542386811242374,-0.2845547106625202,-0.5860948839031079,-1.7380620829916402,1.2463623250138778,-1.2435686378827933,-3.8777696111929933,-1.9181344602932915,-0.6562614825507941,1.3056806461631172,1.2062291705232044,-3.7346600600076023
121,-0.2967036870086297,2.1799205551206655,3.3663032712051426,-0.19785499022522082,-0.17267651542796306,-1.6230446190598755,0.7173169348143352,-1.8700837596722957,-4.615930261297872,-0.9484848796963109,-0.9922870422789212,2.2581534172957145,-0.09905007534345116,-7.707576828633555
122,-0.0380322154105564,0.7407523807716957,1.3294041871905211,0.2678013563851082,0.4754475283312345,-0.6886848604473943,-0.8821593170248474,-1.4875234100381498,-2.4815665602020527,-0.10343340770538201,-1.0069908823226983,0.44550188031779187,-0.5083484636762434,-3.611255888828912
123,0.20459819125870024,-1.597826158251012,-1.6729086607944268,0.007285240430332407,0.44990732334598316,-0.1310870808612771,-2.21935150625491,-0.9007202053487653,-0.24981936096206658,-1.3538785275004737,-1.9237340073343783,-2.9181341946250927,-1.1065052937740623,2.422072762794315
124,-1.0573421133701992,-1.7282925430417044,-3.27142002839827,-0.6964654541646922,-0.08539855689227638,0.6606853274876848,-1.090868873198915,0.415647750881962,2.3208029983395826,-1.2652982316812063,-1.2086100386295642,-3.0423231151678585,-1.817746137328962,4.2230382042934185
125,-2.497432394561926,0.28798551560970204,-2.486519633099906,-1.0228392818929222,-0.40863981797362064,1.810738260095055,1.8301239680831338,2.253337853691187,5.096317582884093,1.7103559112340798,1.8739781625382352,0.6073243613058094,-1.862527735716215,2.2025451841350554
126,-2.146009703708837,1.3343609090482673,-0.8793245660641372,-0.7283063520093646,-0.31300657301353296,1.7889661104767205,2.707704306072553,2.453100678270821,4.726446752135753,3.0841099199953605,3.1155280648556514,2.600564518637107,-1.1024264171771996,0.2641617405314424
127,0.0008169936100504635,-0.02501881738632468,0.030309529892676712,-0.0972256635823355,-0.048658095998061944,-0.06529994916442874,-0.016473679982100278,0.0929464404615207,-0.13972240733526997,-0.004370797221933863,0.07657032115790827,0.034468404478859155,-0.02382127336198234,0.0040160980582324285
