,AF3,F7,F3,FC5,T7,P7,O1,O2,P8,T8,FC6,F4,F8,AF4
0,-0.0943565157305259,-0.04167823859109075,-0.06556819662074898,-0.009920790291122306,0.026367640761009628,0.07274660280377379,0.0014149973996495854,0.014126296110304193,0.21535403343220108,0.12513269862732876,-0.04591812330015206,-0.09921033357101694,-0.00035403993467242323,-0.13452144727154577
1,8.157892160518433,4.583679600115093,6.503988531436663,6.411921747516115,0.15685843190632037,-4.8984793637624175,2.376318370212386,-5.324531585844327,-8.257227690403948,1.3985408249656412,5.932779031036506,5.867207703905572,10.486412316482792,11.933111589962204
2,9.637431693632909,7.713034057198928,8.117260225205332,8.209832958953477,1.220559770994385,-6.939772420246855,1.6754154445005833,-5.255455589237882,-8.735868877414344,3.409651005497484,10.080219135471005,8.475787514985587,12.6374372544684,11.365941167270245
3,4.710341794400454,7.1679575193020275,4.341778406205312,5.158201077425393,1.9206978427927706,-4.866652460139983,-0.5645176148663773,0.11741520874233287,-2.141484375779575,4.004671087771619,8.914730956626697,6.102168102365603,6.206268126516079,1.698622881732066
4,-1.1357700724186777,1.8234180793459664,-0.9850435445236084,0.19476488113066642,0.42980033564004944,0.13259610718530962,-0.6698427195299319,5.793072457016941,4.77538261972511,1.607330612354268,1.292425153856047,0.4624233755896818,-2.071735408229822,-4.359572382203924
5,-4.457310030913548,-5.7551390425020825,-4.231362851167964,-4.427831023239821,-2.382163038434526,5.094728499220012,1.4227463897929225,6.959082444035493,7.8900841494400815,-1.2274882543906296,-7.474067084850223,-4.465615304251193,-6.3906378760419935,-3.082774036651858
6,-5.74405288506773,-9.917536176967582,-5.012240907223199,-7.54352598362195,-3.3499164463184132,6.695168016512973,1.9952075161162237,2.6377200055884416,6.76378947161619,-1.8210022859362105,-9.910854865377681,-6.153179731209783,-6.566903543320494,-1.80387695293643
7,-5.545387443833872,-6.981254278308504,-4.472197395807914,-7.142356721001494,-0.9742362487672288,3.563283004633467,-0.8116242921795638,-4.240593398646178,1.1816837876564483,-2.3168854119558744,-5.254496473914798,-5.300633927419557,-5.3594658966758475,-4.720697119491058
8,-2.8102097897873772,0.6228814432948732,-2.3561217920329263,-1.7606529951245848,2.4049818351174745,-1.8404003322319578,-3.931861728930089,-8.67900502049306,-7.113970842544407,-5.365614638640079,-0.019379427599834118,-3.2628169161056633,-3.6911726419563062,-6.099428555102226
9,2.268571338651766,6.689156831587072,2.039578149846565,5.763488268613533,3.3199307931824213,-4.770330788484976,-3.303047520184504,-6.610511465599566,-11.24486044361373,-6.785146896258455,1.548114097075036,0.33163387803751376,-0.04968741775556376,-0.2340868446897182
10,6.6772248202637545,7.444289693147966,6.603063035771806,9.32963273838891,1.3160339065154927,-3.027688575207704,0.7507659152930428,1.345306773402423,-4.96309952869288,0.20266824866362232,2.831334711345966,5.449591873274374,5.962797042299673,8.430925567997182
11,7.122684343596191,4.004842103696567,6.949715314695558,6.001167113160363,-0.917857104070433,0.433759337430431,3.8621343630641984,8.726606768606551,7.344309396874929,12.398843007934063,7.17336847601727,8.75525056358216,10.78739775208949,10.197069022307552
12,2.9826513250075997,-0.6230312298434663,1.5298382935285824,-0.854130891583748,-1.4032738938104492,1.2021529527235462,2.9219592831334107,8.2302298773818,12.478585208922397,15.871660160723644,9.520095377461079,6.050520017789101,8.941302412647376,2.7273647525862725
13,-3.2067689556244914,-4.32986108384888,-5.343902315332229,-5.890808581743479,-1.0474387374888883,-0.8562448279091341,-0.4981521126978513,-0.2595152800462812,3.7012853202020173,2.8236113421506017,2.7109600695739897,-1.9683485738486097,-0.7810974798936056,-5.995474254795372
14,-7.087777883737625,-5.457844699678667,-7.304446250328061,-6.700243678221486,-1.175844433641476,-1.6337397536455185,-2.403918482165683,-8.01481400485448,-9.626899054667069,-15.444016006199428,-9.51986220933589,-8.766806390359664,-11.525647124392947,-7.768980731154637
15,-5.391193710894655,-2.851611370856668,-2.664880695146759,-3.6262278816107116,-0.9281184374842831,1.097351124572411,-1.0561480364110838,-6.545764959437346,-12.237328370720851,-19.42819463758886,-14.142505913003586,-8.249105071571616,-13.478659347130039,-3.264754301510499
16,0.4818940554937959,1.7820180115435882,3.614390377291521,1.6581312022055288,0.8326327463282341,4.030712060603685,1.4287261792565107,2.0610978774083137,-1.1281652392035015,-4.520111524212487,-5.524956148759378,-1.1532497965341952,-4.240251198038725,1.2510592045024018
17,4.666241214068173,4.012163946973608,5.074635358301855,5.514111068526105,2.4764234694797005,2.7995460912006798,1.8229578808869942,7.299531514720597,11.30410974990903,13.183717676478084,6.5153639305115,5.7022050274544815,7.687499641113822,2.680999362081793
18,2.9788624074421395,1.6196106926555798,0.6560751223460948,4.056030336739014,1.4038872374524036,-1.5321872600547368,-0.600738461576134,3.3881519322916427,12.372297682757623,15.937489807325704,9.525051024694754,6.187202975123687,11.435176951816551,2.347817820126093
19,-1.7215356449304529,-2.164899936424616,-4.086179452831021,-1.5191003125959475,-1.4920312000057778,-3.6278745951827536,-3.2816495166468256,-3.8496331885741033,2.5761973283338944,3.9272186576584867,3.6730818500471694,0.6733330127872166,4.819649390170481,1.1509258620232476
20,-2.9750734231629146,-2.6153351658160267,-3.2759118874042716,-4.480547434683688,-2.3187130802159697,-1.3006856779293638,-2.9409733445132042,-5.535444754828852,-7.63243511228471,-7.886981611768941,-1.5444162731059798,-4.48494641070732,-4.192404344170312,-0.9884665531315449
21,0.791599319869229,0.5940020636750073,2.212336351899483,-0.9134597790109009,0.1728457245534835,1.6543335976615052,0.9081404333003745,-1.1409796604596798,-10.328858785635854,-8.619345979753493,-1.686420190882735,-3.503876582477279,-6.420288699315094,-2.058730591890634
22,4.522550595573787,3.690696803237293,5.726221745341353,4.286244168794174,2.455420048404591,1.1843691696585334,4.92611460513966,2.798170633992894,-6.083621634758038,-1.5442115010949236,-0.7544362218328416,2.460233788548857,-1.0210780059550035,0.18024490948574515
23,3.7181998951190893,3.7902667867672437,3.201952810542181,3.9516317256984905,1.3394737249649118,-1.4886998441657044,4.914806157879383,2.6359673890383126,-0.00799819771046139,3.6219372573957473,-1.5858791843359172,6.423107386099294,4.229882541814616,3.5358068809712377
24,-0.3737844373541589,1.0762967697029815,-2.1146802481774727,-1.2197217406851848,-1.493609562362636,-2.3549951078713405,0.16451654607918467,0.8813256290184942,3.925496304167617,2.6185798122390755,-1.4004597075889078,3.5512565700697323,2.3583125370255766,3.295133247487142
25,-4.035802259495448,-2.931010829348875,-4.805187623694711,-4.376477178773954,-2.412833653451173,-0.5427615304555804,-5.410581002632029,0.1369514260190441,4.583337472563791,-1.288191272070352,1.1000176944084126,-3.4805108220699092,-4.113010343274077,-1.1157987126721391
26,-5.593746678463929,-6.2110281055919385,-3.961618425729697,-2.927529773293223,-0.9832787604104046,1.3702131317142554,-6.69777295744428,-0.6279537069275614,3.1071143786506394,-3.1971241292570944,1.8037738314545984,-7.913791846037986,-6.010794501279525,-5.169924259821987
27,-4.585493854030495,-5.9001732100567335,-1.91957536910339,-0.8742337727112375,0.6360921993470492,2.0878717065662604,-2.1152440518582103,-2.1661745027480075,2.066087538646141,-1.2649361411651836,-1.4307894427150984,-5.996689792698837,0.48748516205113035,-5.047808095980118
28,-0.42029446835575746,-0.7395986365508093,0.5409391569139682,-0.5948818343500822,1.4967437010136089,2.896026119220797,4.637637613060258,-2.0773133630538823,2.934923729307343,2.778980056844674,-3.7102279418106807,0.23223131246331666,7.656888155888656,-1.4638134442151922
29,5.146988660076507,5.680625439640879,3.6057253729272776,0.7737219916051505,1.8940003071597928,3.5639204105099735,7.592580569643244,0.9768319799084493,3.2575536559350144,5.28147231729403,-0.8349489859923981,5.569026108309258,5.457535001040167,2.338863388443179
30,7.5094951738898255,7.598931924565049,5.263183669617888,4.5191906056862505,1.1785570557553684,0.9753146293238509,4.034696122813275,3.5706509731385014,-0.92944459427359,3.5715075305887445,3.2441647834549197,6.232878122445413,-4.264111351551777,4.068279567854395
31,4.409837019770008,4.005086495647439,3.2740688268058777,6.178510872225776,-1.0462770931025693,-5.367597787023676,-2.7767366558856246,1.9237144296846336,-8.279702605818892,-1.3196283199160672,3.0955461500917005,3.050843726757689,-8.563573101583032,3.6390151614278055
32,-0.7938258345469773,-0.4237886675408163,-0.7811140899412534,2.092648301856452,-2.6635115910998612,-9.57750635961845,-6.875848628126631,-2.11105225387247,-11.364109447141866,-5.4003023355438,1.0531518479996231,0.07971940475225042,-0.7998291699227289,2.3974073943706533
33,-3.6972160281571638,-2.35091054806766,-3.288310869930329,-4.306614518969007,-1.4173286925850106,-5.5250239357929045,-5.3118164657493185,-3.4808628095778973,-5.684428287168442,-5.700462425482928,1.9713276018403694,-0.8074580330371851,8.803576874476036,1.297248252231473
34,-4.103603030865132,-3.581682622527359,-3.478654471007298,-6.8611529724115545,1.202945557732756,4.332467008472876,-0.07571417981843132,-1.099213535586859,3.8795754286735034,-2.6238671404365426,2.896692709519856,-2.0932465663412234,6.518401972643573,-0.36356524162869075
35,-3.954801235407816,-5.628702385076834,-3.002453446774347,-4.333170075961582,1.7913768439593278,10.614332099469394,4.653215780040545,1.4300130305579313,9.321977064807275,1.6138478467201793,-2.3042210789891224,-5.262203014543737,-4.9638726224504035,-3.5229059390466437
36,-2.831302695049909,-5.205428054536124,-1.8695052383672606,-0.18748481199474668,0.15853438663840652,7.8289810904601085,5.735688437265976,1.6631601509398453,8.990583381311263,5.066528765554352,-10.082897747548413,-6.353567006333689,-9.730030844471749,-6.643963846326075
37,0.5592355445109358,0.344044036866437,1.0779387828319407,2.761867440503942,-0.8128789825479884,-0.052886698806400324,2.537630221888432,0.851332729297464,6.301939554469914,5.9697731548201975,-9.591143197532872,-1.3962236993256212,-1.726182341623433,-6.259568148020493
38,4.2045379811265935,6.6018547182814995,4.251112916116833,4.042903378288403,-0.15110667530317212,-5.532897948437994,-2.510204238184245,0.47433778019699474,2.217561454360388,2.850105433708998,1.2434742929072449,5.918252963627482,6.594505732378161,-1.1079183926308533
39,4.605373422565226,6.898455743715075,4.228364275284042,3.62673210959172,0.13322071278211486,-5.679041091863758,-4.966175263465168,0.1193473426239437,-4.4527770581041874,-3.031829122840844,11.465893912069085,7.848691197092305,3.647278897632579,5.683763885616632
40,2.2066489745281435,1.9081255056236668,0.988288506020603,1.6572728888385329,-0.6216764492637714,-2.8520269984517976,-2.3256527002577885,-0.36140859840449063,-10.513929038229564,-6.585301704959519,11.43870242748617,3.213774151509953,-3.748762628646099,9.41103113730383
41,0.539517566670678,-1.5931442507339897,-1.6515958784093179,-0.6518508521848438,-0.28397301520895746,-0.2760570893147425,2.51478801465054,-0.1148215675953419,-9.660830291105786,-3.5583565275768874,3.5976577757437673,-1.5662980256658483,-2.1973741534528015,7.710603603729777
42,-0.03620489911876673,-1.1262020423077828,-1.7068048255409904,-2.206716556827831,1.6760056177451654,0.8113857758497315,3.6683392139901203,0.17443226884734003,-1.9400097192540415,3.1786623244695216,-4.118073322846196,-2.386636371803241,6.077623889196618,1.4449914655724354
43,-2.5286526764497013,-1.182176768065387,-1.3992211369049616,-3.2809504487907493,2.1111485594588877,0.997107449713607,-0.7604200858462891,-1.410437802108939,4.434576649118717,5.454972740549819,-8.146564905348194,-2.1839131608069002,6.437665101599967,-6.256321122327106
44,-6.164377808467241,-4.1559673699318935,-2.3416342175568867,-3.720253340108021,-0.7894495101610256,1.4370069444912352,-5.507810874624162,-3.664908310782017,3.959774215472965,0.02692259570369246,-8.296813992010964,-3.770219482485159,-4.442895346498362,-10.736412955496132
45,-5.126218255974359,-5.286351370022629,-2.1679593107298003,-1.7193107875424365,-3.5575968208500255,2.4026251719862537,-3.818763342104147,-2.2543224237282193,1.2548868586238577,-6.141848100390097,-3.6645386212415687,-4.021626685140842,-12.025580096641693,-8.042150233281967
46,2.182088041820106,-0.6194161858535159,1.1027928064537145,2.8040092752098364,-2.1493799763685058,2.7830368610874507,3.932811757955993,3.327334635387446,3.1063066951421967,-4.484382231682144,4.070501082688469,0.37936113973604785,-5.022385466132111,0.7573591629486561
47,8.110848332726247,5.289457534761622,4.353109470513267,5.650256936342254,1.6735454707706439,1.580142297493248,9.457760057200975,6.851862456300697,7.413983289853192,3.548904703718092,7.947309045690268,5.670248924372032,8.065495264274682,8.545322324260932
48,5.3090401545968735,5.407842815849647,3.1368174288796444,3.1683623007005455,2.835006370104786,-0.700133051190026,5.793315065954952,3.3931859240912816,6.289422145700801,8.295772183703523,3.558729343025386,5.34289338040305,11.049114876251636,8.541211046322314
49,-2.5250514334223135,0.7206880501616735,-1.3106795826254238,-1.8168305314035653,0.4968608765948762,-2.953986867071114,-4.081965575983466,-3.058069817340647,-1.8693687261751109,4.492915446300862,-3.0038731806219543,-0.04153357157735624,1.7735619938031426,1.8363906551771843
50,-5.540023889783197,-1.7395525196588002,-3.2803171304701277,-3.4620067854975067,-1.2344233510132283,-4.4983600392492225,-10.239236936028611,-4.93443085333721,-9.915006116344584,-2.999346828721963,-2.3955615305715803,-3.3445521519222705,-7.092384423036833,-3.9530242559150173
51,-1.300555815515684,0.04740246104825116,-0.7928646314338313,-1.2169360897687889,0.07438179710070728,-4.227220047092187,-7.084605666531197,-1.7147342293974046,-11.436423445101843,-6.705549590892018,3.878137021496967,-1.322178884176625,-6.1426301298078725,-3.847865407439126
52,2.9413932525444775,0.8499542227287074,1.7662631632402366,0.3706632916864349,1.8678421235643257,-0.8859845449538842,0.9880319824584105,0.47136850407982467,-6.877997218671437,-5.029823863454829,4.652020791957956,1.140634247339192,0.4542237460363471,-0.5871330539250759
53,1.4841732557016178,-2.22436504704087,0.5993638548568545,-0.4659163062640313,0.8254612639244908,4.125506053800549,5.888368968783385,-0.9918458159138767,0.37825222833472183,-1.1867259050255208,-4.1035403978325595,-0.622866942108898,3.521274184769073,0.5108804595550237
54,-2.3923132047552262,-4.565103118376637,-1.8795805550547902,-0.6904200822142575,-2.4154376534454447,6.532295996928889,5.056011595044091,-1.6325278320513101,8.031880582473296,2.4397684206496693,-11.564917723866168,-3.5110351963824526,1.049029704130277,-1.0949070507346643
55,-2.5158106750856595,-1.7181128739483869,-1.275024107212647,1.188665606856656,-4.160583027786877,4.045132634014687,2.2927805310542,1.9622526670588265,12.898518905238724,5.1901278186024244,-6.156805888355007,-1.7282535300336335,-1.528690595846234,-1.632465665154723
56,1.1193884655866408,3.0645549984183944,1.7327318175292707,2.2888885486941346,-1.9894350398779679,-0.5389082733023691,1.0566323593021387,5.777944233519333,10.386914100746942,5.4233273653042495,7.7432252331313975,3.573185054947722,0.06973060377073022,0.6677608322543553
57,3.2544205139013336,3.781033107219757,2.517313222197801,0.5754746036718136,2.6444564945790177,-3.2528809517723705,0.18854435947951095,3.9420224636256114,0.09643380795107082,1.3877428867698145,14.144539663631793,5.224613843387679,3.5479022892018066,3.062835184611374
58,1.2783853080458327,0.7163144319480741,-0.30735527845896227,-1.6153402571581543,5.618702962226285,-3.6596270037783554,-2.7647304168277254,-2.4223093154574395,-10.652617471708721,-4.760721777890177,5.48885518224991,0.46164642261025496,3.2253954362582635,2.4347184869158336
59,-1.8006198458820493,-0.9961129708850955,-2.836565817418936,-1.4888474354465784,3.89100697211161,-3.202273341626244,-6.2274749008059604,-6.3464089600575475,-12.808143375303883,-7.308208480808138,-7.987350811641919,-4.71362681586695,-2.4243577747134304,-0.6190605807216619
60,-2.287183818800832,0.09231340190770894,-1.690704664400588,0.154587639443132,-1.3635663178800683,-1.6440936813679383,-5.513469817228243,-4.055134006987117,-5.051199149923332,-3.1944312181563093,-11.376228750688483,-3.8023035616819527,-7.662805690884942,-2.951225018106874
61,-0.40167162062589973,0.5130407109396888,1.371802831148212,0.9272728015330078,-5.446582090297609,1.4157502808159523,0.5842103571369635,1.094369433435116,4.7619139343113215,3.831884789776041,-3.0927387392145134,1.3608670066326218,-5.60645169123441,-2.500155390093713
62,1.2368016881963202,-1.2148300910523964,2.4345557314542803,0.39098447452053486,-4.60914777497852,3.739798760736595,6.846064835190282,3.9541332800134374,8.038883297655811,6.934312197231956,5.3308982780889815,3.804062516229054,2.8005821169584646,0.2179220423154231
63,1.403673792167379,-2.1476014752046257,0.8330763698701694,-0.3172404763101735,0.09315917214556271,2.9502824803634486,7.316042266364611,3.343598896974432,4.0658633194241505,3.525596396262928,5.576595098608683,1.354518075031222,8.890394759579396,2.9615830677125308
64,0.8245671422828914,-0.4113185994228196,-0.7034150563388366,-0.514793476934259,3.9055071161709938,0.30493292764807567,2.192862862685509,1.15991169129476,-0.8098568363165792,-2.24801755808403,1.6192675375479748,-1.2705060774703052,6.540295217903059,3.406807320371626
65,0.23030804826922704,1.6765379645927925,-0.3457080876975191,-0.11247541204178248,3.445672071351411,-1.2751041309359878,-3.3424145279269144,-1.2536231846530337,-1.7506298761322818,-4.5616495605198555,0.41490268989289764,-0.38435492477037353,-0.625664062209913,1.0444807865893377
66,-0.5145611719929248,1.6131753922578913,0.5378011472697081,0.7358774380324739,0.09286198583693832,-1.3665153701418842,-5.553645373036035,-3.2972519019885955,-0.6819302389150956,-2.50858405983373,0.5981790771513742,1.2331514225893205,-4.733336019103424,-2.3022596307412853
67,-1.615226549526111,0.01965222678410697,-0.3657402874873099,1.0542653961438648,-2.118794409797853,-1.2331933119241314,-4.385277938796312,-3.4402739537411438,-1.6790680063010845,-0.11943409067080935,-2.9536162291628427,-0.6453165881419872,-3.8703141447404152,-4.477930024071257
68,-2.4019685684025585,-1.400585167227622,-2.772635589143957,-0.20515064928498422,-1.3294057979206362,-0.7027290710857086,-0.7942482021348375,-0.5157331633284528,-3.6671439847298157,0.014311060123583214,-7.427150382047124,-4.277705370075912,-2.6781258556621683,-4.4401541971257705
69,-1.4192096357960102,-1.797993427229452,-3.372670001022303,-1.925680229141783,0.5632808696746313,0.8786599500669826,3.90294206895964,3.489690305763411,-1.7620818195678134,0.082644189163701,-4.386813058709219,-3.8529209781249816,-3.4255101713764358,-1.2900565247956608
70,1.7296851800003525,-0.39833330366529884,0.19879433757089077,-1.4934383928710429,0.9871642682243608,2.0706292593764983,6.214157190857668,4.5809149743704936,4.304502990741108,2.2792722155540828,5.676234685875017,1.687588221670704,-2.030268472719515,4.778658582161977
71,4.346970282366961,2.447089900103853,5.086501999697954,1.046754167478327,-0.1827754133710262,0.9327742126617018,2.6266777149544414,1.3920870785894806,7.842976406571676,4.04451949901479,10.61657074136869,6.250319112846587,4.183441636189878,9.045485947932844
72,2.6655489158588175,3.3314475494630114,5.3255327998261714,2.1498328223928196,-1.2214243577099073,-1.7129376519921942,-4.770226589543946,-2.976449245861634,3.655706564866829,1.8976062118373216,3.2283790221494435,4.665091588008029,9.494865503554971,5.0982820197096865
73,-2.403454687973637,-0.31094789664298594,-0.16550506362810644,0.14847618661578502,-0.9849409881127723,-3.122986397444068,-8.330458182306202,-4.3419088216651875,-4.611289600464069,-2.2431297743421523,-7.077033814094499,-0.5364700299407663,6.46902731749352,-5.191532360538537
74,-4.483479994703697,-4.379725890891643,-4.7138672745902745,-1.4971747015298909,0.26098457125476715,-1.9582233579327257,-3.2011398023432656,-1.598032482791538,-8.819403310895396,-3.3661834872246255,-6.773981392867525,-3.2157349966964657,-2.4838552984120827,-10.35463661522209
75,-0.1769332790196377,-2.4056883232727073,-2.6026235298137768,0.36112476425644047,1.5654423994842734,0.9044700333187122,6.11677027140258,2.545461401477755,-5.834115968614319,-1.062241497304269,2.5930691911538024,-1.862671726481432,-7.281841683116737,-3.737560328902225
76,4.639485702786584,3.6324535809401737,2.221217299786594,2.724415719109099,1.9099631653760254,3.688264867291017,10.105855527308194,4.019923273377024,0.5368546766623922,0.11768464034388992,7.019355742201288,-0.32015191289514255,-4.198679047993932,6.020917135010253
77,2.421541559386071,4.473849207936235,1.820859156226171,0.8606205495896412,0.7707034484956562,4.469219222666346,4.7265412140673835,1.0874732567898473,5.3463750652362325,-1.6409089660451521,0.2448488835509861,-1.388852460825043,-0.3490257934611711,6.272921099425709
78,-4.241826930908387,-2.0705360729128,-3.2255320981372675,-3.4510111158563967,-1.2012798105350624,2.0620345190275313,-4.457196983021684,-3.3431632169804457,6.594559458542813,-2.2872194491660514,-8.18889937735863,-2.996382421745729,-1.6165317457096464,-1.8876690865313424
79,-5.733234858108196,-6.433336754711543,-4.516604276306417,-4.059236277508338,-2.539879405412296,-2.3393255783341997,-8.947281059301448,-4.105266656635655,4.363618864734258,1.4524931942673096,-7.215479384873457,-1.5318252240676942,-3.4842573160792663,-5.984161086143938
80,0.03327333732609526,-1.7515753348479064,0.8040789458342258,-0.13647997521077793,-2.2774521478383245,-5.317519188547518,-6.091755429072262,0.07721088069358253,-0.18170270765129082,6.023383032807532,1.3716587485454883,2.7975703353837944,0.6220837620031123,-0.702177281633894
81,4.58561645570739,5.10899758719547,5.523589577261827,2.710680373957414,-0.4879384159111991,-4.278107252979192,-0.025866744980167944,4.256140738964095,-4.27954542559201,5.0859364408710155,7.6423558788593144,5.642426134192846,7.569716166877814,5.3908742043318165
82,2.383510916308842,4.286574863277341,3.6487509890624685,1.5995930114657524,1.9681017564899312,-0.25780480943514184,4.067158195815692,3.2219262293678614,-5.055643743129415,-1.7252760661845872,7.072289372607466,3.65756492004292,8.617902712613741,3.606703324785795
83,-1.2080340005117653,-1.7893195437689857,-1.132979095299917,0.17142153114927727,3.4164074386980894,2.886485960387658,4.310573832491455,-1.5269277991470778,-2.5998629841976912,-7.315355658608081,3.0535985874865745,-1.2681593107389557,2.341347660406447,-2.5599423015932006
84,0.17576128862411955,-3.1175692362039564,-2.3003033591234243,1.4135835078790158,2.2123292610108574,2.621710191597022,2.1810067663737716,-3.6998994823248172,0.3686212091997397,-5.1664394860186516,-0.9413861225687368,-4.099552076621994,-4.154443589249903,-3.9197627730848943
85,3.4462990588301725,1.6506102770607214,-0.012821695143232129,2.6140180381222664,-0.9090346857766599,0.8343093699248951,0.6482219267970418,-0.6711031079768187,2.0880521714071545,2.7694833644908186,-4.6609588693447055,-2.5330082112266745,-5.968965295646217,0.7704624594538454
86,1.8974054304830403,3.9409364305378642,1.0157154110442654,0.49453480368067015,-2.656507748473508,1.128861875086307,1.277880146027146,3.143462568399392,2.7458125165902696,7.728447176614427,-6.986196423782181,0.7159927494614089,-5.07602563075121,4.1005002204241086
87,-3.5535847810340977,-0.3185807507569021,-0.7151794935157779,-3.1471254706600678,-1.2840701996610764,2.8024849837700656,1.7554434031836037,2.4040060709868314,2.1765043556719306,3.890691586562632,-4.885944835281349,1.7139263006330057,-3.669691572805887,1.3187635265964412
88,-5.963603822241242,-4.793139668640288,-2.5395592263021736,-4.342080538205031,0.6300286524473413,1.0607976749274475,-1.5037994327146194,-2.023859064553777,-0.19750851797977606,-4.640265182950902,1.4172196471160294,-0.15883092047457248,-0.10683745950783657,-3.6742359045650814
89,-2.8033944290722967,-3.638476892060178,-2.3604110369815174,-2.5162659743251705,-0.07621598731955137,-4.700167538043736,-6.895717827650568,-4.372569432001795,-2.7825258756005455,-8.30984400935249,6.141883595186315,-2.321345660331587,5.34417027880785,-4.85237464335602
90,1.4317025717670901,0.03892711627503839,-0.6166878246880974,-0.06672562328448249,-2.132528693035067,-7.468483745235652,-7.569922513060505,-1.6957180880636555,-2.603848581108612,-3.4302285809348887,4.06553040897123,-2.38208495579878,6.817669828622632,-1.9335202117106292
91,2.588930596594791,1.0449004348709656,1.4260585028327202,1.6539453931088313,-1.660797586412026,-2.0720138893072826,-0.67178898470003,2.492357252144403,0.3612564275580143,3.8207514700271146,-2.1545457872596963,-0.16451564866342464,0.8017802869214672,1.320037501718009
92,1.8286449957647586,0.791728248769626,2.8004804312616387,3.064123016700873,1.8176716316997603,5.966045609492464,7.279301822792408,3.423721225578637,2.7414356828595743,5.989007429918741,-4.061665729791163,2.8622347500184606,-5.789261072866521,3.4036575307152277
93,2.1353500070230407,3.0748655353867864,2.9166685114718773,3.9927121048876555,4.473075014507383,7.267531497179367,8.311292400667787,1.4235584695790373,2.612033612667533,3.318808579873073,1.7754791263522212,4.7163858292250636,-3.153972394645601,5.098552789514509
94,3.169301564642506,5.594419601465527,1.920863772178274,3.0560038932390667,3.344883146110829,1.5016672179093333,2.9991753273347643,0.21139918251027706,1.496022781904186,0.9116225169551809,7.8160912502063375,3.7207482410342796,6.235904513572531,4.837441978874272
95,1.8919809724049095,2.830495454927883,0.32366437095457573,-0.28733610397960185,-0.29666858205925634,-3.4725207453909697,-2.053955654451755,0.3934144800705584,0.3582470485558667,0.22053097023783047,4.4483873701508205,-0.22576472974509193,8.504719918175663,-0.09748932771801523
96,-2.4310437489264203,-4.180648265893017,-1.8465078135596613,-4.180936311660781,-3.26426013498223,-3.6113457678872063,-3.7640360046662837,-1.023247766606335,-2.464267520769047,-1.4703974320158923,-6.310220136051077,-4.6299689452654,-2.376312141438294,-7.015047842123175
97,-5.965453606466688,-7.772767703351237,-4.104000752027208,-5.510625827050029,-3.9327497774295317,-2.2442508406154547,-4.008706308508962,-4.245535734670055,-6.737730011969451,-4.533177788784998,-11.90599663930193,-5.88539316996191,-13.93532599251838,-8.369250340220015
98,-4.5093054904145085,-4.13174204134232,-4.311530373600426,-2.86158519694891,-2.617849575007478,-1.7785902111657665,-3.475432110800459,-4.624736935307748,-7.335708284569312,-5.455358935573003,-5.494934312604903,-2.8677142121783907,-10.608040768189014,-1.7367878865550517
99,0.8445633069094028,1.8233816860324292,-0.9655018802691246,1.6753895228441718,-0.19666043397243188,0.27911810880832555,-0.524093274531926,0.4240149372511728,-0.19453696585948943,-2.3064866329958975,5.18418038352362,1.6350822734959771,5.0389547872156415,5.658555792454099
100,4.546268176915263,3.9923220024180255,3.522482259119375,4.26362674513844,2.356999905548403,4.666767802279826,3.677905243480216,6.205985927053813,10.154895826606111,2.4144673293772607,8.936930738110066,4.01806374867304,15.094670985520757,6.184785798669674
101,3.269685723939626,2.5658137655151663,4.715401929261264,3.116208249486602,3.7348559777616765,6.339993740042315,4.7121760404217845,6.218982715309694,13.53988775857245,5.244017045113121,5.091826028389783,3.427714588953193,9.087827966365117,1.3063629709866111
102,-0.6293288456118149,1.0212395520526376,1.7024172390758658,-0.05943711259623881,2.8352138716266113,1.500186512118066,1.2671389051292132,0.5685438184105075,5.464875199525395,4.975665537287096,0.48536153933192716,1.2208427625309515,-4.3674136084504545,-2.46228205032657
103,-2.8190775219270217,0.028445020631868878,-1.7997992463433716,-2.277303581078116,-0.00740303987210033,-5.437311109868049,-2.396855297404816,-4.691606497223779,-7.251238263991262,2.140074880058887,-2.2371742178684757,-1.3696449802800525,-10.458490537484794,-2.8861932878384082
104,-1.6690257201671548,-1.4861348947793296,-2.37870135638262,-1.9486918700857716,-2.6996563162270144,-6.8096739401032895,-2.313955346130216,-5.1617715641491895,-13.321773669521765,-1.6416197607997993,-5.0798708618304556,-3.0278232244305214,-5.639189855779455,-1.9091428622194175
105,1.4343225818958891,-2.159154821897447,-0.5426651183110291,0.3775053619043629,-3.001336364455677,-1.79493038307797,0.17997082418052573,-1.80379002745047,-8.195255858653871,-3.5573169738048036,-6.424936750523249,-1.812373453676308,2.009825964905194,0.0552702981859758
106,3.920915125004678,0.15093463463380735,1.1943671164047687,2.5694701732683294,-0.8274993678716249,3.0203193174178886,1.2932272027913172,1.9443847910445973,2.1151036266349927,-2.0304289605239667,-1.7148865786727976,2.02272770628291,5.078237562987302,3.2748620209082904
107,3.325355082465542,3.5062723964902345,1.4691283161233235,2.2902863826968947,1.4554605412230956,2.829692644383907,-0.022254541242023404,3.644105828221192,7.568883628392644,0.2983261387809848,6.991756623209489,4.1504971271677675,3.568986616042565,4.580225378634761
108,-0.8417489926945153,3.0031773838467597,0.3528612447639283,-0.7778006226469538,1.5540917655517865,0.086735771438819,-1.7820913505023726,2.5475863078345427,4.144260803527492,-0.7059729804606766,10.10082685133199,0.9530213233091966,0.8510815753588579,0.7780528861604659
109,-5.392349206069751,-2.356150047625605,-1.4798732153971657,-3.9395068484957494,-0.17756695953570945,-0.44343902959943804,-1.9925075156906675,-0.5850787522234546,-2.5011387769138387,-4.060859907811344,2.3609243365794126,-4.532912144230731,-1.4347606925570588,-4.861636084322137
110,-5.721001758103111,-6.882370807834468,-2.649447661487058,-3.8280619057138767,-1.3005926902606484,1.5087108441779598,-0.14509619219218262,-3.3866244605858804,-3.689467632251126,-3.4930872151833317,-9.006764028977585,-5.522398831250359,-2.972227549968167,-5.613372427981741
111,-1.0735486477920164,-4.535884520155381,-1.6474789958117984,-0.05181636894337901,-0.33490375758010377,2.586263587666305,2.8515801718090854,-3.0415962962591507,2.287277563101125,3.6508188426039143,-11.691895888493752,-0.4457376605005484,-2.81990448185766,-0.7240813612899966
112,4.019746936220414,3.0542930499031384,1.1881830350839324,4.022647822644961,1.497847906332678,1.2107888184206739,4.61569494789996,0.8567908068453298,8.23191689827,10.472990252041281,-2.307808071734912,4.87713321935343,-0.430752154409248,3.4168661512775658
113,4.758136511370357,7.638298955905204,3.1771579292781196,4.374045751545384,1.86569763711788,-1.1911594686124611,2.5386836615110653,4.69875142119605,6.423623276854063,7.796686694228492,9.321262998697836,4.816001305802401,2.3287541430081973,2.284575406887091
114,1.2555518154525407,4.1740698414304775,2.0319913761806814,0.43512623856545324,0.12442452781315802,-3.2240629454958065,-2.9267654626059727,3.816201640206654,-2.635749805182193,-3.5396254522840906,10.51600389163298,0.29646911227958384,2.2070233536008517,-0.9979957616900212
115,-2.221659790404071,-2.790791684035242,-1.1054594435067364,-3.7420850212367234,-1.9863687387349989,-4.378320401743333,-7.0296082225674565,-1.793794815828965,-10.800933812855009,-12.019926240191417,0.1966763768886008,-3.53373032500973,-1.1949666639685559,-0.8150678078125918
116,-2.0091321894805385,-4.801000041851532,-2.419335418930708,-3.3053201500758047,-2.272617057204077,-3.3195864714381145,-5.043196903411712,-6.124195293331013,-10.68305539007707,-8.426342451679675,-8.775538258159692,-3.1528094749333575,-3.024123038711847,2.886951838173886
117,1.6212239506676904,-0.17970271943152746,0.09827976531702072,1.581629146213091,-0.36456569859809757,0.9657073961319661,1.9047890728812737,-3.7945649194159516,-2.8022117144297125,3.1585943399916165,-4.688672729435139,0.8429156960263312,1.5945396694303446,4.685975710996233
118,4.602278304977556,4.10000323975831,3.3948431818238074,4.989922672549783,1.876289407259132,5.762976026870522,7.104645647192435,2.6908006477150046,5.240177089530545,9.618247008782136,6.751175363962348,4.5075549469008,8.501649664961212,1.2071551635968054
119,2.4596696812845216,1.7028838742099173,2.3135296286538005,2.0637971933768133,2.167904829984635,6.023863718036735,5.388424082751832,5.487780194038603,6.8702266663424485,3.874669258675943,8.191548442192717,3.2896640351365445,6.2939350709456,-4.370429004249595
120,-4.443909752058613,-4.625305814238751,-3.293285997002113,-4.346288570310903,0.24198590643244602,0.9514036695467997,-0.9884721658261418,1.6464510056870574,3.8022121849505237,-6.238583660327368,-4.776454160239842,-2.95607318824193,-7.236620782854488,-6.516256656304285
121,-9.341944841221489,-6.392535561935415,-6.740402559039107,-6.532128868555701,-1.6997831542767756,-3.7958120817395304,-4.982757941179792,-2.9790558562869514,3.1440268162342435,-6.817368856745821,-14.3881683382407,-7.634391175061996,-16.64359554317204,-3.8882385936010455
122,-5.95685963537675,-0.5204225384448206,-2.7397639196539836,-1.5907575924787511,-1.5091774437596042,-3.1443040390004313,-3.024580672231637,-2.2216017656246048,6.349165654541457,4.073139523618484,-5.003839062115432,-4.320943396719778,-7.542102832771016,0.33519345037543075
123,3.0431903773069684,6.131169305231133,4.479388190347265,4.646392207962789,0.24086350375824092,0.5015757200877272,1.2314132536016802,1.655899128110615,5.367018424658756,11.927709240868708,11.964685352867411,3.779323483857223,10.453801240344054,3.1273521286155144
124,8.635454364206142,5.531094481438472,6.139385551960303,5.101097338471222,1.1710204248959508,1.0669248369875814,2.283147142541864,1.9843931139743547,-5.642136419183725,4.038933946114132,12.790809429732086,6.98329129572872,14.547975465555831,4.0875543841807795
125,6.861651879292967,-0.7257419739435945,1.2762822321342864,0.5447160512573642,0.4701519685460582,-1.9829062653869745,-0.0939977927876878,-1.7756534774399053,-18.191572832133726,-11.663867287161917,-2.9102269764996596,2.710716191359836,1.8234595251462862,3.8302166348889
126,2.462995008908191,-3.7554296294092064,-2.2105033143887267,-2.1477328483957407,-0.28163086287297295,-3.114928590210526,-1.5380812062358378,-3.356626261015719,-16.872398608846595,-14.863423946325604,-10.930750692583755,-1.3098701349804165,-6.763062288207307,2.419722655868935
127,-0.06100551968446087,-0.04665211013729527,-0.03250309061038159,-0.0171334143219301,0.032056869933961854,0.26576873402744083,0.015013126884672379,0.17916061508512843,0.5228125770971457,-0.06469659173034022,0.16566357406844046,0.015680650472573388,0.20053656471921516,0.03241431797892689
