,AF3,F7,F3,FC5,T7,P7,O1,O2,P8,T8,FC6,F4,F8,AF4
0,-0.07123013944506544,-0.08388235911176242,-0.11427920949988744,-0.03474729483004519,0.018276140380680293,-0.07603245824101526,-0.1353412738782925,-0.010506182631390366,-0.09107130709888228,0.000875894509849694,-0.09101915727570953,-0.05384495340372361,-0.06134190269279485,-0.0438190902016118
1,-2.1572132768966434,-2.2487634387908293,0.8802091300448227,-0.45061310282162387,-3.376618875598159,0.16840958956103227,-1.4528256116201694,-0.08171302472497038,-2.0547878710634553,-0.03430541889056669,-2.177875586501787,-3.6982957262899507,-2.0538081623176594,-3.48380095113803
2,-0.02545039478717208,-0.09716356097144763,0.010959425192340128,-0.29420754932174703,0.07137124446698401,-0.5827801398286084,0.15473209791034748,-0.09755996433277851,1.1866022580218896,-1.1292698377552697,-0.7886544232743123,-0.31097462392391767,0.15226117249913884,-0.11232055235076709
3,2.3579442145342244,2.426442444282395,-0.7297065479669949,0.6575061287756041,3.618651446100002,0.4537592930553035,1.6157130585827761,0.31754067223619503,1.8452489353362338,0.8483684716107823,2.8030702719495597,4.019755943637743,2.2228375611401656,3.8659507960570663
4,-0.027938138217217537,0.09429191860548762,0.03126602579604663,0.46913644982648534,-0.42526906332847486,0.9103114971812482,-0.26755916840060356,0.03385950070905728,-2.2056990983782274,1.7763958979348458,1.2351333456126012,0.4869709618768152,-0.42551692787365153,-0.05644343231067652
5,-2.6510364285904244,-2.612442800630531,0.4787221292230548,-0.9705031464229841,-3.883035527141297,-1.5290172987636557,-1.8783708503448409,-0.683101582527572,-1.4495291502487235,-2.1430665317518978,-3.780714601057809,-4.551026607303992,-2.4296182460844973,-4.362533459860182
6,0.33017412005888247,0.17873300554876786,0.04347521969541182,-0.40840856170490164,1.1466837428174321,-0.6562561960878043,0.551953595753055,0.3019715934285747,3.0842854035226144,-1.6518873267268372,-0.9774994728315852,-0.31710710296150246,0.9908544969281775,0.6933046335602042
7,2.8537333950546477,2.5804790471053694,-0.20959972580267697,1.2161377436331005,3.8567900224640126,2.699770913823907,2.0803974194614554,0.9958034276402112,0.8365111455282264,3.3874355575294866,4.629620159846295,5.089540998347188,2.427763383394571,4.580607331314388
8,-0.8548567782071952,-0.6277150272183731,-0.23689822735482513,0.15969139159566112,-2.1090251661499497,-0.2302774729985343,-0.9794707287062219,-0.887272387873343,-3.704071734413625,0.8066755023455161,0.07197277964646404,-0.24230150349470642,-1.7762637447330705,-1.6479319942206623
9,-2.7862421050236423,-2.1579707907040047,0.01940138270642702,-1.2551653803360887,-3.297967154824649,-3.555177299573749,-2.0534162378551963,-1.0844173868834859,-0.014048908447621501,-4.060199946673412,-4.8889069472381035,-5.384270735457945,-1.9874230384202587,-4.2045117562781344
10,1.449607054052334,1.008256644027316,0.4830889711358914,0.12467494862150234,3.0024996950398624,1.5576691134576455,1.4014905663545847,1.5815926088347996,3.909741551823159,0.3655590856805589,1.1084476436186965,1.0797050813397133,2.5304286370055866,2.5274553957412484
11,2.3536682779664146,1.338163548938987,0.023547365675112654,1.06072445696941,2.16887731548688,3.78180439844816,1.708895099820128,0.8683955640497446,-0.9183289736061716,3.881745067105061,4.328243297519392,5.225831772332858,1.0188044351984782,3.175045432983153
12,-1.8879202245148967,-1.0395614492390466,-0.6631001733587679,-0.2695995062074856,-3.472016122536822,-2.938226458728932,-1.5927315259576615,-2.1860845681970544,-3.5706790460160227,-1.2830586874566587,-2.0238553370651657,-1.9396482982276841,-2.9070087750999076,-2.875806961399611
13,-1.5982927653756565,-0.31279639443759355,0.08000848429410182,-0.7355627323183341,-0.6714045472050021,-3.2985719738220833,-1.1054574513462307,-0.39740966709714004,1.7571158094029373,-2.9567580634888655,-3.0660380940945133,-4.545767456863281,0.34875494799115186,-1.7482042436468288
14,1.9554736283131398,0.5466684586764107,0.6489459026569651,0.17057424483857855,3.276545786590143,3.925810392247915,1.3446700698345884,2.5308716284468744,2.659173595298287,1.4367212201650041,2.196530297082617,2.5049494440615505,2.6049674595399788,2.395922324656098
15,0.6997425935289615,-0.5968597157095844,-0.24456805649165247,0.4618392128622072,-0.8252120050293049,2.311661880919418,0.45792386981702876,-0.1688354280240324,-2.2389883187589357,1.7448916302707222,1.5428140096344547,3.4731354677146618,-1.7710432493592554,0.40133142132520333
16,-1.5401225159125391,0.44126750416404115,-0.36386768659039537,0.15010397289030833,-2.398922781732059,-4.200204167377191,-0.5748506920563161,-2.549253869069456,-1.3055623612439884,-0.6422553993214941,-1.4271188313372918,-2.528864932042071,-1.5167457450124793,-1.108930242997349
17,0.08233492577523345,1.0803701466018336,0.32444529010151296,-0.41232065021590736,1.9270426365657713,-1.2481535488880722,-0.07002221032103914,0.6314799959003565,2.1294184962714198,-0.851491365361546,-0.3522330965438059,-2.303551426637626,2.79240974141214,0.37381629313679315
18,0.6896741689401327,-1.6888630368773834,-0.16805286265679567,-0.549315527043984,1.063387235553724,3.718249161288757,-0.5990574977792705,2.303473064541131,-0.20038516439857004,-0.8470263159727698,-0.0942548331322013,1.9567663606675647,-0.1792097351639214,-0.6279467610597336
19,-0.506301229989519,-0.9811253271132141,-0.1765136887778257,0.6672391719356668,-2.3686942916734077,0.5809164143171954,0.20776073685676533,-0.8396718308942647,-1.3227285384258294,0.7276459633325899,-0.009017309728949876,1.377851896099478,-3.0242989006194065,-0.29666028820948154
20,0.39160112947373976,2.8522008637795535,0.812678572855034,0.8244448766816537,0.3442090538272728,-2.7534183912801615,1.8655392186907804,-1.951475371498037,1.4711705116683307,2.440799999246707,1.8391862069222251,-0.9672119153447103,2.0386591704491646,2.259203311639758
21,0.4494405873208623,0.37072847703538897,-0.26358406517221245,-1.172894299996029,2.1170683682540017,-0.6160694549166815,-0.9646983495041632,0.7525993127133205,-0.08536451086841533,-1.430821150612557,-0.6307317189887737,-0.9225534199052683,2.328835088913139,-0.5652789922286182
22,-1.414414310784409,-3.629194747976756,-1.371735260540562,-0.8005770410897074,-1.4235777073897355,1.7915184546182195,-2.818837658501136,1.6736089559965412,-2.1332536131031685,-3.490415442245288,-3.14723048047997,-0.1027314772198048,-3.4997959118166713,-3.2652385462439013
23,0.03421583306071978,0.48142327406752156,0.9306873475624258,1.7563732969907033,-1.3827109114361802,1.3430851841959164,2.1840780191040947,-0.4500158886218703,1.7849369952492622,2.5784486299411684,2.01817477388657,0.9362477857000456,-0.9155279233703354,1.8166527339206886
24,2.118790942818419,3.8901844831024057,1.6701503596279161,0.40792916202946433,1.9171691850550487,-1.3204171521441825,3.11948631013942,-1.5955205943534165,1.9575435294057584,3.6087710791022056,3.507454054085207,0.919424160406751,4.10875931287596,3.3845162386502956
25,-0.7313142953677321,-1.227959613133785,-1.6378849122496764,-2.1886782061348073,0.5292834148321598,-2.4247436397807007,-3.4842731878836486,0.09163391185135661,-3.316114369493224,-3.5290962458104667,-3.561657425476018,-1.18985570733269,-0.7128571074330788,-2.9049814290206144
26,-2.381038664124896,-3.728009897195485,-1.644524363321631,0.2792972626906427,-1.8097165064448677,1.6083995957478365,-2.6481760636829543,1.7406380079700168,-0.9645612135021401,-2.864185731417201,-2.7901063538177477,-1.3195116494424879,-3.7198101882926657,-2.7185236228540095
27,1.3607342707113987,1.5968910114451669,2.1491126025762233,2.2732472132693378,0.08378902495496454,3.338254633635897,4.388858656933449,0.15190413707727965,4.204646011760113,3.70260830657148,4.578857841579198,1.3493606783668606,1.9571969676321226,3.360814657347046
28,2.2604213002797375,3.405672823576694,1.3847516414209178,-1.0582055031429554,1.3222201357613124,-2.5758117507201055,1.5810708830359326,-2.027861789872808,-0.5433031348605988,1.7449360557079796,1.3146884583615612,1.390359979629108,2.5673624002488147,1.6717315432680255
29,-1.7001837426731594,-1.510087949363789,-2.287665705632555,-1.9287901867866946,-0.2548523715661426,-3.605192116460866,-4.513070175077885,-0.16604440067326245,-4.132303156104572,-2.8742997974795044,-4.598148707149747,-1.161039221713039,-2.376427522782869,-2.9935220194842267
30,-1.957837751751626,-3.2250381391244796,-1.0996299179991973,1.6656679330254895,-0.8011202362739305,3.821014918496461,-0.34558772144617267,2.309802581586921,2.0543929368838483,-0.9131724634090886,0.2877846167042388,-1.4158973816782718,-1.1651889989372397,-0.7604563970375707
31,1.6859184072960083,1.1143996788643071,2.027283211018596,1.2341039948575563,0.017515824108322652,3.0060091413194794,3.7297540405325624,-0.06701890173804556,3.0781720558338295,1.2935323836160848,3.5715647491630245,0.6014969780733467,1.8778212200584694,1.9550564832296788
32,1.7027886375356636,3.3740074561341324,1.0155515411175093,-1.8798134847467323,0.5561398908011611,-4.788827146049338,-0.5333078910535408,-2.4333951363039583,-3.018422862856766,0.8757552280139193,-1.3605624766252196,1.7108493822633026,0.074633633071073,0.38563624932809726
33,-1.4313952128407588,-0.7086238698563408,-1.514579547793925,-0.4111278315182358,0.3917020103930126,-1.6845264598581817,-2.2429873503493973,0.4657385310100886,-1.362335493165647,0.4283280693581008,-1.8936999840128521,0.09088069455840717,-0.7485601425825164,-0.6525690287586615
34,-1.626204068569412,-3.821616947884652,-1.2558813604496852,1.6167756282672334,-0.7238856906316675,5.006666294808845,0.6391969601703796,2.299912954063717,3.059458703007229,-1.735503678016772,1.5208625403594545,-2.4269733952109376,0.3484455639238244,-0.6735491306252008
35,1.1505268834762388,0.5936676461059942,1.0032012183911552,-0.2561454367737831,-0.6541183376396073,0.0992021169874845,0.5323625386707238,-0.8831912298731067,-0.4460000616751934,-1.5994303058913488,0.21363410803527821,-0.5279192532785998,-0.4886044439515871,-0.43808432144057374
36,1.690212239096509,4.315023550935829,1.7653115810736848,-0.9789348331688005,1.2156222403998598,-4.288635730089433,0.15847533991992602,-1.9032168921841668,-2.143421991664038,3.1374072061681053,-0.8291957497668946,3.4341003057266066,-0.10584014109639121,1.4460947826428714
37,-1.0251501889887265,-0.9113217545864049,-0.7274814118488,0.5400618728871519,0.5185478480207694,1.15720007317048,0.8189267854575747,1.1645955310460565,1.7366804634974888,1.7621006023089565,0.8712624397587183,0.37812578590527823,1.325650266262611,0.968871116878057
38,-1.7182972189850103,-4.49036232372087,-2.3252796472868713,0.22532367203853906,-1.7635693063575943,2.824992206779138,-1.630503771740107,1.3323729319493576,0.6189865788291742,-4.426362008589553,-0.2533142130172906,-4.346322368816229,-0.463842406184299,-2.3175114607818856
39,1.092398401559543,1.5510632788450796,0.7806960784100768,-0.3752328700699586,0.08322082663789085,-1.597055030843386,-1.3510617269032243,-1.20680136974045,-2.1066709075019627,-0.8995984193439702,-1.0930088787378813,0.43446869943472066,-1.5042913865185519,-0.8465189463530389
40,1.512017747276679,4.054168512115056,2.6589524514341423,0.3323368456330036,2.0394765189906416,-1.1204829645205425,3.2565852924181335,-0.7374109032193367,0.9023523306141013,4.939128153754662,1.0985404866549415,4.692916828838241,0.8650836367386131,2.86320478116242
41,-1.219900746988249,-2.180394101135005,-1.0656806990850947,-0.09949725520185501,-0.996150729603319,1.04217996642528,0.9201195429564929,0.9964052366776505,1.5432397083951703,-0.5506917175052655,0.6299706769161219,-1.6454059535327041,1.1252326099658467,0.2513069967695866
42,-0.9871782760542545,-2.949330593930478,-2.5725202322591487,-0.46808123081460945,-1.7985492859677426,-0.19803370750521107,-4.420716113257744,0.2718442234473521,-1.793244961415581,-4.301618624761198,-1.223906846000191,-4.157438528639522,-0.6942913117634252,-2.7890184112136898
43,1.186090111530278,2.3958908297302632,1.3474273633732727,0.5905672289008614,1.889333197633402,0.28961848120694755,0.22801431124494098,-0.611293950812397,-0.45326910157585254,1.8794490514458382,-0.007845570867906455,2.734033413466097,-0.58588379152671,0.4452552184540113
44,0.24788967540133058,1.4167567990965804,2.0559867651459496,0.15344921344492019,0.9984351211720572,0.6335640445670807,4.661922998508247,-0.03563567772863049,1.6898852980552357,2.6058067756921517,0.5351822020179863,2.7662984476917236,-0.1601902617206805,2.042673290566569
45,-0.8199545312989317,-1.9263018368992417,-1.3791227474500267,-0.778199260163143,-2.3785962421992877,-1.8565730351872332,-1.5441419947551678,0.1860892430174884,-0.4935241239788833,-2.405618116108051,-0.16923275219848666,-3.1482545532727704,0.3823675459503857,-0.8264458268332606
46,0.44771059368323546,0.08918911947004973,-1.2886458606976074,0.4133254937227654,0.15156687826310195,-0.031503962325978865,-3.8771320829125924,0.041688262227154146,-0.6816722967844436,-0.391693419695753,0.6172761638358997,-0.9253405388180439,1.4547321986868929,-0.8362933821061084
47,0.1191867676043094,0.7845337676278203,1.0314209969038997,0.47285161635928064,2.1887232582579585,3.0040281229801815,2.398546618975979,0.1426723734418302,0.6604552728817341,1.7696684168477037,-0.46859605589904657,2.567096649257706,-0.8685743663228234,0.5903794666861633
48,-0.8133138072580834,-1.0979227277720904,0.5492312582570639,-0.8852790769388645,-1.241547967709151,-1.338457474290536,2.383250993682649,-0.21794458288295854,-0.6889603959402171,-1.5606254968062965,-1.6005666692422282,-0.7261460299225598,-2.686852270986214,-0.42428156642316206
49,0.7208210717352432,0.7130532397601709,-0.3561596281207302,0.2717989779820179,-1.2971938048016234,-3.2363030172964855,-2.353192274725975,-0.2883111909406007,0.24037257539043144,-0.09681854521362315,1.8503433517677195,-1.0733364333780937,2.0758614339274835,0.3267275363147013
50,0.684278788514027,1.338048628358409,-0.08280732697344159,0.9296271680529975,1.812222235190521,2.8761938442035544,-0.7989128271803071,0.44167750237020764,1.6442422421143672,2.545386872593737,1.809475520329552,1.5848927077219135,3.3093960527068775,1.2840255501416136
51,-1.3836928742715013,-2.074179158828288,-0.44306379204775415,-1.1519794924529867,-0.008838093895701147,2.4376370599144748,1.3654748095796863,0.24249933924867872,-1.9622454611265396,-2.040370511855534,-3.469249064267853,-0.8533958301124965,-3.6676597151847345,-1.7084724372108295
52,-0.11413606184618205,-0.8662539687627246,-0.006229808558992413,-0.4081213688515222,-1.5603156527420494,-3.8946569359387717,-0.21584760198670377,-0.5897647456850389,-1.5325651835678,-2.223588740693245,-0.9805770995177309,-1.3541336759894054,-2.9779094306479026,-1.414255650568893
53,1.576104502997302,2.845552106721183,1.1097392819428749,1.7350081138343092,1.2104547742764389,-0.9406411999506091,0.1750700435466067,-0.0715555241679853,3.7801422286466884,3.848231742997464,4.608226029679637,2.529046605212419,5.052820344823461,3.1230716664041056
54,-0.6287883876413571,0.04869102858039773,-0.2115400862700889,-0.5151223413041606,0.5103462128036098,3.917262862892853,0.2538675822915494,0.5838967308518258,0.1736822350734922,0.7722401346619038,-0.6442752740160481,0.18702675961763843,1.732573485117759,0.756484683387012
55,-1.1714068269622673,-2.8157929871372,-1.4493807959813976,-1.6684537744997348,-1.76192855509722,-0.6016774902557964,-1.607479835527379,-0.1142806208752404,-4.796276290817759,-4.637312231586778,-4.686620996867889,-3.35997911226085,-5.624497407697203,-4.085149060150099
56,1.1636600483201447,0.5968649910761988,0.5342406691130579,1.40900555561249,0.9416095288358896,-2.8979100840271554,0.6461834229321672,-0.4144597604708552,1.9918966143489205,1.1749816672483688,2.3950223430826143,1.3692899236370193,-0.030802751261829374,0.4308160926627567
57,0.288707216096888,2.1151306733627,1.410004207581567,0.8807880985267549,1.3443276782233418,1.4968951892513622,2.2958910002779724,0.20319009356102938,4.370921295116993,4.114219344036966,3.5625304691103774,3.1049515195598674,5.037119119266091,4.25923846448779
58,-1.1571168358520636,-0.6296933960938604,-0.7228984641709255,-1.7607558240987535,-2.159534720967297,1.255442551501271,-2.0070197625979196,0.13833303165508035,-4.052581052464528,-2.778913232527395,-3.4670438128721144,-2.6090091340896904,-1.4056756512854514,-1.6597066029407068
59,0.7301849901643834,-1.1657082848205857,-1.1007285359500893,0.3381156791422092,-0.04568915974770016,-1.325509710802246,-1.9278330167954836,-0.11903246824149168,-2.4686398232229205,-2.515620113900602,-1.637018182173828,-1.9802807743842885,-3.400346402594571,-3.616796715548433
60,0.47670400157873755,-0.11285386294179992,0.6060864703836463,1.2342558487085642,2.5352740969933345,0.30520626628445796,3.127869491768913,0.14295449411299835,5.029620695977581,3.341078878439696,3.2975069163004327,2.9760604559386636,1.8871293782853609,2.4136103108581346
61,-1.4452748970554656,0.4984494888091911,0.7464569222748718,-1.4404594947475011,-1.635807136438222,0.13748700367246347,0.6691832076050663,-0.15610270459043799,-0.2696635861915912,0.5190014032777986,-0.3019187013917654,0.5566854539113218,1.2836242112960228,2.4639616866968406
62,0.7297433931199254,1.4333339550576645,-0.1573275292179585,0.13137230618915635,-1.7727469264432452,-1.1093552872535994,-3.4111398800968913,-0.3140481405479828,-4.346852434010109,-2.5996176375551374,-1.8418625072404455,-2.301594927445816,-1.072527370563841,-2.377299361657894
63,1.5010566909445615,-0.5119175028519739,-0.5956229027670478,1.875586015031603,2.987183269765926,1.5657342571495154,0.9052680362011735,0.5750215839370346,2.787174621919241,1.0420848666479272,1.4291465312034064,0.5032294523067313,0.4979748248595958,-1.3109513976893998
64,-2.0740693153231913,-2.8569482064691836,-0.4832280128044427,-1.9014908478114718,0.04533427462738129,0.817796650775351,2.643250663145807,0.2782432966626781,2.1268572213709187,0.8396758004962616,-0.3894213997286171,0.859451364211958,-0.8492474893430166,1.5822334297635643
65,-0.7898484488133295,1.2833204709399673,0.8120687988569537,-1.3714465500975324,-3.3911375307085643,-3.059466898013992,-2.0760497385575807,-1.0322094545271694,-4.086690089620618,-1.5383371407834943,-1.2594021470690346,-0.7397903020572472,-1.2334107037182447,0.6357907373141549
66,3.0824738272682493,3.8500919669443063,1.0562889874628227,3.4338618083388868,2.0610403991826067,0.42687741534513246,-1.0916361225405349,0.011365683193368583,0.8445845449014706,1.2403325674511767,2.5567553715565334,0.7813465406707681,3.217713296763172,-0.3854233795211045
67,-0.48558256052831533,-2.5285612763925744,-1.3921958257731921,0.08797233719866307,2.6016178257541016,3.724509569705747,2.3094468116435265,1.3852122180452602,3.6850665115856303,0.8153011746606396,-0.1324956896749451,0.08227103279390682,0.6342182959398842,-0.659804299724209
68,-3.3999753048385135,-4.072328219664672,-1.2896946037939734,-4.186617143856925,-3.797733231347325,-2.0826315987495123,-0.627624609529994,-0.526564372084966,-3.4715356930190326,-2.8492620285349397,-3.8704857610946375,-2.026962516558666,-5.181818262882221,-0.7141926771194167
69,1.8902190310185973,3.739781400871093,2.147784205677262,1.4509457698093107,-0.8484331043439938,-3.315398318738914,-1.4926979854977234,-1.4931236863200914,-1.819668918204788,0.7562947967743487,2.1550756546457137,1.1565037285009925,1.039170078227586,1.2551224826036995
70,2.945235473904155,3.531724662398763,1.0241664632425944,3.982248693288568,4.57427478076138,3.473455732741253,1.8413473514507068,1.155557068402269,4.839219078505532,3.457203978151217,3.9366014446694932,2.5143569460734603,6.066151906651302,1.3250657436455535
71,-2.943761158489339,-4.433145841506343,-2.773909790775286,-2.6178567689833745,-1.276610768034256,2.0389510690968518,-0.0362406496416374,1.267722189852396,-0.6882280183235119,-2.474010257709245,-3.9810541049844868,-2.459807256453273,-3.1040501482655576,-2.0341012488129437
72,-1.9364512400189051,-2.559538643402103,-0.30013096342139667,-3.0815034368368166,-4.194657217342086,-4.100572341611745,-2.123341250454255,-1.7247664524248902,-4.599056515385517,-3.0107764801409442,-2.903046070490969,-2.2309225709959035,-5.641107036764021,-1.3412532730681601
73,3.32374658414343,4.373587330282518,2.981560940011407,2.9939916009935166,3.08775602090078,-0.41315764306253594,1.6688226805566506,-0.7193831040208629,2.830375986854299,3.6401681685126124,4.921079429645372,3.3570526225095207,4.760426303891051,2.5657484930122703
74,0.7775155492177762,1.621543709828916,-0.6441875380588282,2.027423028487382,2.9032558681473315,3.8426271617128958,1.465549701508142,2.053944449342643,3.068547793772336,1.9115078021404466,1.3470286224737227,1.4561158874359776,4.176629534284509,0.9558479534905816
75,-2.983963602131216,-3.654826813975909,-2.6352654862280747,-2.5619157316801426,-4.091164638701386,-1.0097147761744827,-2.8181557410573186,-0.02803627371125815,-3.8612281435353837,-3.870628516028943,-4.706172991245951,-3.613704187958643,-5.4144776753210255,-2.592261778670543
76,0.13121252205350248,-1.0783772102478244,1.4725282614003907,-1.3516170613470477,-1.2359753386153416,-2.951504754488566,-0.24353775367998556,-2.027164131225256,-1.020709237027997,-0.7841471337770037,0.023564426935667966,-0.5791057559677151,-2.281709973165994,-0.5161904865717197
77,2.1373334259234134,2.6007497733073683,1.8246258541857925,1.678391695935083,4.156015666962173,1.905160227618612,3.1778544770270845,0.7700174452970562,3.5831250515657955,3.2297349648420424,3.5525159622940583,3.276474608458428,4.8734169603048585,2.1270883058197736
78,-0.5581725163087035,1.032659203602247,-1.9037148626991445,1.3106176696084615,-0.2336339689434979,1.8619749969228245,-0.9930109273118086,1.6464312993293906,-0.7077583645993043,0.16519843595396314,-0.6951665189363117,-0.09494830561609151,0.6356546031960904,0.3184136279426277
79,-1.1274247424421227,-1.5620446803189219,-0.8287475785863959,-0.8570770729809343,-3.508562268316805,-2.2887416615087877,-2.8273023833667748,-1.2938132906706403,-2.3504759561835544,-2.1450487651706927,-2.0008068048590864,-2.5779276763191863,-3.35420271156059,-1.3958718371614651
80,0.5055884561709741,-1.3388956386156656,1.840537755992256,-1.7931111290910444,1.125495582419605,-0.9317135073377899,1.7916537480145212,-1.0384427610572942,1.5851137478700321,-0.2680414669434148,0.5430457282020218,0.44777649998301955,0.255649056829635,-0.46276232822362207
81,0.26627233781401494,0.7379883275246435,-0.010256607239640192,0.4970590250373643,2.5788881515624773,2.4318176456530947,2.1446526658893568,1.4582522175692194,0.8251734619576604,1.1679613009981873,0.6335464958865508,1.7812075899658764,1.3470464904830226,0.6763351650403342
82,-0.15937438904048415,1.7467344912585674,-1.4080997291951662,2.4290661698191536,-1.364336621042087,0.25940602666983886,-1.9938638188317077,0.4088484636454767,-1.5603719120022834,0.9247533999864855,0.17955639780070864,-0.5266573081969373,-0.1932093543247884,0.8398768363361919
83,0.27932588302863687,-0.12291734222458293,0.43904033188812086,-0.7102752898131655,-1.7923511371774064,-2.644195682099389,-1.5858323858414318,-1.2432872275957707,0.3684978314220259,-0.7105550978929533,0.18003607581029493,-1.0646370563142409,0.5771793140313837,-0.14208998151161875
84,-0.23022062124581938,-2.0709641524754097,0.8858176619704697,-2.812840454942752,1.1466189399638034,0.3233104295950067,1.7664258570111084,0.03375842240942597,0.9916773850021952,-1.7076026311904815,-1.0224377771168467,0.44584952741056844,-0.7034839103762226,-1.2332092577756322
85,-0.5103926268567608,-0.41278798565290276,-0.3936015612114043,1.3240585513517769,1.4033441343825992,3.0581178025522613,1.4518625732373602,0.7489327555023851,-0.9130327420753022,0.8810965664346984,-0.3961115353246188,0.5005434111802256,-1.939549573739874,-0.20398453462909474
86,0.4651019745016095,2.280530108090328,-0.5749011829568922,2.70031839158698,-0.8064267299422208,-1.094189810830874,-1.4684007986637424,-0.14864714840075677,-0.3996416147041977,2.1501358330638887,1.5763923031119138,-0.2967578286488849,2.0710778821479323,1.459761577192516
87,0.5395321950405164,0.9819211729409608,0.005333414120006027,-2.0224334340338097,-1.4285228026091243,-3.5402925292992364,-1.7636451504650679,-0.15009602470736275,0.8774495143409275,-1.4770984400706137,0.23737530469005547,-0.10839755154193409,2.4707662198452027,0.4865592776100682
88,-0.4584415186702875,-2.466028944165396,0.6720704402721098,-2.0809244641071745,0.6540487686452934,2.220369222984262,1.44102147138745,-0.09934836967900879,0.19070252407217475,-1.9554112472262413,-1.645152885101713,0.12737838669115167,-3.4228178726590652,-1.4636496341305432
89,-0.5057355713876968,-1.5805323875795203,0.47674625538791704,2.517904920953198,1.6834854823573995,3.77835616688361,2.294637163829365,-0.3672210245648348,-0.6035723638660101,2.1148524261323827,-0.02374280587397294,-0.08737810361912347,-2.1677681806843747,-0.8512159633910001
90,0.22623345867113837,2.728655127632146,-1.2059516491705997,1.1196306117127603,-0.8519861266885128,-3.611442354227885,-1.8395102144378963,0.6430234001959609,-0.48506415792787394,1.102858177177977,1.28262236187252,0.014993860989617266,4.290366150236644,1.3204729845463758
91,0.5116384032690999,2.088508295996847,-0.7967153478025738,-2.6543317226021648,-1.889513713531054,-3.483323766341131,-2.7200242272508137,0.6604705623921479,0.48807634672373224,-2.416876588629735,-0.003143594356435534,0.05529090734528142,1.285642468972446,1.3688706720768251
92,0.1591562409308283,-3.0778484551958725,2.0497847178068733,-0.04115184157953116,1.3648775315016957,4.9331289460521095,2.58641557496826,-1.3455174747419731,1.1089467933573658,0.1750248500179946,-0.7068944225401216,-0.03883554850674623,-4.366893433137313,-1.1713501024820367
93,-0.6055199827892216,-2.357277957661351,0.7806860164582304,2.4106321475035717,1.8023942951988328,2.58264589951203,2.783857578625735,-0.659529833790893,-0.7815897610943349,2.1670927897063432,-0.22442506515162128,0.18785941735912257,-0.2557242853126998,-2.002730439606556
94,-0.6128272176680318,3.4073859664042123,-2.984117650108137,-0.9593965790423157,-1.9907862233966698,-5.77126042576177,-3.4457634539382935,2.042454630623741,-1.7213902257619829,-1.512910643466044,0.16120725134574504,-0.17742029707293305,3.615134801793705,1.1423331362387565
95,0.7953886422048785,2.3160921285806464,-0.376850663002777,-1.8458498594828607,-1.3158948980333525,-1.2884172835411414,-2.395161604500266,0.3703141447501669,1.4920577838845352,-1.375610090867745,0.6106797565133559,-0.521900812732567,-0.465309494542293,2.637346704194115
96,1.0563682908403385,-3.55971984137267,3.7702874273144653,1.7420854677934006,2.4562809237207515,5.847190536150408,4.150815765232761,-2.577523047285119,1.9904708669228528,2.5622377623331722,0.19902982358337085,0.7054956101737324,-2.2898691595875174,-1.296100946691492
97,-1.0669739602758943,-2.0231587637963897,-0.3475921079632221,1.0492013388480077,0.5027656119585738,0.003834148115107158,1.6247846638759098,0.13544244345220674,-2.4111993794175923,0.24625221397418495,-0.9796599455759315,0.7360774081247996,0.572144626707659,-3.130943357761021
98,-1.4176009547183634,3.428647497107884,-4.209815102925446,-2.205948110993646,-2.5363784476939415,-5.159400738783686,-4.505608702826325,2.827718611652467,-1.73298940088484,-3.1065793550578986,-0.34851242287346007,-1.480219353408416,0.8433773842422021,1.6233077507382032
99,1.3876490234593926,1.6305982778726227,1.2330075030958292,-0.1287619041406757,0.4219441262807715,0.8719896172791293,-0.6389881275611113,-0.7333796383034077,3.223987638733376,0.9191907821658286,1.1717224595794793,-0.6259512017063785,-0.035581461824387324,3.3550548074712605
100,1.6310476753573495,-3.028182768101792,4.185926137749393,2.2778599324998945,2.1489274933894498,3.9762085481080707,4.420805362152729,-2.7247029667265372,0.971001804854446,3.1093051998280674,0.36673832881231816,2.2836477274413407,0.2603071403765841,-2.0500476810630577
101,-1.6998375156129946,-1.2914968397076225,-2.0652124200586752,-0.7754122463387259,-1.198291572541551,-1.1256992556065206,-0.36978566688598175,1.2625249561950567,-3.638588592490564,-1.8314438346783615,-1.1058095333481344,0.11847781775207175,-0.8943205481809953,-3.217988852953837
102,-1.6528506791085418,2.4816950156247524,-3.691170997778602,-1.9327207536051463,-1.3820261185814597,-2.6964667487028904,-3.9002766245215557,2.277662020292564,0.09444803753341115,-2.693927649836765,-0.37955196605664565,-2.8327119928701796,-0.7366637334239844,2.44266531512794
103,1.9210700097698468,1.0745993039079498,2.6241215958478987,1.492040390989164,1.6334190886976647,0.80145322574774,1.2192502932163265,-1.5537616176000577,3.4864171056862596,2.2989924469437204,0.7926715764749266,0.6634978550019569,1.8156413522685184,2.6920273308203133
104,1.486003413119745,-1.940723955252474,2.837748943515684,1.2309253273279308,0.44431891444119276,1.6682176793646954,3.0218504750420268,-1.5907433994842093,-1.162853430245552,2.0797876810538747,0.5051141626084765,2.925369551699112,0.579025534134719,-2.620128469111775
105,-1.9648185043229813,-0.9447837372687975,-2.7424118089739693,-1.857121220981495,-1.6741990255365027,-0.141035064696852,-1.7508176653073062,1.4775566852663873,-2.7689677931989207,-2.2672154630624792,-0.3137801089263434,-1.4504604171047994,-2.364392034524899,-1.852433462636525
106,-1.1970270069680697,1.4909994682912975,-1.8389462772281457,-0.33558908443769675,0.4330488676050517,-1.0648630415303315,-1.936250769982475,0.8562066957337201,1.9317129842473058,-1.5031955421190044,-0.8233444596553862,-2.5526786627832974,-0.01794371950418969,2.4002002294945224
107,1.7803800133931196,0.8209286537237641,2.36173666462094,1.7789363446301412,1.4082890867901907,-0.5525392068371341,1.8544915517277605,-1.0009868492687946,1.6507674950915683,1.8097863471833677,-0.20856084889533594,1.9647519030590632,2.361981294963985,0.9025772420590671
108,0.9037987757367472,-1.1126536736936041,0.9545091833907587,-0.5186938934069951,-1.0904663327355142,0.8669368143938712,0.8655479145171716,-0.3070563949395822,-2.18473082566492,1.150306222794007,1.3640787451456413,1.9035565595621886,-0.6210861611414349,-1.684983045033192
109,-1.3918424581088606,-0.6672315777774549,-1.5635076096943008,-1.2923028419920648,-1.0010989640555652,1.04318232527719,-1.5189981019235559,0.22551504453051816,-0.4090984710698975,-1.085400157157,0.6345361996966248,-2.0634509903444274,-1.8487256287076987,-0.14300958438593944
110,-0.7287471610747117,0.7247433258791772,-0.40988251685920957,1.1026710249600022,1.4841816574799487,-0.9287532933090584,-0.06159405564251979,0.1340666220539729,1.8533057392302943,-1.1179235231695168,-2.097835369535613,-1.2595152863591796,1.0693217464132736,0.5484967485607821
111,0.9078065664631622,0.5472155770898042,0.5535431621646585,0.5651413611675828,0.6097900971695667,-1.2242483455478632,0.8758892259361385,0.6262619741482114,-0.645456099018464,0.28062475256715297,-0.8278772389865314,1.8001253623095796,1.009485066581246,-0.1318234252683914
112,0.7360505654598497,-0.2834181817011684,0.31791182991203626,-1.2818256397225765,-1.6674631122877117,1.0709331673546383,-0.287624957095112,-0.4000872958415795,-1.0391565363200028,1.4069063038608125,2.922969365560316,0.8459550960562042,-1.193946518595792,0.7363606699819731
113,-0.48435560473419165,-0.5928763122761551,0.4030685824204364,0.1560572533413758,-0.32231103844478165,1.1110277182788229,-0.18314078033553866,-1.2858572191193982,1.2612524482750935,0.44091724614803474,0.6893985659818468,-1.375251675256527,-0.06111522555895883,-0.2277771745979412
114,-0.8901046718351697,-0.14002737893805026,-0.6386984788434388,1.0733641540129542,1.7318143712212186,-1.1483385644747195,0.16011068421096347,0.9988426509741609,-0.01140143457023016,-1.943057741498051,-3.6645762774643478,-0.7279532209039745,0.9847596576400006,-1.772489034185318
115,0.2521961516242401,0.9022009353401275,-1.07593412848171,-0.6430690224247122,0.14725939350427975,-0.7963411025707602,-0.2761925323598806,1.5507065471385326,-1.3285647264039748,-0.9700317792463207,-0.20630272145298545,1.013699905865099,-0.8226770370907739,1.128203886777744
116,1.067468522829213,0.3665187785335794,1.2011485691041075,-0.6375558297664562,-1.7494514554559317,1.0779897301196433,0.26490041879786164,-1.6910646345173699,0.98384725191912,2.613502453861697,4.11031863248731,0.8035822490555115,-0.492254937991619,2.195715608180041
117,-0.2475943004211544,-1.4348279691718038,1.3517739407110423,0.7808965812501747,-0.04640405542378793,0.4050052742889246,0.33811302297246215,-1.3778439201648658,0.924136479153742,1.2603078521736397,-0.5057741529604876,-0.8449573029686052,1.5206292791617866,-2.2394461466499394
118,-1.1228113877475854,-0.20896007484184806,-1.7808806200170573,0.2011924982542856,1.7482521455089404,-0.8405366826131155,-0.6847264945766831,2.210777729500135,-1.6073425529441707,-3.3036744691484126,-4.090337746969972,-0.8862488452355789,-0.21933868627173722,-1.838399688705665
119,0.39160132437362893,1.984868942936833,-1.264529054275774,-0.6113275210181354,-0.020542429162714718,-0.06158813512144691,-0.05397227886169105,0.9049908322667012,-0.28916763655021566,-1.3173078150839173,1.2070656445387722,0.8504474408063178,-1.9357172754050722,3.1163875896734923
120,0.9718562678961205,-0.39602393872664915,2.1978770196695474,0.0519862398663094,-1.723178573649298,0.4738598876649327,0.8342524172215142,-2.391249829100923,1.7629896602217798,3.922466293601857,3.5718912167215513,0.8199911983480074,1.0723083767196213,0.812795659129029
121,-0.5339664524038534,-2.26167657810013,0.9568049297807053,0.29773473540897744,0.06797630001092737,-0.1344386790948455,-0.3353788302722082,-0.3799402402271489,-0.2669785061040146,1.177762863361633,-1.6079146234509027,-0.8969081271665701,1.9804071467342412,-3.3776096075707396
122,-0.6407250296360812,1.3114123869685894,-2.3836682338323847,-0.06583519622972839,1.6653372748425457,-0.0636735285406757,-0.6340724334107194,2.242198263054387,-1.5351907437345442,-4.410270844505205,-2.7132245853696895,-0.5622229225419199,-1.947765402900938,0.5283788536320937
123,0.5360674636430961,2.037372542343052,-0.5943875407377375,-0.026973326248752802,-0.08414828887389761,0.13418947780089702,0.5441375821563255,0.03144158023187991,0.5061841515531175,-0.889474501884722,1.4939115699884846,0.8262880153862492,-1.6030146291868834,2.854606066476782
124,0.2529808716513492,-2.2321950076564008,2.383869419716154,-0.07794530001608412,-1.5852631184788397,-0.2774035804426848,0.22734170180084803,-1.932595556443083,1.1676892440535545,4.733280064508593,1.8301578054103609,0.1952643281960134,2.6753996252125685,-1.7294252675987163
125,-0.3435786923935176,-1.2757353845260708,0.2830985833885117,-0.09532266020628666,0.05088567496229741,0.03991006430234921,-0.4168281281132266,0.04798418979414853,-0.3768868981596982,0.4995140924152695,-0.8417939141004468,-0.5475765686367584,0.8383236768270297,-1.6475631279951053
126,0.03485684991984436,2.813772396197332,-2.299944225701789,0.23054105854218698,1.5172034505198835,0.4484291051554104,0.12310899909688434,1.6864857449626922,-0.933428304667476,-4.872953247867329,-1.2735036080407471,0.12924805694207742,-3.0707504304755338,2.3980150455757223
127,0.010145620030448117,0.16845968355431887,-0.034647024097625226,0.09140456757691501,0.03244818878652198,-0.29533949708982576,0.01935914319645836,0.05974074292964952,0.035807191109242124,-0.05210484081166537,-0.142615091365786,0.08313567070642178,0.16223758824002799,0.07767651818304376
