,AF3,F7,F3,FC5,T7,P7,O1,O2,P8,T8,FC6,F4,F8,AF4
0,0.07183037399551924,0.0249005163419438,0.11199510432005211,-0.03064803934217383,0.02212033441545824,-0.02533524608504791,0.12923220426316157,0.010637804947129533,0.15381331070552945,0.13099056900129347,0.06397218364631604,0.026497412320832987,0.08161829202481963,0.06206498927100086
1,0.09780624658494125,1.800609416184762,1.2886076126957082,0.3914989947226681,0.5700273603298747,-1.4600760696221715,1.1468095397076556,-1.8246907327691442,1.8096154176431472,1.3055076702229569,2.7480934988018078,1.289224550694356,-1.5842024982653269,0.36166984136286806
2,0.9421958447469098,0.2621381746520841,-0.44466881313492906,0.6115121339632849,0.3335350125487976,1.7459636668430971,0.31417106644254966,0.7588478894698272,-0.5586716821940922,0.62971649581487,0.7406326220996916,0.6453920542580924,1.5139616084479877,0.6034508028789154
3,-0.4927210344670291,-1.919703026502657,-1.2002442365439159,-0.7757362128004853,-0.6471677775755649,0.4426908170142653,-1.3016407257135159,1.4261926618767136,-1.726520715777579,-1.7208253795034067,-3.1952790471538055,-1.6307344137452633,0.7988308724952877,-0.7813172319993757
4,-1.7382973213022894,-0.49320313463026016,0.7075195084781927,-0.891924960181088,-0.6123641783510149,-2.7728636053793863,-0.6178921035300262,-1.3488848976300594,1.0578014700658476,-1.0506744790055211,-1.119336118544239,-1.0691937278045744,-2.6180854648786807,-0.8800364889058414
5,1.2003214745051927,2.132651262469515,1.0947132202132628,1.321162625423516,0.7527626834893204,1.102292731876351,1.5184473974111412,-0.7225869284298437,1.4829350452964092,2.3628158649599476,3.82218883896285,2.171963106641374,0.5451752383697531,1.3524147735410268
6,2.125433265609806,0.6131526726390141,-0.8858530944998471,0.7405335368497775,0.7787555518270415,2.7649150070595905,0.7035467616505973,1.609001828049595,-1.6799847381414996,0.9062786623116593,0.829192095514311,1.0792164846472694,2.868689154166927,0.5823932697844549
7,-1.9946765957517976,-2.3872640304324757,-1.0066860069820809,-1.7140955504554551,-0.7941440830089438,-2.4766493774410896,-1.6271047403358987,-0.1263146141526142,-0.8724703105545973,-2.8259991985650688,-4.120632795632333,-2.6591489111995568,-1.9443951248177067,-1.6531057894798737
8,-2.0331081102985396,-0.5838956200792326,0.9937603756193983,-0.25662874837138355,-0.8740489516360493,-1.8683547895652965,-0.6219031301817258,-1.4584015181309116,2.2507598604931416,-0.2511120704861982,0.004410735492137707,-0.6683497825897585,-2.212969509797033,0.16145490887899108
9,2.592690248205693,2.602457247596625,0.9445267969603361,1.7136342387124412,0.708989945493446,3.1110886360994146,1.4856573790862344,0.905488619866553,-0.21961241784174623,2.730415724083159,3.656687412332533,2.82592882133989,2.861776508031417,1.3489640509833332
10,1.5649360375193413,0.4086103324339455,-1.0495861208363912,-0.2820916692119922,0.9961192423797411,0.6089648867476555,0.5410937492736723,0.9270230356335641,-2.4424365108801918,-0.5900325532396196,-0.934153540069513,0.006806297258115977,0.934685566292054,-0.9679095040649951
11,-2.7624568227570814,-2.689939898123724,-0.8887440366520751,-1.2837659864148385,-0.5122163914241531,-2.826574509878426,-1.0698075993788358,-1.4024097933568662,1.682514596125166,-1.90357654727768,-2.2938092502792933,-2.5035193221961904,-2.933234541013957,-0.37513175407183497
12,-0.9877975784246111,-0.14688005119715633,1.0462124431473714,0.5686195306237681,-1.2426405262754001,0.3996759226882985,-0.6708409569955105,-0.16793623487480233,1.9295198387307613,1.1504342480377199,1.3866613949403082,0.608272674159487,0.4455306952980731,1.3826413723241449
13,2.441913164677728,2.5930218994625855,0.8166743436580691,0.6156330746422803,0.30164726342404924,1.8752912436737872,0.5120005569096695,1.4848605732603481,-3.1568519078615385,0.47881198837276157,0.281438542056397,1.7081167800256294,2.118874001336972,-1.0138511774547936
14,0.6327315004350709,-0.0978158216046639,-0.9401551771901261,-0.4315419032734942,1.6479495413860983,-0.7632265372753757,1.1535971544081085,-0.5823415555237045,-0.5700661196917646,-1.014595438318455,-0.9148210474727181,-0.8673983203091084,-1.3679581910037124,-1.0981045814655803
15,-1.8008052843364015,-2.322690892405956,-0.7406264530394658,-0.029163723751855053,-0.2174390789810961,-0.7584064506153851,-0.06317182450053888,-1.1610492673243775,4.140713265578644,1.128861186703322,1.8209771874872878,-0.6597921062387824,-0.7357414987156561,2.343753367263762
16,-0.7367662759945144,0.22150411283472185,0.6748776192145672,-0.07224692906763257,-2.14698988197977,0.4642026373848084,-1.9755567798791929,1.0903476661104106,-1.4779126072152595,0.0004896634819121512,-0.598680571033173,0.5870705296821933,1.4601396354329175,0.10207722503476638
17,1.1921599868534172,1.9645296763663942,0.7322828974120464,-0.19193335781475224,0.3735582353703756,-0.05854215113557823,-0.011992498995134398,0.5831752842601698,-4.179410182858948,-2.362386689079862,-3.349547471564425,-0.29169787067338765,-0.653071430635859,-3.118579419149408
18,1.3039194954880071,-0.17418413089693252,-0.23188815606856641,0.6843557097003502,2.587447561356504,0.19717632224115927,2.9473030671773683,-1.220750687698863,3.7623207112641714,1.739818755994163,2.865621432040144,0.19375498681049416,-0.7011301640637378,1.3060164206855467
19,-0.9963599434348241,-1.6435364850891758,-0.9075674497514578,-0.05548220792643138,-0.7943426847597526,0.36714626368912184,-0.44213453350116816,0.016810381430049003,3.05670482358,2.7296212047525943,3.7922541956789173,0.8130086446256077,1.4614215215259234,3.02716074846957
20,-2.069216850224727,-0.007886161969956354,-0.32026184062842844,-1.0744480755529184,-2.788125192275195,-0.8184903681475683,-3.770891319465043,0.989492731443524,-5.666113253818712,-3.7441361325597224,-5.276168591812049,-1.2154863627546184,-0.5527178098867684,-2.633594444681477
21,1.4271299649104543,1.4606470635450146,1.3669324915491567,0.6430271048431183,1.388416371869871,-0.2637856482828842,1.3934067718875012,-0.43089244902031004,-0.9083146338013346,-2.002829833205767,-2.998744086163069,-0.738888440541778,-1.3296092590101976,-2.0703327163294185
22,2.6015825782812407,0.21685212454038294,0.8177354778439391,1.0040232306793138,2.617969858624527,1.126183511088471,4.163324062715276,-0.5439186540277361,6.610571958101874,5.389004368893778,7.117430332854508,2.107440648751854,1.7042602820892732,3.393327841748365
23,-2.400475631851974,-1.4362684204214284,-2.1172894151014328,-1.2749652084653578,-1.9749392090242806,0.025022788875081987,-2.6279469837475067,0.5641577727753169,-1.7872226278466243,0.3325346276573486,1.2575333177548358,0.1512284972334928,0.29268154425174214,0.5579986889880881
24,-2.506185715839653,-0.332398902399755,-1.0555882835121584,-0.4426270024706149,-2.0585566673278937,-1.0920915095242607,-3.974970172456385,0.07933596046739255,-6.258710206744928,-6.116808044988236,-7.847589507983124,-2.555332447813419,-2.166955356541705,-3.2941659310576514
25,3.5427199489650745,1.496428184121168,3.0236868993999853,1.631459235939205,2.3513650484723776,0.09056332873027373,3.8363416975397393,-0.46121490878084376,4.339653322118854,1.777823857875777,0.8007467300795738,0.6584362042486719,1.2133480300400066,1.0162090524567446
26,1.6284339336635618,0.2939135486728207,0.8884493806907684,-0.41739240170118996,1.2207452879912017,0.8904960205493653,3.2462193187982895,0.26137133307425253,4.647449832348882,5.657798380343065,7.316175238874846,2.442918712699311,1.6277979279959802,2.3448670796352404
27,-4.3439356578059725,-1.513926336397682,-3.8320215416298464,-1.5190310764312533,-2.371943085902331,0.011011669983296044,-4.734697302389104,0.25694253853937354,-6.059442448515836,-3.640266613844329,-2.4464452482232346,-1.3250315095449885,-2.52115337403911,-2.16132086176989
28,-0.15489910805955037,-0.14314648061703195,-0.3261915603246655,1.2500578233081894,-0.30919522984157244,-0.7497275170032732,-2.1817647695382534,-0.44782719070457044,-2.2000425708574136,-4.154668757735789,-5.833320341466413,-1.8971486736732723,-0.20596090550364649,-0.8347545164842118
29,4.386108297151236,1.3836654674673816,4.266826605079824,0.9568148572844983,2.0033336970078173,-0.23847020878549835,5.163639377109663,-0.08342968742715462,6.484028129725055,4.637585608526716,3.1462232038342495,1.5744914446623817,3.0135945589967754,2.553799918361109
30,-1.4431127427452646,0.010542419282847899,-0.4345021683061053,-1.741883580143917,-0.4478415337986278,0.8040291549999172,1.0639036399948496,0.5488600050604691,-0.3937750606037265,2.1275613047972084,4.047497823661362,1.2184760826546583,-1.570297831222907,-0.7848009322300598
31,-3.535167610243276,-1.0897926206099129,-4.162112728548873,-0.16153281959142002,-1.337292152006964,0.4079858274071104,-5.128288608521764,-0.00833537849687025,-5.540432498023144,-4.464761131064139,-2.7846759549891758,-1.3349798484381965,-2.399129047340247,-2.1199967850648775
32,2.5970114338150614,-0.05170107323389584,1.0722617495952877,1.7230166384115342,0.8745412092594376,-1.0317098564498093,-0.14873070227324908,-0.6585627243728807,2.3985401792332146,-0.2817247880694093,-2.672446984703244,-0.7381304747057673,2.970684223349836,2.0554008327282522
33,2.006601819286069,0.7273204984346912,3.558458534477517,-0.5542494011330235,0.559474157201693,-0.3715264096067538,4.775146711261336,0.0633071180408778,3.5801202313088454,3.2520785078631613,1.7083838039616954,0.747208788711345,0.8579596196644269,1.0243615378829392
34,-2.868651248973101,0.36907682196195896,-1.2766202380944875,-1.223553866458755,-0.9031907668217338,1.2971245171022714,-0.4151942979103149,0.8133871090921615,-3.281982626534002,-0.7680811733155395,2.1766307658929795,0.6770779417824436,-3.373316408975149,-2.6404495497849214
35,-0.2821110431962834,-0.4685085992059943,-2.7117192796687033,0.9136577685735867,0.11249941919983661,0.09725080141929465,-4.325411050049065,-0.1669555572286542,-1.2625733022439993,-1.511667848899772,-0.5608546488709789,-0.08276177979985795,1.014885245878713,0.4062469126885936
36,2.115983587666262,-0.9592420149393143,0.8965997515674002,0.4389035614016397,0.5931229029161964,-1.4472652700043127,0.624904664482684,-0.957579937712562,2.8987734773094953,0.7400714262019739,-2.5778535264187252,-1.070118813957508,2.543966676338159,2.396353695218426
37,-1.073713026430502,0.4943004247204872,1.9993660987571678,-0.7716124754253895,-0.5015905566404765,0.3332352230605838,3.99019132992346,0.35988319764410936,-0.6771974046895811,-0.07385378393892546,-0.02679647875814076,-0.37779923154513684,-2.4557176752679992,-1.7803437273569056
38,-0.5360937737879544,1.707365314821746,-0.03178166836164894,0.3624932508725765,-0.10699431658509378,1.3923203293628628,-0.613004025270344,0.9816329992621461,-1.5332061095869898,0.20983588537671133,3.449159990669867,1.7753114625026916,-0.7537377563615315,-1.3889577618350089
39,1.613156367040388,-0.9242283335169423,-1.7576795036114832,0.14084387767974654,0.531246726829964,-0.7850797977302542,-3.8900740964932963,-0.5833478544661859,1.6894874830727247,0.931542894998839,-0.25340675091173265,0.4488748198315921,2.8641707875950435,2.7362157551189066
40,-1.4134049071408215,-2.4245344561288564,-0.9830464997998192,-0.9328962818040766,-0.3499363231203165,-1.1302166667475613,0.5921152367019705,-0.8089554584363648,-0.2197238927054027,-1.5654041860406616,-4.145553416374868,-2.545557998576604,-1.3271015148344998,-0.12884134886212636
41,-1.1493884226325233,1.7711111090342637,2.1174231963486947,0.8407481888762639,-0.24999383913743398,1.1343619382060306,4.001714065194085,0.6965927380809277,-1.5941039379296715,-0.8277764968591651,1.2322250360006486,-0.09232930481682053,-2.0698180958374186,-3.02707324654007
42,3.1702397169480987,2.9077726928856142,1.7059178535706043,1.1011813785726137,0.6078126092356657,0.7250878115692818,-0.763429405198909,0.4726963839500269,1.6859762993650018,2.6752048809836273,4.145927639411124,3.121601270475788,2.9169816847627983,1.7717265686978172
43,-0.192337918761681,-2.9310239297992817,-2.9153212420734085,-1.9629742920690925,-0.19296137837103522,-1.3016398128523041,-4.157273383171851,-0.5600231340520184,0.6149633734916408,-0.04977345080183041,-2.3556065754652864,-0.584439015102001,0.4058057585962562,2.592129256977153
44,-4.24384301815922,-3.0017054279244193,-1.7843952180296985,-0.7897990205849496,-0.5960669813351851,-0.2755213599591698,1.2153225140223192,-0.1288551288556623,-2.359951840745575,-3.0289753210469565,-3.333480913178141,-3.3143174276661007,-3.4605818418138994,-3.11336026548237
45,2.020399798808556,4.2069314048487305,3.7362482512347546,2.98650624925731,0.6151138187780456,1.2591713887436378,4.114260381828089,0.13511485762455402,0.7411058243322173,1.1919795782528821,2.9864819558733062,1.3720564516777434,1.4485009874339436,-1.592417065269801
46,4.3621752851243984,2.6469894246927224,1.1360889264444245,0.016905732676236476,0.36248256374182336,-0.10564202774535895,-1.8582880070687449,-0.010176124480146365,2.0686779757588836,2.467154217710953,2.0585822044932263,3.0597650958043507,2.8565902188906667,3.8098943405776353
47,-3.801373733923744,-5.35923566989207,-4.08639952728889,-3.675282326101701,-0.8818821861180541,-1.0353515612724467,-3.6821773716950976,0.46112145868123416,-1.9012295516260143,-2.0061232887842135,-2.7591964819799384,-2.0299864410489286,-2.7803480785488026,0.3795340771647372
48,-3.550348106495889,-1.9047294349308745,-0.01925340736299071,1.0986037515187286,-0.03547359753690387,0.3091185257114774,2.4448393267168784,-0.21037723197629948,-0.9955419646334741,-1.232564579065093,-0.9398028610749181,-2.4372929519959143,-1.4687263547987846,-3.721515260903133
49,5.028311797947086,6.17330600867584,3.628267242859474,3.8361836316576667,0.9608737561130833,0.7241829718745928,2.8490634862370787,-0.985664046084933,2.4449767230949844,2.085740535974458,1.7887413521390405,2.3688932820851005,3.1578699723899915,0.6163613875595538
50,2.116788838343945,0.9468735168085752,-1.059614970375951,-2.3378628105293893,-0.25244374414746695,-0.2645364803766351,-2.6885926436867758,0.7880430318589515,-0.4318778328034297,-0.1592647054234625,0.5059157742721376,1.6419393234919024,-0.07864632176576195,2.9745009286038213
51,-5.3827819504027605,-6.527717509079237,-2.3613690260348172,-3.375011599901693,-0.9195594914342219,-0.47886776026144356,-1.828563616696144,1.175607917728833,-2.2392652216606996,-1.3878540710672818,-0.6076502045309486,-2.3203697318576992,-2.591965003578214,-1.0482794236035382
52,-0.5459234833198123,-0.0062149479925419394,1.5726145057884615,3.414622908340376,0.4385545023576939,-0.009679209410074458,2.434400369133578,-1.5357574153796227,1.7329697747320028,1.171254610674086,-0.8808826453681295,-0.9110402697359867,1.2103131611701847,-1.9184446457004412
53,4.8357665684551385,6.4387542328674146,0.6458949971842172,2.3496449959722336,0.8674443655227736,0.46303884132274487,0.9766283796228596,-0.8804396348786921,1.44538543102683,0.23294083323991022,-0.1440702162141007,1.962902302403107,1.473558715561652,0.7928073371652703
54,-0.6719335940079136,-0.7071583613723588,-1.2228138165880773,-4.0536095135748536,-0.559172900491737,0.37815370404014076,-1.7817962245425956,2.149251714304059,-2.5619313695784554,-1.4961832687583176,1.701004798853472,0.4267969509703785,-1.6546999458474367,0.9838521409974124
55,-3.6468812961204775,-6.054882879528978,0.9551098084186636,-0.9810885440038797,-0.876350169413358,-0.7644524523166459,-0.6021394079401928,0.1522117189623523,-0.40739609356997114,0.8708020565603521,0.10053662928836646,-1.4825914550940924,-0.3338014533895216,0.002502287461930745
56,1.2141246688110456,1.0945707901179376,0.08811901037890087,4.092857504564465,0.7169196499021355,-0.6238299309468174,1.0713832200832787,-2.3427125495438075,2.816422474176828,1.1836529157328501,-2.324598860253853,-0.2388371162338294,1.5183701531017084,-0.5025688708391863
57,2.2559212653325753,5.588890586882315,-1.9373835059078723,-0.40627463812970677,0.9263618617432308,1.3195349897200994,0.7726288150125763,0.7575267301024745,-0.5212222991705322,-1.4867475164245998,0.6058023363317857,1.0774126088740898,-0.43459405218254465,-0.9915380888427286
58,-1.0340120729243383,-1.21744800526813,1.4226178443489617,-3.557114128867751,-1.005054529089381,0.5507304885211526,-0.7173419607424879,1.9883487905146138,-2.6271735911767635,-0.5816552586658578,2.2179861092040776,0.2520654827593398,-1.1588287940914297,0.5764294057266862
59,-1.104808657457236,-5.206818472385241,2.082068083711732,1.503320386358408,-0.9109829959873459,-1.9104829160325179,-1.2381532039878056,-1.5003921813781742,1.1308916266218696,1.456953641775033,-1.4196769173262043,-0.84995228356177,0.7460317778442527,1.7867323910277662
60,0.35631644303178134,1.267277711352583,-2.7748299044078437,2.6519982147332315,1.4342195178515997,-0.10308544172152256,0.9681119478198904,-1.18851747620087,2.2438428533276293,0.13161662031425364,-1.28558623108856,-0.2950297166299264,0.9445627196833213,-1.0525844791770105
61,0.4626271409246032,4.9273648205499345,-1.5291641242091567,-2.137883788578385,0.7005561448000426,2.2588346906905934,1.538365015141771,1.7885229171666988,-1.4191072954764934,-0.952451883734148,1.698535896584805,0.750264239152341,-0.8041182248664974,-2.1260562672605987
62,0.44122342428599554,-1.4556594706798605,3.5581356293534174,-1.6705491868241096,-1.9073394574228868,-0.5768484215609921,-1.7352885750329594,0.2387417344786062,-1.883169520572044,-0.134551352945022,-0.062345957373020754,0.2357551299255368,-1.0455607056197078,1.6080741019639215
63,-0.3314358715538349,-4.596125596705204,0.6697485977656937,2.331235359173017,-0.22755886481087448,-2.173737602141591,-1.249390943035773,-1.5300864381238495,1.5414151261921363,0.35131365551472826,-1.1037982076349453,-0.6098770815313794,0.9299548529867872,1.9773185026556555
64,-1.0068882843789242,1.875605306856202,-3.646003847532349,0.8592473725512111,2.26133802465961,1.201304977226141,2.603587199061473,0.50625183601151,1.6221789165437308,0.616414426144296,1.1507024935313581,-0.07622884484577802,1.3667795743733375,-1.8976132735487845
65,0.4764774033586936,3.9663593053541346,0.0685575240339563,-2.255387470237897,-0.4581900776548215,1.66892211406809,0.2355797370789717,0.8725500704600561,-1.6891133762341553,-0.024731846192925323,-0.19477708434394783,0.25536305827331074,-1.3515208355966761,-1.5424962293148583
66,1.1702933173498096,-2.4163753711604588,3.192166275482009,-0.3193520674346941,-2.354034250323698,-1.4817250019510013,-3.033298439337994,-0.7997220885991175,-1.3879758239816147,-1.356855747596697,-1.4412481540012887,-0.038423862864364076,-1.6442160039434957,1.7000683293344163
67,-0.5637559209332553,-2.852978142480909,-0.4157812798126466,2.1184311122279165,1.201079973058551,-0.973882091483992,1.242827599926426,-0.12736965754667237,1.9693154143660256,0.15761676161373794,1.6273422780771094,0.364180007708295,2.078808075511063,1.1691360126740376
68,-1.0008502043733243,2.7937885005389065,-2.490220421554878,-0.002012983590168411,2.1446149439931323,1.2876774141971286,2.651323475326224,0.6180195150190038,1.0352581309311735,2.0465343771589874,0.8461224647168993,-0.08912960702345969,1.6268198953884885,-1.009962766349631
69,0.33378474904963723,1.2719745758438628,0.33251300345151863,-2.049893669392509,-1.8146922989788412,0.4249490223700004,-2.638410191997773,-0.3885678850839164,-2.352181223687033,-0.7002420310099581,-2.5733158489990875,-1.1183031894839768,-2.9255493160770945,-1.2080644130745095
70,0.7466566118698411,-2.6906672623951846,1.797534355574186,0.23485680435350526,-1.7169001382445381,-0.7288373187570285,-1.4685128629519861,-0.1616356022317961,-0.4538420336012136,-2.4646499059384412,0.2372684878144094,0.5677610131407491,-1.2250036248348282,0.04600681206321884
71,0.27455572763994707,0.5226670233857177,0.05509817849118926,2.0536614244075344,2.175455524073292,-0.2920052066363126,3.3905238763081944,0.5125860090000938,2.701961163954611,1.4598328322575749,2.7310120453214672,1.74986402677014,3.6429291050082653,1.8686086768545216
72,-0.6919442113081794,1.9310662827603338,-1.2310661275286936,-0.4809463828800892,1.2297104274077537,0.11008163452849226,-0.10295468022754986,-0.2602329124029315,-0.35822392956397847,2.5659643139133625,-1.1827456223946142,-1.3152157159477331,0.5407312062960478,0.8246275756822133
73,-1.1043888099547488,-2.1324982754026465,-0.5887612642904091,-2.046532224302362,-2.276081565764653,0.6349831841618481,-3.216580015730453,-0.31096294867683166,-2.8587252167654036,-2.251500978637342,-2.2802411183568014,-2.0172394434968215,-4.064861848617525,-3.1189705361994173
74,1.0074396447576375,-0.5882084855284335,0.7811886905115623,0.7490914234898981,-0.8273076813795305,0.2192891151954838,1.4471612234167845,0.3994710467465365,1.2874723378548072,-2.436495863686448,1.5161509485311124,2.062706021202824,0.22040838049731645,-1.2251216910219613
75,1.864665409479415,3.187192052068516,1.1785613525531462,1.9435860976676698,2.2067266094955404,-1.269726230571749,2.2605204459636297,0.02789708182655246,2.7185046363643903,2.9968280180632183,1.7467170180553084,1.8420574418994333,4.170554997907017,4.668718737303246
76,-1.6626793022690702,-1.0329433596741198,-0.4038133720629627,-0.9643157397048345,0.570130498466514,-0.040980612134892735,-2.0506366360728006,-0.1994078992597656,-2.1520155715798204,2.171846476531317,-1.1842965276721944,-2.4719958077830633,-0.8768859251818489,0.9300149767673609
77,-2.270921543811784,-3.5010548814600093,-1.8099117580884152,-1.7276402204432075,-2.082795128181656,1.8623497718230027,-1.0182873523022058,0.061784833596140114,-2.276058634784729,-3.707765419173494,-1.6643161603582803,-1.376036969329589,-4.040532756415348,-6.053074021294177
78,2.433067971674652,2.5223333112998154,0.10178985497620598,1.0309783681280873,-0.42908246898930275,-0.6280610597283359,1.7510188561793691,-0.1860109672369487,2.7677931675444594,-1.783990529265417,0.5557965324428135,2.3032842409227863,1.3442621877360927,0.010104292558453482
79,2.1788993309124507,3.135625571851262,2.475821305448924,1.4614496911211479,1.974639284366644,-2.0981025710769083,0.08483158570076609,0.18793269714333577,1.6254248924432122,4.386776412478011,2.2495474133985764,0.9475437706324388,3.76261959869235,6.80756306014429
80,-2.9920592460947177,-3.5272726312504368,0.0714477822286155,-0.8987132488893834,0.337341442273454,1.5572255618666473,-0.7979327602551256,0.49219505168595346,-3.005177836204367,1.2119181714435232,-0.1696156044509769,-1.5448098186119952,-1.614261413701906,-1.2443791603308914
81,-1.6570526323671,-2.350025810529937,-3.110769512097605,-1.2465081299813192,-1.886988270358171,1.8289879774968283,0.13659667564907604,-0.7127421392971623,-0.9326480100057291,-4.940001493051884,-3.2820249304585554,-0.9142835674937021,-3.373753080610588,-6.6769781534131125
82,3.0484751698883077,3.870320655132764,-0.07978908105535602,0.5887804536082389,-0.25207993103481957,-2.4302434991462576,-0.29645937772067354,-0.5031947753711074,2.8266869973851616,-0.42234975362166505,0.39890187491458845,0.4387996421304105,1.681120343635882,2.237233695217634
83,0.9709923731058616,1.4799958377972613,3.594850203309988,1.1663558183977678,1.7923262818666166,-1.1214107360067727,0.3911495445257119,1.2786078440950819,0.3931645779807553,5.187150872729107,4.2470507134274005,1.4949955589803245,2.8819321612160045,5.764841821033238
84,-2.4754916661977204,-3.579117368815329,-0.02615324928661869,-0.1737014039068698,0.17802409709483022,2.9995893395432494,1.0251997924216498,0.17821009071778207,-2.3066092029575427,-0.489661580517738,-1.2347987502582487,0.6075791494899685,-1.496291467437715,-2.5008010023897236
85,-0.48559379956994786,-0.8122053759655792,-3.832137749916205,-1.2539073606119073,-1.6805486250739943,0.18973433543043933,-1.3621089569317144,-1.618441027044733,-0.17621999938041288,-4.970364776763271,-4.635813587088773,-2.659147376408201,-2.336817967445499,-4.531462081334198
86,1.380728583837524,2.8349192600540145,0.11111286548848034,-0.26440685857000235,-0.14209087606980556,-3.1794597005730516,-1.1244655001605524,0.32610095131289907,1.6265877474167658,1.2926556823148065,2.303324582238625,-1.1845651581000853,1.0006272502379827,1.8472534935836182
87,0.5200091182423385,0.5066700940843267,3.8384045827575304,1.4963576941690446,1.580468966853922,0.729890402616358,2.3164894392892372,1.5847282452859996,0.3605387813624682,4.280507296705609,4.21744288988615,4.122198414522731,1.871649473912466,3.608451450749531
88,-0.08617107488009175,-1.8809614527687786,-0.0422323297954403,0.6635143055378948,0.14882083864509746,3.0376183880262824,0.663428293975748,-0.7482392154866423,-1.0328504228931845,-1.722863715483513,-3.078933606829644,1.0449891036389842,-0.20880495456672513,-0.52717717594673
89,-1.2098322398237764,-0.5844887502384596,-3.7568507860688833,-1.8610953811129745,-1.5376379538951328,-1.4839646021071415,-2.880233007604415,-1.2300238849306873,-0.8830433441086921,-3.3010443780725383,-3.1380108657937282,-5.445137020019018,-1.6620824545117134,-3.4954626840257625
90,-0.9811664835610098,0.9374292115069046,-0.1994953788770166,-0.9841963857236697,-0.15784130827828893,-2.7137747287849145,0.04057161655338849,0.8737875128861393,0.7510441875274925,1.631445385032219,3.152260543533179,-0.20617679284082585,-0.7321757885397607,-0.8428987684503414
91,2.4326109492582564,0.9648266959443778,3.7717344982572585,2.3148162484824564,1.569723043993749,2.0314982588459016,2.9271508857255424,0.7697886698436663,1.5363980625726452,2.3303710085222678,1.8225904927897723,6.195809136445339,1.8200541308115714,4.286286194468521
92,1.4516967358393675,-0.15167504796302528,0.47417053331528636,1.1963251524638676,0.10338440976366733,2.331139861144459,-0.6129513199494151,-0.6565640249116882,-0.884820339603792,-1.0713797199010209,-2.4065361963275125,-1.0474575541213882,1.5749913854694053,1.5569047536112828
93,-3.834297455690974,-1.5203410390494594,-3.971039440387986,-2.8221280245693396,-1.6371413097964638,-2.4049448899406567,-2.5958858309043653,-0.45167551627292185,-2.0387524740608725,-1.6333982084027228,-0.7675047316191231,-6.111969211588701,-2.3017769210160273,-5.579763289845088
94,-1.1667473872215128,-0.41311063243294366,-0.5548049979362443,-1.2732273308530366,0.057352930235158785,-1.9554184707552686,0.8067972344872867,0.23743400185439534,1.351270040790034,0.2653013901498155,1.0390765860288325,2.259990426326242,-2.0890805715966954,-1.1744207740876687
95,4.957337142694903,2.1259674389664904,4.258428104900636,3.3348518726446432,1.6547654682027266,2.6512911291077352,2.1808157977797125,0.4115791275686648,2.1588817258722113,1.3219892741126678,0.3427710321744141,5.210766196060856,2.90707268893239,6.646925843962497
96,0.2553759579579545,0.7633659783799913,0.2813092968813392,1.2036585918469727,-0.3016462881210785,1.6079155885153962,-0.5952861890869983,0.14826043892785146,-1.9020987013087958,0.518115598116338,0.5408992215139007,-2.9677489652521336,2.1872412774068675,-0.23242676308510807
97,-5.425659541962387,-2.6910750243956194,-4.390626728980583,-3.7945517396145445,-1.5419370120487081,-2.8014017519039123,-1.9742805868297637,-0.6041810179804612,-1.8369596373983534,-1.33669885103637,-0.679706386497197,-3.804859755257231,-3.382688368448802,-6.786379789576709
98,0.9099326808130597,-0.9477036361608601,0.3068390689324918,-1.006893696790788,0.537108997444303,-1.2972938548270345,0.1511958423371391,-0.31458506190436897,2.2374114299111256,-1.090958422383578,-1.8629719656140649,2.881751869757801,-1.9717502524657984,2.0856004013695446
99,5.106496280281638,3.174720712840743,4.130477047167158,4.155651429133428,1.2813926712180708,2.877860775732805,2.1396912725102326,0.8476731884427936,1.2288519245956555,1.5248620177609034,1.6513147383685152,2.4064023475510252,3.5649995894403914,5.684366599828507
100,-1.8712440694368146,1.0228161334163954,-0.9604892939027914,0.7259149719893855,-0.6459078134571733,1.0305279678208588,0.24960658426785565,0.22920535465066463,-2.161850136778867,1.3962506326087274,2.5359379024415714,-2.024325698851514,1.6632352545947051,-3.5721993995650916
101,-4.167335847982508,-3.5827233662439,-3.4179406416499023,-4.40844056860077,-0.9482361874533969,-2.9129513364797943,-2.6564711963469034,-0.9490465912287184,-0.635934504808758,-1.7444632223033691,-2.918296036262626,-1.5340019081220642,-3.465992121760702,-3.5809896092785953
102,2.288297145664657,-1.0186293905192383,1.3553112694416092,-0.3931961354871285,0.5566878710792046,-0.7959996115957646,-0.345827397939185,-0.015294802758614175,1.6978259025740916,-1.4677787476939244,-2.3560258719339506,0.7525593816280148,-1.4572872537586188,4.038271141182778
103,2.991162441367211,3.9422844194898277,2.4382589003190476,4.570896268994499,0.6838920335098182,2.9430778997974723,3.3362141304752453,0.8265708829754194,0.3471024606663133,1.9174835908638783,4.019797821328945,1.4863248081156755,3.2430815680754623,1.149999410936446
104,-2.0846905671860996,0.9173066502677235,-1.2898393971913928,-0.002840575960834835,-0.3023678078225594,0.5467628878224639,-0.010499548255824094,-0.14318605295782155,-1.0848225977842116,1.3544293593129135,1.3758471597138393,0.3687240633214481,1.4052603388311404,-3.2900407186662686
105,-1.988023440102269,-4.257764640052767,-1.5307728758349006,-4.6426018683980175,-0.6212845190786175,-2.976022885721925,-3.8903417826734015,-0.5526677375054903,-0.4760025388559267,-2.009266070047958,-4.502227442191372,-2.185383781593002,-3.07209559307265,0.8343250336597247
106,1.4587023452666998,-0.6655594647116326,0.8152779810040115,0.5103411755721134,0.024004795673741343,-0.21586107319726075,0.7944393863336773,0.1261596455067574,0.6545739388983141,-1.0809599207460896,0.08510082892325586,-0.812413037870805,-1.4006351193175623,1.6449101280046035
107,1.4021168401390398,4.470297829426712,0.9910676723017915,4.555108652717942,0.7996362092001178,2.961808067802369,4.029020570295968,0.2962370129197391,0.8877212348160969,1.975488775023978,4.0696616959790894,3.183592564898288,3.0103283311732647,-1.8496866056559425
108,-0.7545670396171233,0.22556092411649348,-0.20708437455422316,-1.1536138043045834,0.09174164006185875,-0.23476883943322965,-1.800817453612487,0.04854496165107248,-0.645428258650842,0.6732098113989636,-1.515418009223402,0.3448178611855879,1.2805137081711848,0.2722436083632594
109,-1.218381629242036,-4.456033473567552,-0.8950295931135316,-4.170960374766273,-1.1203037283922879,-2.8026173809032757,-3.569456354996355,-0.20845824706533225,-1.263817158542629,-1.742042672462497,-2.709070631072926,-3.855356569972388,-2.9468044572192755,1.8079745203927362
110,0.26984512255723914,0.3608448470911142,-0.2056947145879624,1.8571489107991228,0.08527667127389123,0.7657109401412654,2.6998219740391023,-0.2441341798919978,1.0602466751404138,-0.21176575449282417,2.3740301997015725,0.8428341586390666,-0.9711850394783179,-1.8457367432240144
111,1.2138467243942401,4.082057245729833,1.0605938778966812,3.3547396344276375,1.3777692803901445,2.4074208084508157,2.519980690268031,0.3276371058180931,1.2756452887918965,1.2475293234243106,0.7261027702891808,3.6906651650718496,2.679204789027501,-0.9975481308062749
112,-0.10820405360040745,-0.9426398122493661,0.24225371489959263,-2.4177109482053742,-0.542234801989395,-1.2532942678623176,-3.150497806321179,0.2979576834506022,-1.6525646440070116,-0.15062411487033592,-2.290037906301023,-2.206716167290105,0.5727162187373944,2.7120296092521974
113,-1.1138927239492913,-3.29737921368864,-1.1704093842545906,-2.082292070504966,-1.3588309265243916,-1.7591488831921995,-1.0985224468556039,-0.5605599701165661,-0.7696071398983748,-0.5154875845257747,1.3481556864579252,-2.542176785507594,-2.067089189705444,-0.1341893118316584
114,0.15406278204899093,1.3010529433969247,0.02642266789511852,2.563989585931471,1.1060467924505177,1.5385854430593782,2.935261965348669,-0.1259460216734423,2.0528708024912943,0.24217361363521425,1.2115209973109584,3.0964307758611507,-0.3174437400760425,-2.8184211667128776
115,0.7570151454577019,2.200276550111709,0.9726316963513106,0.515393411371558,0.9609548804943723,0.9485231070181118,-0.33796222731564085,0.7463626541852132,-0.1426844855560953,-0.3109109155493024,-2.956115423227283,0.697437288888706,1.1528790635738022,1.199629397193346
116,-0.1699575653200129,-1.2511664982257487,-0.3331523348736611,-2.0832563526171946,-1.5141985526721473,-1.506239214355458,-2.053035207038104,-0.22678951953805204,-1.962934108354655,0.03317311025279167,0.5762367622581555,-3.048620371214811,0.42728542466941544,2.320535299013446
117,-0.17672799071216758,-1.0281550965196442,-0.43110368700822954,1.017137618716538,-0.2638794166529887,-0.14942607640242003,1.4305903503254722,-0.7580853435778726,1.1400627756497028,1.0139622961328763,3.7308287105811573,1.2553874658080653,-0.16252080741044653,-1.9702416891515295
118,-0.05143313469217407,0.7447735140151134,0.3854755128196034,0.9440244699172577,1.5430212033807063,1.1461879218726967,0.7183901732969691,0.6172273079423691,1.3054526101747304,-0.6297011809906674,-2.5815887766122687,1.9806451034130717,-0.9696349229588931,-1.4352504381426667
119,-0.4332454645962424,0.06561902004478615,-0.26232498464445614,-2.1323579045766916,-0.4902434646491665,-0.45102792810984943,-1.9546637325807517,0.5769323354519748,-1.8544611308505843,-1.4041331396096177,-3.622442918059761,-2.688138595416546,-0.6143252010891124,2.3466708471516076
120,0.5701402259233738,0.09177513512689342,-0.04030409968110123,0.6580541134309877,-1.1272575608434168,-0.5631524337313221,0.7354109241895762,-0.8936190213617206,-0.24839155538541952,1.375761111040384,4.323816464463981,-0.2006171257303132,1.8113964897185073,0.35952937342744334
121,0.8351550265843919,0.47648768946752273,0.8073401682407063,2.540976713133546,1.0038852621375554,0.727365420911227,1.882140950326087,-0.2948732932091681,2.0397114207549727,1.4091544873559534,2.867103832150312,3.1821146895495,0.9772467098278104,-2.2845126419514385
122,-1.2734534416989742,-1.0078380863558776,-0.6190563829652652,-2.356033638511983,0.40578627975981424,-0.06685594744191714,-1.992131998877722,0.9838355146791429,-0.8933879034938134,-2.0615065735663403,-5.521576990730558,-1.7459747409342852,-2.6941365138291697,0.7208611795649585
123,-0.8714245542969609,-0.5406875975997281,-0.9635301021536254,-2.153834149570354,-1.0656426801554457,-0.65706603006932,-1.3445247616078073,0.04828942535220894,-1.6546401522214007,-1.0881828167265226,-1.819449876716284,-2.6555657358813924,-0.8978554475714496,1.768878681863156
124,1.9400214410315206,1.731615443183165,1.3342308851568887,3.7345450643247964,0.3336362241382458,0.5634959580855584,2.848005415638976,-0.9274743626699372,1.8034581667198994,2.53322108969084,6.150299978051243,3.2958042507434704,3.364544358180135,-1.5960240103080237
125,0.5338583131117376,0.22562077288026858,0.6707131394949164,1.1048437973910357,0.6540505944268732,0.31588674415739154,0.5367231375724203,0.07104845757633221,0.8376219225555868,0.5712334162295071,0.753480734900516,1.3417540767511207,0.49467901703737266,-0.8581094567132608
126,-2.3461638085435856,-2.0654523755287477,-1.8069429223637046,-4.457545737908359,-0.7845723630524748,-0.7973278200008693,-3.2242156279586083,0.8348875229520968,-2.2699298986869634,-2.7300666679074106,-6.346368136800748,-4.0484163135869915,-3.667959287067513,2.0484717914080686
127,0.04321515998794611,0.27008028721656163,-0.06845498967382524,0.30012349797467874,0.04871865072570049,0.1574496788456809,0.3638832931981431,-0.06885369999533122,0.17930545167158005,0.017224324242454264,0.24191429615373433,0.33190494582457436,0.052519359341257746,-0.2647032653727193
