,AF3,F7,F3,FC5,T7,P7,O1,O2,P8,T8,FC6,F4,F8,AF4
0,-0.0042882764593839195,-0.013078682711496903,0.06913818677829553,0.003294127994954401,-0.020827055254514955,-0.010731737094317979,-0.029299738178965223,0.05649254455739776,0.1024482644366763,0.0909607699891926,0.0641014886143175,-0.02618903344910438,0.03785367953669005,0.06929034527271427
1,0.5562255835702495,3.0879881403460137,3.123381700305462,-0.6474844665439558,1.0121694484556447,1.7689752980852256,2.960188180856933,3.579486487523861,0.6298253663682281,1.7670235438795838,0.47517391865274594,1.828727712370426,-0.3612286741954336,-3.5665894624760357
2,-1.1034374683684522,-1.1208774486137822,-1.2174141723041458,0.13807872682231534,-0.7673014462926647,-1.435072061707039,-1.70282845819905,-2.4714510441878463,-1.3679568403826423,-1.8424971231890224,0.09711866846234951,-0.9245226692706513,-0.5617105055415219,-1.336037726314701
3,0.2923925423524347,-2.495608588171451,-2.2903178575075356,0.6199166336220452,-0.41563133769137245,-0.959297240426121,-2.0193114867879163,-2.344699009956072,0.20929697938934372,-0.8106448368337185,-0.575537069470165,-1.3860275466148582,0.6830444395414237,4.0999531430960205
4,1.6209269582887706,1.8191084778637436,1.7734508693560769,-0.2965488835975707,1.1286281498448507,2.397229281055778,2.875942542919853,4.109443835897409,1.9993002384640677,2.9465793107650695,-0.24074170401050696,1.6332766301139958,0.8162174237133947,2.194013582574876
5,-1.5675358349898816,1.6317178854976502,1.106722298377729,-0.5308278164193462,-0.4685280089555845,-0.3850670605609927,0.4556690561340956,0.3861677291860233,-1.419656658102629,-0.6406667246504525,0.7703187477926396,0.6310752179779119,-1.0838930598718985,-4.892178414113484
6,-1.25877424853126,-1.8852578143823562,-1.5020597989413906,0.4474836518120941,-0.8467326950237501,-2.55436870393269,-3.11927850516968,-4.548593171907429,-1.7152910940706885,-3.0770974710000134,0.34092605869995596,-1.919424472652723,-0.7141118209056322,-2.3900426002428814
7,2.6414398281897657,-0.9440886409033331,-0.18629486271925935,0.35493445123031997,1.1872318026344812,1.780589506519714,1.1596406523102707,1.5519249718872183,2.343751163837146,1.9385405915741625,-1.0360266872726704,0.23346258368280942,1.2844218669266592,5.508940263826364
8,0.17851173472412873,1.470075150034944,0.6374661850287535,-0.5216961849101971,0.029225037288853502,1.8852123595853238,2.4156585159833965,3.870777822365948,0.7238231982448473,2.367580961398679,-0.36583975961628534,1.7196284873094314,0.3967926748232519,1.959820010777725
9,-3.010257744401873,0.7564272035948809,-0.041754136607262966,-0.12111484406088602,-1.359807443048092,-2.7356087428487004,-2.2443174412577283,-2.8220492858257087,-2.486549226516046,-2.5472356929105406,1.3255973657580788,-0.9711012919932291,-1.1096482381173711,-5.529852866265149
10,1.1064495827434413,-0.9774662814359679,0.25945109050006177,0.4486362765689562,0.943640423894795,-0.6754134589355972,-1.112410460470044,-2.580924299220558,0.39847037258640733,-1.3297964441279833,0.2883006946100738,-1.1158845798947357,-0.16234137529460269,-1.2348935432399424
11,2.5449423415132055,-1.0805885786897784,-0.4189370404813104,-0.07477584681408853,0.8682851112081136,2.9411895836016955,2.43676681110325,3.1552176975873496,1.7837830335732217,2.3106586732010257,-1.5662396472128703,1.3931658053606344,0.6159453071275091,4.750521290787647
12,-2.0103733196021123,0.8268653867313721,-0.635391519685555,-0.21755862701264472,-1.6058269766371944,-0.5969864904336242,-0.21690328104304346,1.328968881046993,-1.026831146581502,0.5775476080367564,-0.10487528693441306,0.31198105609105625,0.29125085538732587,0.71189170267986
13,-1.531210205182642,1.6100597715227196,1.141634778102654,0.1106191794275226,0.08522287151940243,-2.3901172268937234,-1.7436683154658277,-2.738238656717275,-0.6292265896589954,-1.5189328545436327,1.6726567566881954,-1.431586729946447,-0.08729041121484246,-3.307372636018517
14,2.173336547289431,-1.211954931944491,0.269558054827255,-0.0903513768156074,1.6308310144075042,1.4538829369584105,1.0099812399529573,-0.5849376542993528,0.8284710249413492,-0.5002329338680881,-0.14776668085340652,0.4414859634110853,-0.8674687849570792,-0.8249185157302611
15,0.4921662748301021,-1.8938199851270243,-1.5345214499315951,0.09038165079775454,-1.079262686064334,1.3736730780517095,0.5332836489098727,2.0580082695256743,-0.3484583460609196,0.7368612323408358,-1.573285978140478,1.166616842133639,-0.10596363918312704,1.6489385513278685
16,-1.6180751701426792,1.9913950066519177,0.600145383307205,0.3267651918376489,-0.982216053760539,-1.6096719343006753,-0.9510884194825303,0.4365100071823677,0.06488258380299053,1.060875843055319,0.38865409327559375,-0.9463687774652815,1.6986318237913318,1.7227476963833788
17,0.09244824296027444,1.5871160206719126,1.1911682122310254,-0.5037756069487581,1.675513919681529,-0.3549936533408381,0.6273726935922578,-1.6087597074308204,0.6293578996521559,-0.4855483213745924,1.2408009985246702,-0.7898003052747544,-0.2860498714967515,-0.34704329755144725
18,0.6986904351414043,-2.7653408840113176,-1.4157887969048781,-0.34654054781873983,-0.07988700111968458,1.0840500865792742,0.09827502892385503,-0.6057336303864428,-1.1393005962458616,-1.8278508535473301,-0.5047027145773493,1.1360356895205328,-2.387367505255509,-3.1667223793256514
19,-0.013529116539185426,-0.6399216791232438,-0.1317248257491399,1.0002532921056861,-1.6198824139038985,-0.23035672934862933,-1.2191212429285894,1.6264639358391308,-0.076793965622237,0.9497094968959117,-0.7178351863672867,0.5128035496505949,1.2316162877435148,-0.17239500059741852
20,0.10693757734749054,3.0871239235965704,1.6163656076290793,0.08264579840393185,1.130202149448216,-0.18610695954738057,1.1542943592041364,0.6586587014332793,1.7799751778611106,2.222422800799789,0.3810202630535046,-1.0930980990547954,2.5250825838804736,4.61520470867669
21,-0.6006419213251687,-0.6717560466086862,-1.1945578059286286,-1.3971123594599182,0.9481412059387594,0.16282881856707243,0.9889881647500268,-1.9901564191339194,-0.9991630071412411,-1.869559135231523,0.128534743328651,-0.4622624694400256,-2.393686954355769,-0.15187837033755333
22,-0.4369079851754157,-2.693373429136012,-0.9547556289745976,0.4156492233348487,-1.777426179943556,-0.6261929919656304,-2.2583641210604726,-0.2783558414262939,-1.5929209419255628,-1.846769858581165,0.051886549826393645,0.990099109794694,-1.9127016407249098,-5.468741901458724
23,1.387101879317175,1.8775445596955422,2.1388836781573377,1.5357051772710049,0.04591207870443455,0.4666737359634248,-0.04353445354977088,2.329529010265441,2.01133531680766,2.6751793176194845,0.337159819157346,0.6153579644738754,3.2671637521774746,0.9640694178365248
24,0.19799106819150278,1.6374325063737096,-0.35223270266769957,-0.9979825818371616,1.836282790390708,0.9519859175330568,2.7512395595973427,-0.5539849200979544,0.5982697716262559,0.7150213200161042,-0.7663683371793409,-0.9774636182153904,0.6923288651771701,5.364122528933587
25,-1.9462230447536681,-2.5330659363935415,-2.1892296845499586,-1.3462173194684264,-0.9573563524320372,-1.3009070236336358,-1.2189727484625505,-2.261646828203528,-2.3987918474019487,-2.7904268516703667,-0.4776625377660239,-0.8186242990894691,-3.4177770879812845,-1.6455048521552633
26,0.4262067623985444,-0.268352336638426,1.713480719460396,1.4691166856737508,-1.3963907155361521,-0.6268201235135816,-2.443104543970105,1.5618929463699582,0.7955691683656541,0.7355238548278079,1.60969373932003,1.079217275913203,0.6878295610473416,-4.370165921640066
27,2.030685801679983,2.420606178735785,1.2425233505297388,0.8743046149916139,1.4604722354885913,1.8802125048131875,2.2977543031138925,1.6142713110750062,1.902805492283092,1.9446709170864493,0.16474874295290506,0.8908138649913033,2.7047405877385162,1.6126355755250468
28,-1.094524544925738,-0.9253347391376507,-2.444736084523467,-1.6585820806346478,0.7605908199531229,-0.20760017819874912,1.4719971015938929,-2.3414553997581034,-2.010079535446012,-1.8571618347450065,-2.3311730521914877,-1.1641574908541148,-1.6696400699024947,2.9764572426197766
29,-1.64255838823297,-1.6404645560908515,0.32004643609313543,-0.2653460978980849,-1.4534797562033808,-1.849322818066763,-2.8060875134907466,-0.5134638376957724,-0.678137855565349,-0.3296370374190422,0.5771894603944195,-0.756381977016242,-1.3687316672506036,-0.6149070779771664
30,1.486094729412883,1.528718831862061,2.103479795363561,1.4781755542925885,-0.28472932307244725,1.1736307117169256,-0.21357169618277455,2.584454236486287,2.5850874671104447,2.1157476737107164,2.671755164175286,1.023462947439069,1.848807404268449,-1.8672882704704938
31,1.0058236436026298,0.5587444052423707,-1.7910427174879675,-0.2828497552898654,1.089699872846907,1.110045008833314,2.6155413163461474,-0.6986135492246494,-0.8058090939421085,-1.4774276005651297,-1.5483128134264865,0.5247114791019599,-0.06824068002078743,-1.1238488724012732
32,-1.4523848641322448,-1.3733595818846345,-0.7174149073648496,-0.9519453066469896,0.19790387594901623,-1.8288204380093425,-0.8982792237404758,-2.2280296303437264,-2.387692495478456,-1.3590296115878158,-2.482522226905607,-0.5193720469606303,-1.1708778325320794,1.588864071397281
33,-0.4368102179331901,0.35724339342909484,2.4547457371599326,0.5823784951805673,-0.6812642396619936,0.14612254193004323,-1.8724385265191728,1.6506259191045145,2.009394269006763,2.7812915693732045,2.4365878879773804,-0.4520267546078462,1.0443613357244215,3.002022257579855
34,1.0769048026641093,0.5973317283083166,-1.2023120178376454,0.21239426094656522,-0.493866113421445,1.8527437557155642,1.5489079555705025,1.4588141370131986,1.642024073570747,-0.10398113109224419,1.8094289145020694,-0.2849368472796094,-0.0429953316187343,-2.282067789223046
35,0.17740660957793003,-0.7372931890298373,-1.9165450168521914,-0.515006342285316,0.5265983703398961,-1.52840386253711,0.8984340037774263,-2.118301508750633,-2.5775454247732754,-3.08935361109761,-2.9484002470657034,0.7934468669611102,-1.2167316946218416,-4.328557437090827
36,-0.6179618633255063,0.42593700024838294,2.87155971456352,0.536528504008163,0.9491548969127926,-1.1665456807357961,-1.6416920540097195,-0.5901657200702002,-0.779665617180898,1.6465157926181992,-0.8895527519346449,1.1047849198615367,1.2517628622375914,3.621384135682875
37,-0.2720014665560943,0.4524548830640904,0.28962647237858385,0.0718327376497581,-0.7545690219686938,2.6066041532181763,-0.03873963137899255,2.097178255741571,2.4744768717523433,2.3273257803799843,2.943370649726644,-1.6275016025855809,0.6058615223577173,4.650954455020626
38,0.3631527874717252,-1.249515738917483,-3.5708618456618697,-1.0806157319781409,-1.2550887794407721,-0.0548695675124396,1.2909848232174717,-0.1013297383778325,0.20486855092766043,-2.6124357781038965,0.049341561011410164,-1.5516333566136735,-1.9467626110940492,-4.986780880278167
39,0.5503553381883539,0.3509684908873429,1.847413487929715,0.6411800353483534,1.2690542882086648,-3.066062188227207,-0.46731095699352504,-1.7512638433655883,-1.9418540511153088,-0.8514577997754106,-2.499876010383949,2.761846926207815,0.43970897855909064,-3.9526844048344203
40,-0.46921671271574994,1.5288687428358618,2.9539275872575423,1.2618606617356187,1.1868276697683167,1.4654823098857732,-0.7352954839844988,0.48535938217072844,-0.10617502301768167,2.6039250515502053,0.4480147437839932,1.3313248108186924,1.870411603603432,5.76859785370208
41,-0.7282066694288893,-1.3288455443269915,-3.6995008015341866,-1.435549809241165,-1.81912843983929,2.800524071447544,0.5453957482991967,1.2893030897485707,1.3232805037014301,-0.7366000000850528,1.870272557223892,-3.785932713518446,-1.427738846661137,2.6279986255310117
42,0.8733829658834955,-1.1388914772269176,-1.1862579029400575,-1.0266504101145615,-0.7137346007897595,-2.679189050909728,0.22539752403322957,-0.5851646274363667,0.40862954294747006,-1.631356656914225,-0.5254271701626537,-0.4119735011245125,-1.098854653920466,-5.6424586390692015
43,0.5750820119231479,2.081729663263779,4.591525453661939,2.0994685420032333,2.146584809778117,-1.9214093829583587,-0.2692568697066496,-0.851558608098088,-0.8659186208658518,1.8704451938304427,-1.3440792160645156,4.250647304601273,1.9531325291972061,-1.2649227299789938
44,-1.3289198100194157,0.1965854980048529,-1.1425484978752722,0.4385508999077908,-0.005408699661916225,3.396107529415493,0.061833551058386796,0.5007393400295905,-0.8742098556561819,0.0646626474524871,0.3153595149176342,-0.9347824182226818,-0.03592780445449767,4.682312385439552
45,-0.057074704531690605,-2.298892316161468,-4.237083813752254,-2.4619859594189606,-2.1209927327054507,0.6946729522158951,-0.204742416227964,0.4692034120934645,0.6107684471449052,-2.253291425700523,1.0914030978002942,-3.881091372671991,-1.8611540164236562,0.36119302721037033
46,1.549831711740541,1.001131122181657,3.2803236879892403,0.34651629296947356,0.7272996213501524,-3.483604623853511,-0.058160792290539096,-0.3113324656187546,1.275286713092887,1.5719581199147126,-0.06667134192789322,2.2441666692899713,1.1283686627300797,-3.2754417660472392
47,-0.6298628285032962,1.8551820377157988,2.825345447461526,2.44043772380167,1.7885315266228765,0.563294958611483,0.7120370416260616,-0.105271283482219,-0.42170893754175065,1.938442022109692,-1.075447146563709,2.7110250429857317,1.2751871527539038,-0.11634227441393885
48,-1.383987336989474,-2.087891007595888,-4.618636355813724,-1.1307433483734532,-1.2581157578498419,2.992074690682812,-0.21005010464482415,0.022010118903348773,-1.533377713004156,-2.8455356491121844,-0.01526018695065878,-3.0627063314849754,-1.887167847248872,1.9039209360294764
49,1.1604625933809152,-0.8407421826783291,-0.9052972342262928,-2.058892159823731,-1.319690554615814,-1.5912682757119434,-1.1319271817132286,-0.26451983298077913,0.11981800745848299,-1.236072196702543,1.0879313842943275,-1.0726979996453911,-0.4943496110606665,0.38837383171448936
50,0.9125746466943715,2.7471122631206772,4.907622881366907,1.732881569467526,1.5390020210661384,-2.107898901108579,0.6634378314565063,0.4181112231651878,1.7460877054091302,3.5749902021684927,-0.09819504411441432,3.1427997230323292,2.2402709434861148,-0.912211199534754
51,-1.2591784397242587,-0.4740724308127008,-0.859876290899001,1.4361870313922602,0.9003393674428137,2.2538401387038354,1.4047589983479016,0.5916942478497995,0.3675299419733555,0.517828265104619,-0.8903680767419412,-0.54698993570351,-0.1732758614695492,-0.8143307594101165
52,-0.4152760969448794,-2.8094413629582777,-4.30175797412652,-2.0391827860179927,-1.645231702659724,1.06699523631818,-1.213178582906285,-1.046956661424554,-2.0953618190873446,-3.84072734883054,0.235381168110249,-2.535389469795114,-2.3190788099207778,0.3714933396121491
53,0.8540037592685826,1.72536062121097,1.9494021517521611,-0.7484177183590252,-0.6343179711000004,-2.5552606085482057,-1.5202073272830556,-0.7561833075291028,-0.9347905956090353,-0.03453729117717831,0.37790332161934254,1.7084032816773471,0.5545961549694263,1.0177516326090223
54,0.22143187284631155,2.3050065820912033,3.244298185447322,2.0351093595068286,1.7151156450013,-0.06607377965728681,1.7881425557986304,1.8205190425100206,2.6989175995725208,3.8658258448340455,-0.12993017893297643,1.5461426694795155,2.3459322564061207,-0.09183884774710341
55,-0.11741479736557296,-2.572306327542195,-2.149822072787324,0.17406021512223674,0.5068373638359847,2.5980189412845074,1.493122606466708,0.6271391742393659,1.3458507162455255,-0.1621291091848918,0.33612956507822955,-2.1833848036154158,-0.6670083815870791,-0.7954994105700033
56,-0.5348672322136983,-1.4524905476730579,-2.2628497346757843,-1.8078659667824684,-1.858719329097415,-0.7924051687438134,-2.3404277719142166,-2.590250563738926,-3.497851635842868,-3.856931678373784,-0.40576524798184965,-0.5878750186348433,-2.4922651265741305,-0.2420626096468609
57,-0.6234390778925394,2.81013698116476,1.5827394719611347,0.16502930015223768,-0.4167045345442175,-2.5108282857577837,-1.3432746287400115,-0.14609512437876201,-1.3724631247053416,0.1751036697130992,-0.9711588026470748,2.0143259681490537,0.669475775433,0.19995612537452473
58,1.3303961376323667,0.5812827471906532,1.7672738496892184,1.5135354835378023,2.096955164318499,1.503178909319785,2.835737936405548,3.1432866713203715,4.251373606291211,3.899320870894518,1.3458170479894764,0.004405992142401622,2.78187386165152,0.8900220416757691
59,1.049066622408218,-2.4379827901686686,-0.611108088964197,-0.246685112977715,0.2487143388533576,2.381844640137047,1.0875044367598192,-0.6149509056479209,0.9412453055324737,-0.1477241952131777,1.2378096126752458,-1.4560214739361952,-0.7459867489711841,0.5075834789985498
60,-2.3707586344664047,-0.009614381017829273,-1.9197863776272177,-1.3141576738456198,-2.3568198397193605,-2.1161989293119086,-3.2404101508794914,-3.2875284639478064,-4.646466182119482,-3.9513850531649157,-2.4400193750072003,0.056640608061833485,-3.084509333950986,-1.9187713518304477
61,-0.9904429462309436,1.6506931501390285,-0.3222800610650558,0.15418589486241518,0.05748929960957264,-2.2265011668338204,-0.7434948335834067,1.4528695125815414,-0.20030207037403472,0.16242367444654435,-1.007260201457288,0.8399892489260319,0.9889185867049544,-0.9944484652377376
62,3.320905322874224,-0.07341405395704773,2.608174714425445,1.3072881674667391,2.5159985972242827,2.676697638065456,3.515040786779093,2.942364917904644,4.4612239537258755,3.9159934516366537,3.335570123652957,0.3245605886765597,3.1952501370139355,3.1634794051465787
63,0.4843536482959485,-0.7550601464041987,0.860878869342168,-0.03533293340959031,-0.47645898019662997,1.999822790220782,0.3387808174094133,-2.0954400636299897,-0.5373531486542751,-0.2090901345917387,0.3880271450119314,-0.4275752142913443,-1.3440061045672582,1.0140464131096347
64,-3.88873769746388,-0.3288492578683701,-3.515878976711325,-1.4811956874928252,-2.466097337273925,-3.1789604590752196,-3.6186469932083063,-2.1929488988035364,-3.686827238735088,-3.7240620466237817,-3.7573865712811987,-0.9055571296840234,-2.9502940243283007,-4.292356136636395
65,0.26842571165934204,0.047073897551288185,-0.851637374038832,0.029039064823102978,0.912876822284688,-1.6415865597873038,0.08222462465275525,2.304720047127079,0.943145475994667,0.22320180361384795,0.33375027191011186,0.31442331186778655,1.6403814271813582,-0.5177102079716224
66,3.922056460861013,1.0371620838371793,4.25533693350431,1.7210435312377748,2.1590907528959176,3.5550803765813317,3.521187437463192,1.2785919886472288,2.5371825138906026,3.3724830849208196,3.6387146770942262,1.4056066626203534,2.314070222223245,4.937321870621012
67,-1.000526364774704,0.29544702841029047,0.3802412546940851,-0.19445857483715118,-1.2468619860552996,1.129206413386992,-0.45844859380395864,-1.9805484535728288,-0.8294073000249391,-0.14754011134370815,-0.8484572332761908,-0.4209041515533493,-1.6804652508716893,-0.3148052780844708
68,-3.430724234994047,-1.7793270624450075,-4.515025435178783,-1.866049466368369,-1.6173534128118359,-3.702049834626971,-3.218451490690081,-0.5106862990737956,-1.3434494895699445,-2.903169159256322,-3.1297773737929258,-1.628148740447395,-1.3947087294776965,-4.838642938212851
69,1.473820466780876,-0.26222689458583215,0.28180618389822043,0.4797285038902928,1.3787540056678131,-0.5119912961583779,0.7216716135250475,1.2160621415585837,0.22556499244036932,-0.03503356563330925,0.9745298966911884,0.5624824031397281,1.3338959921472793,1.1304023516937407
70,2.548888044623613,2.2980233761196605,4.168387831266909,1.7897357407202603,0.9127462216010682,3.533759244955363,2.7425023982074497,0.14796521886570052,0.3987653990247844,2.356612132951986,2.492355063627653,1.5272926882800368,0.39057936457090536,3.9557879440968136
71,-1.5369364061295672,-0.009005835074460792,-0.7942226110950885,-0.7469745255201898,-1.2513071939595566,-0.0901381918785662,-0.8134743833430617,-0.2713102568040961,0.6613718065762088,0.3174095210518681,-0.7211761107663596,-0.5569920435645775,-0.5851086093927371,-1.5249787660234324
72,-1.4751391748138325,-2.438880689107246,-3.307756477745092,-1.4629520041351607,-0.13720442314508688,-3.034135177301915,-2.162804476145123,-0.2841600010052792,0.157399490577829,-1.7482118208710262,-1.95628714453155,-1.195453002711725,0.4900646094287315,-2.5074044566308347
73,1.1410787539097866,0.3011783869724991,0.8814083225945072,0.8400910949823501,0.8474963250939119,0.5251839769956931,0.7045295052583544,-0.5319280865262663,-1.5668972809684572,-0.7084783519245967,0.24076257053123926,0.3111635838270127,-0.47954844606878544,1.1967688472475215
74,0.4213793568686569,2.1922863331836075,2.1963878040470637,0.9697065419449433,-0.6143905746182324,2.2860292279624037,1.5764730495401236,0.8058533438059248,-0.35814134552336835,1.090750636806262,1.625472253525434,0.7921885334931023,-1.0868656489551878,0.9188575926040057
75,-0.3319669855376156,-0.402779558280928,-0.43030058191455256,-0.6609687502332223,-0.1793451638766569,-0.670741423225663,-0.41046071241684573,0.9469054387540093,2.291182513809406,1.2524002178620366,0.2806692259492862,0.15291515172404008,1.7182857734092927,-0.07810680981021387
76,0.42104566798203624,-1.6861152140302444,-1.1647064702466376,-0.47093338917931804,1.2444218984208109,-1.4586542391663881,-1.0885965220022826,-1.4462634467646447,0.3381522400326148,-0.44362342984464004,-1.475260100457233,-0.46295061006693555,1.300348626650527,0.3158213674372388
77,-0.7644718748735501,0.1820499401594185,-0.48011920926499585,0.21900288345313437,-0.7139009306316294,0.4927994171949969,-0.0004011945792385223,-0.9008774010870858,-2.754219161004959,-1.9981049153989818,-0.7182421000492035,-0.7300575205386691,-2.9710201718055265,-1.610726757875134
78,-0.9061516305800917,1.140544641804302,0.495932631066443,0.13523416231516278,-1.6484178366137245,0.7532825085887078,0.7847382912959683,1.908005472763785,-0.23300222387208205,-0.05782249828114818,1.4191848814813672,0.29162964249187867,-1.0775904496425623,-0.8123054813015657
79,1.958296786022068,0.36418395639594525,1.6186493973633105,0.3658945764188587,1.7517782541416547,-0.07292965989116447,0.4119595458883765,0.5068094254125248,2.967207522582079,2.931575010183847,1.0377659192399151,1.287748659358058,4.064316213703999,3.4188108965503035
80,0.9588912948829807,-0.7973155611562593,-0.3425074832575845,-0.06703260023610635,1.7256193249327274,-0.32701810715108415,-0.6999852073463398,-1.988892459198555,0.11838443490391591,0.2308630401375533,-1.3859096315457373,-0.2979850208413677,0.40874895863234,0.4427257593877224
81,-3.0214469915731605,-1.0962823876690158,-2.686318003213054,-0.9064212724004262,-2.794554277449491,-0.41403012598006744,-0.6832422985074422,0.00978256519330845,-2.961907592149314,-3.918723131587767,-1.2621062546000152,-1.7074853341010987,-4.800344756678808,-4.819535159930992
82,-0.6008555473620154,0.8350834662904145,0.6947332942597182,0.260731705689965,-1.4143109114180936,0.22819622303459278,0.7944981152390446,1.648128577069957,-0.020687528105560703,0.06927987620980906,1.3559325474135056,0.45846035760804926,0.643160613526697,0.6144141711054347
83,3.7325452350027577,1.7627155008004092,3.4116545163200214,1.220259853696404,3.6453782991956905,0.767139407654238,0.6908287588510533,-0.4190021592753841,2.7441887387043598,4.70948781932814,1.4162734806718704,1.8991851751342348,4.970912413180295,5.403154027441818
84,-0.0379734996079763,-1.2912404212565882,-1.4017462945905053,-0.599340342906263,0.7413448291462393,-0.37527877710366153,-0.951046941187482,-0.9928179095810818,-0.028370962171988933,-0.8521961954584203,-1.3471216636295464,-0.7223777514626759,-1.897956450958759,-1.9464842578863886
85,-3.9383247206099803,-2.0809998566652568,-3.627276957782216,-1.204065643950952,-4.0924804699283275,-0.8431346811372182,-0.3810485345775871,0.5702466012043091,-2.3114508343433564,-5.019748259961989,-1.4960065918936412,-1.803106762031357,-4.423850274283394,-5.026049962147082
86,0.7407954099385377,2.0238268002756303,2.231257683001979,0.9005789257939754,0.1448259129474686,0.5920398115873501,1.0070705554647497,0.21259575642191267,-0.044057538975615394,1.9457100897286923,1.375921226442291,1.0148526819827188,3.050215936005008,3.0729568965391154
87,3.6109802342570894,1.8511239101394148,3.307604096409195,0.8780448132625244,3.987382119370385,0.6180177644424277,-0.19126419871956166,-0.42198448441177056,1.7149452260201912,4.656988729187546,1.4758128123555507,1.398454717968174,3.162305109035367,3.8509753441852244
88,-1.2665834194805063,-2.7449229366161143,-2.946774520596618,-0.9939186827406604,-0.991073221483324,-0.6843244862389868,-0.8178945685863906,0.4918078812431634,0.3222644394411238,-3.0391094262675478,-1.4312724443175757,-1.2396701098883702,-3.739345398615816,-3.6334732222333574
89,-2.869424207546495,-1.0557568401279966,-2.558835998103015,-0.3788198182198332,-3.3246850339427527,-0.19752207738082456,0.8636355210086684,0.028307809542715206,-1.1025948816756146,-3.621560015869593,-1.3381353940098215,-0.7209289751637102,-1.4133116772912724,-2.259241527271626
90,1.4351682008073432,3.127058939103444,3.375996108826774,0.7948145915020449,1.51672682390323,0.5233017143844917,0.32625776575977733,-0.9581198170912805,-0.8185288897713426,3.8024853720916894,1.47838779788757,1.2983061841372248,3.6886525359966984,3.510974627053278
91,1.9426871303193936,-0.10642666830832334,1.5677530371028512,-0.09898571648859884,2.2755686082081925,-0.22731665672213625,-1.4169530759330113,0.4900590726948832,0.6848788897531312,2.123509703157164,1.0926946323155367,-0.12688938624308596,-0.3995714496830985,0.6780662323235733
92,-1.1939538503294718,-2.9414356285628784,-3.445581101097654,-0.3399629743308985,-1.5233557178026926,-0.09854228309328787,0.3976784300164041,1.0912352809872954,1.4029935349976443,-4.020474140751107,-1.4800013404206658,-1.1250294836031849,-2.8461486771224616,-2.8318012011907485
93,-1.0852865105273226,1.2807336595307013,-0.5333042979587003,0.3848608565900661,-1.1455090034705482,0.4576434202063036,1.659387069084351,-0.9754133413815317,-0.6253224610517387,-0.5033823559185031,-0.7714074638223584,0.9900619954033193,1.7935040969842844,0.5860773021952713
94,0.6288191739495662,2.1631766956911407,3.1720538979254016,-0.23321499042657226,0.983896240998424,-0.47898674747414094,-1.170701944219597,-0.8831375638855701,-1.8186770212152676,3.669639603978253,1.4101403021268486,0.7201652854058707,1.4410621213612393,1.8516753681239948
95,0.48613159295424246,-2.0882194262893696,-0.3862209540209737,-0.3974177268487107,0.2676727691081854,-0.3634967126655189,-1.5047648839549608,1.2691761154911,0.9239619386034894,-0.8980575246051734,0.41157875895442886,-1.7027248195357838,-2.4156168004031495,-1.4192981414646477
96,0.0860411308314463,-0.9935921863802054,-2.622993603744112,0.7483785872362949,-0.06433012410158855,1.0203285394917856,1.7620148706950576,0.42279508189375703,1.7971554127039142,-2.905796715963854,-1.2497689431627215,-0.16056607864082295,0.08927826126042895,-0.8057212267192512
97,-0.21796638924339737,2.271613274566312,1.0883079342702258,0.1635991305909711,0.12062671996370254,-0.0685921418848053,1.0081245504295788,-1.2623758897175166,-1.3820382705696974,1.8516158080939396,-0.05103211400233875,2.1397828007126716,2.1862690812161056,1.8500309530613623
98,-0.7666037199637306,-0.20904051951824432,1.8801138828407038,-1.0579267788777533,-0.9341567839637674,-1.327815404111635,-1.97990125567874,0.12214242331265363,-1.2129869924791898,1.9826684153549754,0.9787118298625219,-0.42098243053218565,-1.2724342614393058,-0.1787605303107355
99,0.2466993871577373,-1.7949591730660288,-1.5090189180466926,0.2075324482271092,0.036729864028225485,0.7299320427688674,-0.3443727700147982,0.9476071149419831,1.6884110329328328,-2.2862799473550623,-0.2577084354967152,-2.2557237003697033,-1.320648870999678,-1.933497366438596
100,1.2792852341992433,1.05937420136315,-1.029866699775409,1.085470774827669,1.6855728954631533,1.2655045575706392,1.7420961275272344,-0.5650538620467285,0.17667065706196722,-1.1551971010095112,-0.5868689191371267,0.8791919090534308,1.7861162188367743,1.0584009976987871
101,-0.4804297206506255,0.8612312607156263,1.6034442666315312,-0.5725184581039172,-0.6008872451155397,-1.424073208584378,-0.2559113125613168,-0.43820227298757736,-1.585032467431573,2.2715227150657498,0.43477788823957647,2.095573084005324,0.22253668569767915,1.6713080516557965
102,-1.5566078809191297,-1.2866406952375795,0.17937662175416408,-0.8351375012977378,-1.9547919277983021,-0.8104335335927578,-1.1054274820633994,0.784632857261726,1.0010723368799834,0.610674019458811,0.10834593579909046,-1.1053926775756389,-1.5656319579242812,-1.7778911982088856
103,0.8175688976834871,0.15639939666496006,-1.3529365061453789,0.7973113662504647,1.2954365594299762,1.9306056637506581,0.5852773720486697,-0.07343185892461725,1.0115364018857735,-1.9679348850439373,-0.39167023404917534,-1.7760776836104608,0.6876824894546744,-1.032680521691096
104,1.577786385052496,0.8398980081097176,0.531893778296663,0.37983008988687106,1.6755448323215436,0.07003233122183739,0.2503005408318353,-0.7871257069025569,-1.9586743589050502,-0.4369240541717061,0.34881049050951096,1.0656132704940484,0.793486299551687,2.1985410481317653
105,-1.1658564124930166,-0.8488104817813741,0.7993416162210666,-0.7877991311894719,-1.8084318471140168,-2.081858801734227,-0.5278485291228496,0.4086005876134016,-0.13985131592368336,1.5746819814076858,0.0877144805016134,1.4437511885832404,-1.1245166837062521,0.05619562762234278
106,-1.346170522039075,0.08177846369541758,-0.9558625525237879,0.15784871607418122,-0.9670716119793067,0.7436878516952584,0.5718987910355133,0.701471628073239,2.4588151860290672,0.6141840788957019,-0.6164352716394206,-0.815092673440471,0.20427758891058242,-2.1282377227779192
107,1.4353083337610337,0.9293074288266026,-0.07327586067129427,0.5118817983171596,1.9014933698843153,1.8294260317586921,0.10110475085426811,-0.49567352907398876,-0.7201524267801825,-1.2793913786365043,0.40802784991992,-1.2210132990525753,1.0090025723550038,1.06143593967745
108,0.8886536351005514,-1.095428591904259,0.9963143361406482,-0.6308469816070174,0.08766089897567149,-1.3827920924566128,-1.1163446502683814,-0.7016365457622915,-2.4878556444166753,-1.0226617651589236,0.5384670245545479,0.4810492108498214,-1.0926150130008643,1.4464586563953927
109,-1.5309630179788147,-0.35724734581825035,-0.6226811396937442,-0.015790440099527552,-1.4900680171706104,-1.2732114291709666,0.5417822187226853,0.4055677178364151,1.2839582249721107,1.2063810778154302,-0.901451707994249,1.1576016234969673,-0.45137079083015574,-1.9815456394438775
110,-0.2751070746832332,1.7854529823568284,-0.6696564237602775,0.9059781813241631,0.6579444392573178,1.6571525003774723,1.2295343955609954,0.8999873132927646,2.2298923388894196,1.47448713658508,-0.07023515203269705,-0.21336084481247564,1.6343581517221422,-0.23492381504922236
111,1.3687118875487578,-0.633927977659303,1.0846002599495297,-0.5761205044589386,0.6685204325455967,0.6322662220044295,-1.1587534035585638,-0.3054821323376072,-1.4283197737088096,-1.373158053696524,1.1358202917121307,-1.209772379222215,-0.3253949188950364,2.3597128066646422
112,-0.3671224210356837,-1.8841624812375677,0.11760724305348537,-0.9125235287070311,-1.0256615629777879,-1.5170022434030963,-0.9123385452561337,-1.2765145017540966,-1.9430167924801665,-1.7776510818859719,-0.6578152213372764,0.11820139131001976,-1.7399367742010265,-1.1916789570049977
113,-0.9145118889709594,1.6336102923772822,-1.196368687935378,1.0939794791910042,0.3294940388492497,-0.15852730151559863,1.5096579945304027,0.3585207875662326,1.227915265430998,1.6818609577639132,-0.9128269281861763,1.2642561320916763,1.0790686738676105,-2.0239295418262366
114,0.8690853807844613,1.394283381041418,0.44801648702872243,0.6784674718548641,0.9145415548520814,1.082569105162295,0.32741549097347145,1.6852784042270124,1.8169540119649028,1.813581009562773,1.3627910861532526,-0.20622667710541367,1.4591172027097665,2.394466869825903
115,0.22362499917265238,-2.242506318131207,0.9815399635538097,-1.386651211433262,-1.221731230046776,0.02480160955804434,-1.4594028922579236,-0.6284308352711293,-0.8844816030135245,-1.9643995127457998,0.20929756617380826,-1.2020778503682992,-1.6245074235322046,1.0797897240303673
116,-1.0712210616694673,-0.5805279742328021,-0.840399717910652,-0.3247636709045283,-0.39134521504693504,-0.5967111868423307,0.2656055099701819,-1.9310952997846258,-1.890641318633417,-1.5855510680850537,-1.720066252546603,0.3881052729671859,-0.9309509089471842,-3.0011676550163937
117,0.5500368017484562,2.259548499788729,-0.58351085052877,1.3886245866434186,1.7826448004130575,-0.23991745697056893,1.0428585505474766,1.0415250630023534,0.6010048174199029,2.0655166761794344,0.779050421229543,0.9700021835045329,1.8727326159188666,0.12535105115152864
118,0.8893207295775876,-0.1751907352376632,0.9762170069163364,0.008878209726315783,-0.35332802350762893,0.31354037526975503,-0.6257465254029744,1.870845103613556,2.0647377176805386,1.2037238198097782,1.5112166005385557,-0.5265256845926005,0.3168334219666931,2.8683539269617193
119,-1.1903299577866935,-1.763321438722559,0.18714899017181025,-1.1477278229013443,-1.9169759575572496,0.6395230667928126,-0.4511481723409214,-1.4215216119691028,-0.476828526876819,-1.915810998336829,-1.698426186499866,-0.6161402527850601,-1.8273160137726674,-1.1558347220749727
120,-0.36272286693250694,0.577198178132525,-0.8939072517003342,0.15483120529707434,1.0953817269530526,-0.3741667233072384,0.641372717753794,-1.4862112500581441,-2.1878984397889454,-0.8142467106265893,-0.7356859141282744,0.5176665746494667,0.25538242294695795,-2.130040458797826
121,1.492527261323822,1.0406809917974766,0.06878723345584443,0.7918410803875822,1.6689543678357643,-0.9660846263556533,-0.06083725036796998,1.5736416042530956,0.47730414495816065,1.5493134915787854,2.1790984275366596,0.2645722537478622,1.5482883124548317,1.66937728925653
122,-0.34266135575863654,-0.5603751476537276,0.7099397346890506,-0.1493851366279089,-1.6670884234543648,0.7358610196670942,-0.3766359594179051,0.8957269591252418,2.1583680638173046,0.5201581761154196,-0.37028203931126535,-0.35317117246376445,-0.7149289775758694,1.1222979288250168
123,-1.3451019183761503,-0.4076111318209767,-0.14024331509634647,-0.45334313033306767,-1.168793746417432,1.0018856407412817,0.30007367155486653,-1.3740431356508118,-0.4830271696399059,-1.0597177384200596,-1.9946877953999067,-0.04229003216000535,-1.107439105160287,-1.5377558801990618
124,0.9847572110384483,0.2928355239950537,-0.5483977429270057,0.04994974776332388,2.0001249966259653,-1.1979137288805948,0.027335531442666303,-0.3062927609887736,-1.9818469539539592,-0.3458768471987453,1.420014453916891,0.12378459660195157,1.0359828942465563,-0.23830562523377458
125,0.7832466038772936,0.033163639619454136,0.07168221981270699,0.19908664263711542,0.5544760945652695,-0.6837948722707392,-0.22756765822943162,0.8250702263384918,0.3794003266694803,0.5334619859674056,1.1658594500055641,0.00344698996368819,0.5611080203244281,0.8675281012705177
126,-1.3331856769616628,-0.04314965192769664,0.48632225374016996,0.03550450685574538,-2.1058344118448398,1.5138862140359948,0.19012237384303515,-0.07003003103730801,1.7588277943598776,0.2616536152092452,-2.032225062851209,0.03782193951136804,-1.207077514476192,-0.21379714674793932
127,0.013348403973626403,0.1287159423176074,0.046197706752437444,-0.008669581530746439,0.08028715269233036,0.13360186326198692,-0.032205296873566505,-0.056987770153493954,-0.13084943804995786,-0.010347986415971299,0.040024512273015754,-0.09813846058104568,0.04743205034034144,0.06424791053414054
