,AF3,F7,F3,FC5,T7,P7,O1,O2,P8,T8,FC6,F4,F8,AF4
0,0.06183141183166438,0.035286950798294,0.02637000302106248,0.041405043668754825,0.09370556669174251,0.06797653438703564,0.07340471313811743,0.042957716135712004,0.0937386470924658,0.07794867749560147,0.03811252502991031,0.10872523668766866,0.0249203907227998,-0.004423040930979713
1,0.15068984175173844,-1.2905252633502515,1.216910394458663,-0.5602788313087719,-1.4831963314075165,-0.652249898445276,0.6777180364395972,1.1472479586311723,-0.9649188995374914,1.3935650145449427,-0.36463160264339645,2.2506058651756904,-0.9991732667976017,-0.6173116420141901
2,1.444010573822163,0.8158604702026537,0.18001606672863948,0.7076453826413124,1.601220293529773,0.534025508191343,0.2341875503253805,0.5183285064672276,0.795047085548375,0.8180458563925573,0.9067166562810772,0.30360235534047825,1.219626995470162,1.771768726713652
3,-0.8084982851758812,1.010489848825124,-1.2392680523090565,0.3185170443552245,0.7738334915255873,0.4242389893741049,-0.6939612888509399,-1.3095996235072194,0.6056614767482854,-1.6593582181256292,0.04339041841382485,-2.361824845303065,0.6183132635833722,-0.26031108318717244
4,-2.6226933529662055,-1.5689598851640219,-0.3667799794325071,-1.3994472187844278,-2.8884681076711196,-1.0594256038462793,-0.6076319372225727,-1.00965050973639,-1.5499473175583902,-1.5473634751877112,-1.6957962270515599,-0.6313521862670648,-2.305832207744861,-2.9832136461739878
5,1.9903046294680495,-0.5137612794420064,1.2625525387945855,0.17597518652288183,0.40022685135477265,-0.018393990990846966,0.8209825506973899,1.6510644011660336,0.09105682885085574,2.139712978146306,0.5203964815661459,2.5392815332916547,0.0765736896352371,1.6734905266065467
6,3.1865023571752973,2.1380289898484186,0.506665224744948,1.9279135643441005,3.4991498563671652,1.4327411685628038,0.9960469044701727,1.3322140810777778,2.0075816704367173,1.9649928009900264,2.201837560685625,0.8076074186905201,3.094253282795134,3.2948849396900024
7,-3.418898355004977,-0.14831063262800484,-1.292206650512059,-0.9036910446179445,-1.6495028246458898,-0.5181265837453701,-1.1389743898702689,-2.136622682166313,-1.045728602288641,-2.725071094344938,-1.2303069066699133,-2.690482271534967,-0.9788977937229092,-3.097978343384553
8,-2.9735923125643553,-2.4424072833866988,-0.5611318854473214,-2.151517019864458,-3.412196258983061,-1.5916866155055385,-1.253379920071726,-1.380620357934167,-2.0076664760611718,-1.9731896563720064,-2.330385158241856,-0.8345643582944366,-3.4798866318073616,-2.678801542320933
9,4.722915123960088,0.8921720862225718,1.3154711923209639,1.7594180506192894,2.591860798792796,1.1052097197766757,1.6269916515907707,2.6803740600863732,2.083704829293011,3.2685797462780317,1.9547658502494185,2.7375482114057768,1.9493059965091295,4.021135882349149
10,2.0126729325614034,2.419498481910891,0.4935102776336991,1.9499181453608194,2.8417890787099407,1.5080432373603052,1.2152307621570722,1.0695101468466717,1.4558187091709873,1.5375381759731344,2.032514695306788,0.7655816510602266,3.3966179605198064,1.39711876572145
11,-5.526580915260392,-1.5922036245106281,-1.2887298323948344,-2.538352168606083,-2.994577754170018,-1.6395423775852325,-2.128303090280118,-3.132094218746064,-2.9438482012854155,-3.598369473787536,-2.5277986768987724,-2.6441601363006964,-2.8158574076558764,-4.103890572189914
12,-0.5469318921657759,-2.0547206224280794,-0.29644281446809256,-1.3057078113951155,-2.13537466611765,-1.2075527702203352,-0.8132824276569184,-0.3845169537116264,-0.3992342032231571,-0.7081769342150379,-1.3308743338119482,-0.6724682953805671,-2.8354473921678585,0.11389528788842437
13,5.5700409018774435,2.0895599760674295,1.1447889855773707,2.987668331273745,2.845688715673802,2.0209204854623617,2.4072838917640964,3.2973928832844055,3.3490662192923915,3.541834412127809,2.764534739009765,2.4125102164231973,3.377953803469738,3.2565698823155653
14,-1.0156565155523782,1.4170068935602038,0.01839791166964863,0.35863067360887557,1.6325092554324543,0.7753928800271237,0.1522309290177881,-0.5642623432905932,-0.9341726048987712,-0.3591471715009274,0.3514937307025941,0.6251988273149631,1.8808012701478958,-1.384798516435259
15,-4.815308837149146,-2.2334468104363356,-0.8265105703736322,-2.9083269507956384,-2.3367136193097258,-2.188582355555895,-2.2731322559027363,-3.0083870257169583,-3.1212285784956095,-2.9753905582226587,-2.508439612709762,-2.070490647678188,-3.4421819018801174,-1.6320820934478228
16,2.2289154753547504,-0.6720944809832664,0.23467006735036325,0.6108056886098104,-1.5400766411599174,-0.3354195463166841,0.5082835634656847,1.5313551726518124,2.1765859799048837,1.4060694804673288,0.6667810711412545,-0.6873704825192891,-0.7381750193737463,2.031597525832283
17,3.4806960628198866,1.9444360241955603,0.33111892804156445,2.256621340301992,1.7717579178084044,2.1492615520936003,1.6992720251362416,2.223692359813589,2.2856966454983816,1.8926087953065696,1.7042392917369171,1.6689043396628895,2.896997574167642,-0.4321964756409757
18,-2.7700067172896343,0.050017496510984534,-0.33561914361666473,-1.2737339995996912,1.8663191060981905,0.00450777196570583,-0.869076923644033,-2.203791439090889,-2.9457457209281435,-2.124220920519277,-1.4150681954759152,0.9104479958921361,-0.2884508404079304,-1.8377739388300527
19,-1.969980348106732,-1.264596685507609,0.2672022088742105,-1.1882361239800798,-1.4393296561136324,-1.9753437798721447,-0.8620990400206153,-1.0970566319659065,-1.0995389541764156,-0.45550552110501036,-0.4596707672104671,-1.2863259524067485,-1.7916801278416887,2.499154118134028
20,2.5628409272429047,0.22853127418129798,0.1957882251934055,1.3831706253087297,-2.4351306221754325,0.15678864847957308,0.7452881276526333,2.3356874640195833,3.005534994319321,2.2575419390023876,1.611796278292296,-1.3137843751298612,0.8868829089597609,0.7998869616100142
21,0.7147916105371895,0.3587465051912886,-0.8405256883304983,0.014048115609764766,1.4949300187029646,1.765652979652311,0.06466869238693718,-0.04717588729820288,-0.03189134035047337,-1.0157405710778442,-0.9509380249651306,1.0220225863052532,0.36144297025935246,-4.13418106706896
22,-1.7985213292951256,-0.030940872492196382,0.18956367115426995,-0.879640723739227,2.9753891541130124,-0.16537176078027963,-0.16899133854311463,-1.881138756347838,-2.3778216565200454,-1.7158641707803035,-1.1167195867004978,1.8591103660568133,-0.862090654987918,0.8701734913981715
23,0.0003906667239746654,0.5396493900202752,1.2680821060809218,0.9179132340957497,-1.9021357933729879,-1.5879248796633865,0.4205739536894446,0.8428266489850017,0.7232078792467811,2.1353306592087082,2.162463932045545,-0.9636581445221452,1.0380778615734476,5.014287035601615
24,0.8362795422609837,-0.6463604781081453,-0.7435252480545157,-0.08133583860784947,-3.2500255577817607,0.08976722041683342,-0.6270560754038133,1.0402060608895811,1.3370622142755315,0.6384659849144668,0.002211450245585684,-2.444452364414227,0.22763881391307833,-2.798503033565806
25,-0.14537686088263813,-1.207818449474627,-1.4956099536808942,-1.360798175882607,2.4604025009392183,1.4405445509245318,-0.5007976222124979,-1.0547141502869428,-0.7789818287006941,-2.600091094443794,-2.8487202946705885,1.1406399347857168,-2.068178564023552,-5.017115077553987
26,-0.030288254781891948,1.6923969067500308,1.3585066265827248,1.1955723480687248,3.1676566989480532,0.00902255478219096,1.3440921402330406,-0.17661647390353102,-0.2820727598385227,0.6402039648264246,1.4612390951848868,2.9361372155049597,0.7968618237499191,4.555583005707327
27,-0.07006365783911986,1.4943861243141006,1.551550755728408,1.2622048264458328,-2.9101261108564853,-1.2627220643280623,0.31040090778046614,0.6971926848207433,0.2730466227252979,2.3254278823499264,2.8462230713167878,-1.4942962218480942,2.5470530080293137,4.254794894242694
28,-0.43262895087916203,-2.9323165440176537,-1.9606390685974462,-2.1392745784068046,-2.822072821377892,-0.12963812164549907,-1.7947488108136993,-0.3560395234570487,-0.44860402871952443,-1.7230118617088261,-2.9041255508072386,-3.231158174572195,-1.8900753090422675,-5.786342790114346
29,0.3240751899283164,-1.3371507398741056,-1.5089855969793828,-0.7690164752080991,3.0659399063269253,0.9894337445729481,-0.12033350558656745,-0.025984967275283516,0.5060681169129917,-1.4937370905939893,-2.2124369488226376,1.8939500942050833,-2.514182105217217,-3.0326590190921636
30,0.6042836435764792,4.1765659909386965,2.542221191632593,2.698983739793877,2.437415255184207,0.3378815551309464,2.0142536326300937,0.3842437997101057,0.7183579067818908,2.3243944078200416,3.9969659115678855,3.314829617230564,2.7811740128103817,6.3177475157588265
31,-0.35888568315053404,0.7484879344501237,1.4215839957920577,0.1446399082441277,-2.9111333951692284,-0.6149397309166639,0.1575590749879381,-0.5948987930189523,-1.2094056272973166,0.47753336725804235,1.1913265159942208,-2.2009467705564134,2.1814933478269896,1.7430864585274968
32,-0.7213431193421259,-5.244642857758915,-3.1410335706026866,-2.841801397428149,-2.245574283425197,-0.7231231027663733,-2.2311581407310586,0.013942930666835255,-0.6201030069465198,-2.3974539847983065,-4.565993526971678,-3.2723494601614385,-3.365358786053189,-6.203808798704289
33,0.11625395016574717,0.2012210048730514,-1.2792001105726223,0.3575423492926888,2.603523870492757,0.22220822205664137,-0.4440468172362254,0.8758452665687458,1.5928906212054237,0.33349431638745247,-0.10351719212637475,2.3472091569439497,-1.7994586647470874,-0.7311949292986771
34,1.0552081460209775,5.970909067209885,3.7834048439073835,2.697034372629966,2.3596970548353107,1.3312854019809364,2.7079139283725553,-0.5717288355069979,0.38796445934998447,2.141422457615362,4.634571459939591,3.2369938124428566,3.7184358833667193,5.691075866474619
35,0.23633849173776203,-1.383083992473217,1.0129148177438285,-0.6012716561691964,-2.3894302693284075,0.04127107826954642,0.7600466893298726,-0.7319026843199189,-1.6070903043672509,-0.7132910887295436,-0.7864636675315266,-2.3770518432229597,1.5168723249921943,0.17995259891890605
36,-1.742861876923862,-6.219246747959625,-4.430826955191438,-2.4653654652523023,-2.71051268649211,-2.1145720372885264,-3.5450245367403035,0.9884767009067968,-0.2548080093991618,-1.8804923641260038,-4.375109162564895,-3.2998101282344137,-4.006378434536039,-5.115472393462114
37,-0.40297661319837014,2.6033417084797716,-0.5456885749888375,0.6050494931729402,2.4717372491815013,-0.027986849989743934,-0.765138954903171,0.2931010163058579,1.377091916725029,0.6888758084310888,1.362838973264674,2.417934161480596,-1.3162399772009148,-0.05689940033868077
38,2.6871835798235635,5.921957507902269,4.964976962902015,2.306836156030253,3.077850655586093,2.9250119118419056,4.5723371539662025,-1.084309439095922,0.3370364784733795,1.8809552050118998,4.00018170080265,3.437065842245836,4.349366740268145,4.765783293101992
39,0.13179000377927566,-3.6214198171700502,-0.1417388986175005,-0.49815175482665414,-2.901076216781568,-0.337489206216533,0.21363640770350747,0.20025265104246948,-1.1022832157975466,-0.49005015968273496,-1.6688996694912381,-2.5902339730529667,1.0592299393745517,0.14592989690769478
40,-3.5825362069437783,-5.126238744485558,-5.2223547830305534,-2.2669310219692442,-3.1988201646497427,-3.5548474471385103,-5.405544275056834,0.8688691424126962,-0.5989194784507901,-2.212103633767531,-3.652778554376319,-3.5074578881237484,-4.726625980260892,-4.76544864862429
41,0.6263633914230001,4.20956852448666,0.9660621297849651,0.42565164072000056,3.543436952807379,1.0107580622171495,0.8630106505805618,-0.546759411815714,0.9417644323876199,0.39497970516996744,1.8375684490771127,2.908931563168927,-0.6079977212784493,-0.15742800954786987
42,4.058371416350369,4.009420170388582,5.064343087310782,2.2767946216748998,2.8965585264762916,3.807480691129685,5.648387035821402,-0.49547367606393283,0.8968734727320534,2.727900716650151,3.3539878152902864,3.330265139356729,4.980365157714777,5.024826817753034
43,-1.6589256961503833,-4.234948922477226,-1.7425799882974622,-0.4588884965702121,-4.135667007319143,-1.8239751107283184,-2.1237979118021717,0.6870315919108095,-0.9439311564085597,-0.5683749821139359,-1.9892611718108262,-3.2415802535405525,-0.05733160925781048,-0.12544714821635544
44,-3.8702147412527665,-2.8354968803886273,-4.45209000686443,-2.22076989151871,-2.1682288522111923,-3.5730931902617797,-5.128531629914583,0.14172953588005271,-1.0640464772578169,-3.1685296199708834,-3.028983783159083,-2.8032234838512124,-4.912616974496955,-5.29236122874697
45,2.569433089793365,3.7178461684512465,2.237667076863265,0.5623371407003948,4.398544005242776,2.5313725369357507,3.069531034896648,-0.7055066666736713,1.0424298512392896,0.9853322070094431,2.158891107035761,3.3576804953338932,0.7984046633521382,0.7315292786131325
46,3.03828347070084,1.8642690016149164,3.491422265107074,2.025506935247636,1.1954712694893266,2.8802101301376353,4.025771248443363,0.1028532135302004,0.9867506291875576,3.308534635487258,2.583012554398362,1.9886662603817087,4.411434303608146,5.288015210607223
47,-2.957365450355471,-2.8278209804525707,-2.256851549222164,-0.6327417289479845,-4.15563152848437,-2.892294650962905,-3.3018776861260553,0.7419934742277849,-1.1023724653921607,-1.4707009436412304,-2.2880606477263643,-3.050251194756738,-1.377524895416978,-1.479393147382892
48,-1.8586118060437635,-1.2588432141576444,-2.42172653509583,-1.7133418175940542,-0.277174708261408,-1.8979471021023406,-2.80736742184222,-0.2740660825916004,-0.6429791915082669,-3.061035272279956,-1.9737508219763604,-1.1090785266871008,-3.5295572670150404,-4.856539639653144
49,2.6095896431187815,1.817637835058548,1.734476145700893,0.5814133279853946,3.4092938138164914,2.7614755559628543,2.743915989746329,-0.8783558039471739,0.9824025245758186,1.8096260700393862,2.2724826104129052,2.262156422729945,1.5769524678846771,2.0674989218403623
50,0.7784852658436489,1.0384885191625408,1.5437098971408578,1.3866551954338713,-0.28482724583882096,0.8794098248967585,1.996730472082846,0.4790147063096684,0.10080806392079289,2.4908771131697693,1.2408380815314075,0.44409741086531607,2.47284273803136,4.060077491704277
51,-1.6060075439429504,-0.9311505322623085,-0.7830873455780734,-0.4037309490801976,-2.3459281358767337,-2.14482827126483,-1.6919214491448453,1.0756641710164105,-0.585167130092394,-1.8522907638002903,-2.0247437575722427,-1.1386281516446306,-1.3084700261170683,-2.235111596170088
52,-0.19887381716600414,-1.0927155866982923,-1.1087716061090498,-1.1549345735077972,0.30143415790441974,-0.06609561846380296,-1.9018416357573944,-0.7925273346734769,0.5081410078372517,-1.7540614402781258,-0.48962794942955185,-0.18224374076273583,-1.5099207035664504,-3.1559368470278657
53,0.2883490492977868,0.3287401546190186,-0.3276725684167115,0.18898952538309677,1.2705001140687782,1.1892152215914875,0.6639008543171911,-1.2006457840735045,-0.11221075527006676,1.5601069013137547,1.517713085777894,-0.033962261156354624,0.6557146471223747,1.9093877914679243
54,0.3009551851662184,1.2375874828774645,1.215467690959971,1.0534853574509608,0.2301529666975184,-0.3996285651209333,2.456761056554644,1.1748008473713265,-1.0255363997824691,1.0178655040976246,-0.14834864409912,0.3145932339449065,0.854787740706472,2.4663070987195117
55,0.887892057431264,-0.053110198433330064,1.2622220394445456,-0.06311275061521915,-0.49631734988489123,-0.10959011661173827,-0.12869459962025578,1.1230447534449792,1.0446050062296677,-0.9916472919716959,-0.7995055854652349,0.9737984814837161,0.16621053328868315,-1.2578978015402542
56,-0.9756481681964168,-1.283542175666545,-1.762034259582589,-1.0083048458815518,-1.1217756565331654,0.5065449457121853,-3.265234689375225,-1.4671295462855145,1.3088631548878507,-0.4070037645342948,0.5565896476702289,-0.6383513679772583,-0.5818210939987463,-2.2079821488438345
57,-1.54422386743868,0.03308495917372463,-1.7446081490353025,0.10052323988593517,0.23149067474390703,-0.9033965311123248,0.2682149245819733,-0.8213120942117479,-2.0630133998744657,0.26068105490916577,-0.012136151769088778,-1.5485875463870435,-0.9061419481040792,0.6164123956495244
58,1.8801674551510201,1.0951890167627187,2.48156267824144,0.8724156860360504,2.0600303085906235,-0.3379046981193051,3.81865016383058,1.474604527655565,-1.2779614032206708,-0.013786996619628381,-0.6693379466738502,0.8725087391257353,0.6099117155406528,2.373713872584689
59,1.527184855689058,-0.11466087165732074,1.6632144883133249,-0.2615920682810305,-0.5038446388362859,1.7396542134156656,-0.903357218338568,0.42678773217875304,2.9648761771038012,0.5031271037914586,0.7508867826065646,1.8316318081106566,1.37664787730682,-0.32986081448546045
60,-2.5873283988408784,-0.6359112977761295,-3.0473039297048103,-0.5140536366420808,-2.7182782442388014,-0.0010394574204318817,-3.76254249880219,-1.08970562663534,0.9534230555355523,0.23626295663051144,0.5006906209454335,-0.8163898274685628,-0.7546368356304541,-2.7274671280606113
61,-0.9568895226123791,0.1144953457027095,-1.1073216525902636,0.39670021410823203,1.1516861684897093,-2.362819145511976,1.616435153284034,-0.17093988010549258,-3.5541537300997277,-1.1822733807543517,-1.2409607574668358,-2.0358821985438214,-1.511997462188519,0.5901817979442002
62,2.759675781164991,-0.011800463766862066,3.201179835189686,-0.09511680580195762,2.874307756882562,0.4366418122417888,3.0642684078762006,0.3804689540057837,-0.46385577689600527,-0.29948841950981664,-0.15826595336784813,0.45423175372842894,0.8144798488970216,2.9124339420436693
63,0.16589742555470585,0.10882673672913466,0.3204952531519423,-0.3175988646019401,-1.884269002425988,2.761993195327423,-1.9906032958536004,0.2589449019196719,3.7144963057762164,1.6943012189683981,1.3523668045517618,2.370418562679057,1.3648988177896355,-1.3521799018624285
64,-2.279825498294433,0.666876164196092,-2.848397786960927,0.8437100473703595,-2.4910927928500177,-0.9277949426156978,-1.9984337828985703,0.4177814261612292,0.005775128874087108,0.27511328271213087,-0.17394842643743944,0.05459640321859521,-0.6451997376920854,-2.612251892105317
65,0.4402366642928239,-0.5865950278019563,0.40473291875163564,-0.1031828608669965,2.3910317440678424,-2.912439581211296,1.8268056562499249,-0.7422361669436927,-3.4606280825881437,-2.0112228302103152,-1.054673514796814,-2.9112589218984994,-1.0570745465816838,2.361718883636295
66,1.29180786604555,-1.119364496871363,2.079910298102979,-1.5174330783172307,1.7306688028518793,1.4269083229775976,0.9738866087304424,-1.011935099656843,0.23475605316340492,-0.2402095733245295,0.28952636980944313,-0.48486468702630076,0.19096456371949896,1.6850547094747352
67,-0.5452743620856538,1.2123739553638857,-0.8413048310083705,0.8594123586472623,-2.460787697692724,2.7818004968381658,-1.222871383727482,1.4698104218287695,2.936663289082525,2.164786050455099,0.44166778463399603,3.5632471009323377,0.720724300324308,-3.2713117328283934
68,-0.1421271653545744,1.2274886712068966,-1.1206064624016523,1.8886275515294366,-0.8935826754003647,-1.8472877502862404,-0.31156056198107823,1.2023640865376528,-0.16399623053024798,0.24093884105101646,-0.0343719622998563,0.6783446554278453,0.5280688675491452,-0.21313532545585562
69,0.04759243737774223,-1.7833465073285408,0.903517426048874,-1.8020093204930494,2.0665605694188898,-2.374929077719929,0.4868859241167928,-2.1536505653817155,-2.3562438763247067,-2.2250885589624994,0.29222632407972904,-4.1247873243781505,-0.463724243124892,3.7813949606430213
70,-0.7562668361982461,-0.9908862060037371,0.23385895947673654,-1.811299012308006,0.3025540121956453,2.0762060558982856,0.0983416904046131,-0.9870577947109028,-0.17530469278791974,-0.2663872731118887,-0.6307372977090954,-0.6189635964155153,-1.445986413737918,-1.5422684230826178
71,0.8981569638086675,2.099254091115029,-0.6607404548704594,2.694306918583396,-1.3808474557434072,1.7736640910145014,0.04827227082674669,2.5132410781674634,1.909819000392212,2.2555550841800986,-0.9189818589836689,4.401692009175594,0.36581303243236624,-3.7447016081596516
72,1.0865367655692382,0.5520361507520403,0.37472283587520544,1.2765670713995874,-0.1719792341644681,-2.031703916313115,-0.18505536791800686,0.5573236740752332,0.6218703162454008,0.25502866603410296,1.611524125483588,0.41819110031626583,2.4710049180387847,3.2499416109302754
73,-1.941193300858769,-2.065537682637272,0.2943648703410507,-3.299901308190319,0.7093206369785449,-1.128333133431469,-0.19601491497129894,-2.414794181486381,-1.6811450525706626,-2.2685283330448285,1.258201834239135,-4.296702185891765,-0.48727281312771303,3.1960942410198045
74,-0.7544671659945901,-0.11998653311770724,-0.6216419171247461,-0.40959978476197323,0.515838210636545,1.720412323055421,0.30720984941446067,-0.1911322254542119,-0.9713932261436588,-0.1385530589109724,-2.716766116161655,-0.24073269646575107,-3.4875338235297773,-4.629578589548595
75,2.6765473612576494,1.7393124031520624,-0.021445949115590585,3.460826237788735,-0.36378412256845427,0.5957938498916551,-0.01620864582968616,1.9268240551610512,1.6128763706280371,2.213188774725295,-1.2337016085196009,3.8340121796470625,0.8664432016588658,-2.3047086005496173
76,-0.07356238518023792,-0.1387030665183594,0.5645820373635072,-0.5796681084016834,-1.1365393471400775,-1.2473938020919637,-0.24211934354129586,0.11132999056912055,1.0778942583464552,-0.0998965983611608,3.732476753602559,0.22840802325613388,4.356179515433975,5.53322189926562
77,-2.8132923673128234,-1.2925283344515182,0.011444098464714789,-3.1373490086152813,0.5251905812354422,-0.26370433013202044,0.3993044943511525,-1.2696111208386665,-1.5422481772673526,-2.010963745078106,0.8789592157196908,-3.1292744240149886,-1.5001785425911351,1.278466686062439
78,1.0408679865244164,0.17739297584778307,-0.3767212812139258,1.4621912578663419,1.7049490617577296,0.7633030104373427,-0.08843180110842916,-0.38977729166345065,-0.9336013116147704,0.3922989399660005,-4.495149870480175,-0.46037461469750873,-4.93172212945083,-5.95521492187037
79,2.2973791101397576,0.9190482006132902,-0.317943264078658,2.4058270089899683,-1.1573397995932226,0.11544472798607004,-0.7220939918536042,0.7008136813314081,1.2966658680840666,1.6215787412795228,-0.29393187411261484,2.343064468465833,2.3239397488277533,-0.273334915434953
80,-1.7528108338757402,-0.07581000908023629,0.28255568491488087,-2.0455201327692203,-1.9002565155574678,-0.38253341749144343,0.6109466771409546,0.9395065893702356,0.6827902672485765,-0.6060764705535747,4.926434633874638,0.9479991929984745,5.101771031243428,5.97491327553707
81,-1.332408058173869,-0.742185568869818,0.8447554554027452,-1.4300432883096628,2.011842038863531,-0.06180475870687813,0.8203514093132078,-0.4085520113299372,-0.8053647226961541,-1.097610834998433,-0.415419536101804,-1.6453524065574712,-3.2140782802878265,-0.6426125589104792
82,1.9452972001700608,-0.01705460406007979,-0.4675468110035116,2.210196665115937,1.549778036666613,0.12981055142489148,-1.1657743896627033,-1.5779871209140077,-0.5523230502369103,0.6136979422036216,-5.016566552152677,-1.6403107811266626,-4.827307690856561,-5.676049713227161
83,0.2862397008870569,0.76898004029615,-1.364685475259566,0.4233037788786295,-2.7237968754714745,0.015807555794678012,-0.6449009867093592,0.46202151241229755,0.1655197536298457,0.5868669701865433,1.174360631716215,1.1906197090541175,4.019519771964412,1.4549467152943456
84,-1.5918442973758313,-0.03642981938583803,0.9875520699972186,-1.9313287436074615,-0.7091243677676847,0.04788903785933592,1.5891848688579182,2.109048568134929,0.7274804204545638,-0.371910916306414,4.778064782020662,2.4250736524334213,4.160483994960194,5.102194165731139
85,0.4734834126534004,-0.9026667754057119,1.598511302628702,0.3926466582917708,2.9579569905186136,0.04532982952854969,0.24835181666508255,-0.8218169338472598,0.38230062807569154,-0.27285474787589015,-1.931530801747662,-1.0886201176055126,-4.608676993100603,-2.133940566967041
86,0.8989093492016748,0.29867034982867735,-1.718682653792868,1.2890822490496467,-0.3499371191745817,-0.21673967189340676,-1.7671319083796277,-2.3791391200788983,-1.2401530363464313,-0.040353149749571694,-4.211030484028849,-3.1344308454981427,-3.228979801376873,-4.280025641414037
87,-0.7355869983082691,0.9953160294136704,-1.3349297993776905,-0.8348199752223414,-2.5462137492303163,-0.07639928788844873,0.25647998529731103,1.3777227493365416,-0.5639430218932302,0.28497423970694546,2.619273390696514,1.3664414653736408,4.908458012588382,2.5953926809573593
88,-0.1948744058556014,-0.7293673898317207,2.3849670016573548,-0.46097111277843134,1.2389735341469785,0.3913403069249748,1.6521630545249228,2.2989186666187025,1.936205972182383,0.4527063007609019,3.311348139812932,3.57535490784943,2.1961972062395256,3.285489899056118
89,0.5192335235545217,-0.9148037284046872,0.5408763978134251,0.8101643869103207,1.563206251698038,0.01787271001686817,-0.7350031628238279,-1.9828980655798185,0.20671251051544937,-0.6324218753499572,-3.1221404276720865,-1.939892953521513,-4.920373177843913,-2.7340542038672657
90,-0.22788603566892382,1.1964877166433936,-2.667922771666899,-0.31621569396253785,-1.6024248033072848,-0.5212663370136787,-1.2616434492181139,-1.848384889499825,-2.542168836480847,-0.6856260169929418,-2.1183243323218135,-3.590781970099442,-1.2157445273034475,-2.286547530903199
91,-0.036254782950556806,0.6060570393517788,0.5986103942056743,-0.35383424160323607,-0.3104108261273238,0.1389433502036348,1.0583406108670408,2.478346322031788,0.6776750008543246,1.201444446600634,3.2912780486795614,2.622588948396137,4.713076407473698,2.5118449263857663
92,0.23792613368771737,-1.5228873240647753,2.352983513059426,0.8154938784197817,1.2614980453698252,0.5384918279877696,0.6740955364818596,1.0818565571790038,2.788590923164483,0.6340251670099708,0.762957118653368,3.128591098649391,0.39368587088467655,1.5080277720147812
93,-0.42893620497423407,-0.128651356885828,-1.7430851804420646,-0.3698474243124748,-0.7886101717132349,-0.3296520817935402,-1.1294473720514437,-2.720083330190596,-1.9031073052014211,-1.813889586189862,-3.009816820572755,-3.18591840180132,-4.39763474067117,-2.030738063571422
94,0.09918832869358701,1.5614575096476824,-1.4376660759065094,-0.8985153866962099,-0.2964045475568456,-0.4257617525059621,-0.021423428171629524,-0.1288638836159734,-2.5164103497348087,-0.3044096502086251,0.53053869887289,-2.2774699069805826,0.23584487300762766,-1.1246159575719243
95,0.6551569110762401,-0.35064892667866293,2.537538433054768,1.1161930845452832,1.3460414045245461,0.4564466660664925,0.9124577730737604,2.6158147597955974,3.190445008821404,2.3067366352005907,2.272641195091342,3.4499136676089974,4.089837292064985,1.5207297448543575
96,-0.5784100857164833,-1.2751111873313319,0.14205988550624726,0.56881753020699,-0.9689729253398841,0.2490144206191281,-0.536350270528781,-0.8247461541584298,1.7168228385189903,-0.20670299277895832,-1.5090627338112241,1.239471321801624,-0.7162086647351206,1.1508514571669821
97,-0.5710999395349846,0.6236044631292179,-2.7599908028635105,-1.6453209780775677,-1.1619143331796138,-0.4585831627912774,-0.4527406968901889,-2.158911023334427,-4.260804653332936,-2.585713682219392,-1.2244905930509185,-3.3580505293600673,-3.8640538321948767,-1.2303945096770528
98,0.9652489928518629,0.7786947679340915,1.1830133431150978,0.028633213571845752,2.079090388789732,-0.1263431221194951,0.8564824644665104,1.580910181267633,-0.509821988360323,0.766714205693688,1.9923358362046588,-0.2457615041959878,1.145675656607449,-1.4121843319780043
99,0.2621576469002607,-0.5461734479607359,2.4011312231384285,1.8086560264654241,0.3102796483924051,0.3586189670675931,-0.13084171599738428,1.4391316561076843,4.895855323047607,2.6333271089828454,0.12194872513577801,2.9914046756969883,3.713386710337574,1.2804128693327055
100,-1.100284140177536,-0.3046129723584694,-2.1976749564422953,-0.6645246587630446,-2.6152246909917194,0.15639944417659501,-0.8608152738918635,-1.9840007513132003,-0.8980158970422929,-1.2543989430614213,-1.9518505741831702,-0.5394786178085268,-1.623242975572452,1.6346777679021356
101,0.09090900678789982,0.12906276610144776,-1.6437970522151466,-1.598965046644497,0.8769315087953369,-0.25031900113020306,0.684926335132375,-0.6214010880500455,-4.965169072559788,-2.486769207302278,0.765047750365134,-2.512420602281095,-3.541780655487078,-1.5763345087379292
102,0.9546816863397533,0.09471117679567588,2.6906604369768643,1.114729863477941,2.356758934326593,-0.35840614315257036,0.559553779638096,1.9632100773860495,2.2473926624035836,1.5811544840886234,1.5180054056342434,1.0713635050940489,2.180388887680838,-1.612796409165687
103,-0.3028411002234999,0.4477887926677732,0.7676271787983587,1.1429846761172155,-1.9256516122927037,0.2400098882246834,-1.0736713732208603,-0.09759493234239025,4.447498423066288,2.2143777061385967,-1.2557254761050043,2.073626731092216,3.2067599938268385,1.8493838509086924
104,-0.6240176803604336,-0.27361652542653897,-2.624263256296363,-1.2441997718094782,-1.3737801884542555,0.6626710358972989,-0.041046385064192545,-1.5498832418778399,-3.260490983606483,-1.6952101276053184,-0.9140973263018334,-1.4057713348487098,-2.7375735099957437,1.3555474768515707
105,0.2629749387204286,-0.916561055691352,-0.03809251486333108,-0.6414011869346382,2.395035226190604,-0.3845796828944038,1.2191523447097887,0.538303925078408,-3.456637851940173,-1.9038131197514185,1.3091945090864203,-1.7489815223509382,-2.601566082097411,-1.8181891539394424
106,0.27499184564533985,0.779775124468312,2.1065133175695734,1.0512641483663898,0.013662065163168507,-0.9508059961430834,-0.5618319236925627,0.8711575762528269,3.7017784679361183,1.5886517315746063,0.3626038606143014,1.631442411730456,3.1218777622216063,-1.110823879936108
107,0.023910434639269257,1.0561056556392758,-0.3686789320310222,0.28254722460215026,-2.049854456671795,0.6637362711517623,-1.1185427120923719,-0.5825328707073851,2.24579617457525,1.6510645758954174,-1.0076065429021892,1.52676771272016,1.7322687014593672,1.3841687093812587
108,-0.0721117210167183,-1.3979348506085534,-1.3266463117906566,-0.6558996357196474,1.2198559911171079,1.1139179551211387,1.1115474386325768,-0.12451344888728823,-3.465609397794627,-1.3112097012654564,-0.017665889943161178,-1.8054552582051888,-3.148039615900863,1.2326214746430013
109,-0.4424841256490486,-0.8008635553807534,0.38945986605319693,-0.16584445586064422,0.9641379407301522,-0.9938426838374967,0.8418606240998733,0.20905234757812524,-1.1523902697349369,-1.5332848963074288,0.5004929695985909,-1.3565433337481976,-0.7382583366397042,-0.7385888008790902
110,0.11030187745482453,1.8726660972767306,0.4927654005009604,0.23819333184778999,-1.8581665682067336,-1.095840219479055,-1.5038602145619246,-0.46716510894868063,2.6462568206250294,0.9713328559177538,-0.054506120114398524,1.9346581109476273,2.7202732831118746,-1.952613726683396
111,0.8113897123922917,0.2625624442186227,-0.06193108252569511,0.2669154710248196,0.49226373722861294,1.2656082703445326,-0.5150660132407792,0.4877235024242682,0.4794305611527961,1.5680589316891866,0.0481128523923365,1.2054135434654019,-0.16442679138379462,0.29824477246710923
112,-0.3729852053440587,-2.0335473757787863,0.2113616816065128,0.04641442959670148,1.660356495514477,0.9083183053465246,1.7024792673658726,0.7186232134667238,-1.5311843828517295,-0.702253109027103,-0.13538394112390603,-2.004500426388496,-1.8919366568780747,3.187604115215319
113,-0.9537158582880757,0.3405478702512198,-0.49999530409691406,-0.45988636417154755,-1.7935467197886321,-1.3846872734951692,0.2846084856111619,-1.3118125950175894,-0.3650613758065364,-1.688009303222222,-0.49142313492062817,-1.0798116178296577,0.7867402638186028,-0.4845316080302039
114,0.7296426415958971,1.8616691511400478,-0.6546020263448072,-0.13708275566248718,-0.7234345462787359,-0.6222938230398406,-1.7612398359463346,-0.5468627573465141,0.49647846564297476,0.5974610567815111,0.513927697359976,2.020335104876085,0.8439223855257992,-4.5082169044495135
115,0.7732691756459407,-0.7975644767506542,1.1341444315088294,0.5877410909037939,2.479111567374056,1.3042425174450996,-0.26079246110312143,2.0223527769400076,0.7182333238253975,1.7631834371020223,0.7221177226325985,1.0036579019452796,-1.053582535647641,1.4605895491822805
116,-0.9804002433358439,-1.469911982098258,0.7790681436149174,0.08843987466483304,-0.5527429550455488,0.34206183313025884,1.812868774904467,0.005547854221906939,0.15058648959866905,-0.6545427140923943,-0.9569588486661893,-2.0229712123789443,0.20397725818456047,5.308374046475635
117,-0.3089396992493443,0.994459279043859,-1.6644515429408042,-0.5472599368046601,-2.361215385493772,-1.0441863517069612,0.45711568070175335,-2.418412050011539,-1.2667036691308138,-1.6727294436323823,-0.7004226858379063,-0.9799626662348025,1.0211271584282027,-2.978231542347826
118,0.9410966557680646,1.0230900429478391,-0.6098966697049035,-0.029674228835512382,1.648594882953596,-0.16612390395000734,-2.010269706916203,0.7375396530367584,-0.2952698328265168,0.7740357283734446,1.3174672531619323,2.0674910309265946,-1.0905823067160738,-5.099315945126276
119,-0.26304790358689734,-0.936740107553243,1.9423965245777155,0.34379530056230206,1.6110448501220984,0.6887813432040933,-0.7638703808221198,2.4115368251864737,1.6930861813240683,1.3834082893817736,0.47853479110603725,0.9715545864827559,-0.8201998656803491,4.433444795895802
120,-0.5392648623717334,-0.6533422208676388,0.2449569786213667,0.08195758602721936,-2.1781235974656843,0.143789204902089,2.43794506202895,-1.47587942886132,0.03698606784726055,-0.8257779328668138,-1.481615947300447,-2.185464626702463,1.7600579790212039,3.7763944086813415
121,0.6951113448044816,0.7088692125767111,-1.8847215619096793,-0.08338298432129973,-0.6621133834000765,-0.35469004066918985,0.9886797260097289,-2.04380685114111,-1.7789573486939865,-0.9755303496694337,-0.18974707712478842,-0.9160370540529975,0.571068467464752,-5.117141371539378
122,-0.12787325836425997,0.4168851923268391,0.17707311009227167,-0.2811774741653138,2.0788047475945586,-0.24819384762354116,-3.044458592659334,2.0515602058025713,0.3935680449154373,0.7416408231441669,1.4303979435336769,2.361060587730097,-2.238889738689166,-1.715689397726137
123,-0.7843301303489567,-0.4092275486421666,1.492149054413665,-0.09578353527157392,-0.03181253719468292,0.13615072025603905,-0.956396641334031,1.4407065554737888,1.4784927184594066,0.5892914919317824,-0.01575719163917491,0.7618837753436006,-0.3279248235094829,4.542181548293117
124,0.8168081552058932,-0.3033284464704761,-0.5183990124163697,0.5542597476233835,-1.6213953632416152,0.3877270714593753,3.6478236759943727,-2.4020093347518445,-0.7606492057446193,-0.5656783462729693,-1.2579898262712994,-2.537659210759107,2.5734786048444334,-0.3566616610402638
125,0.4823721882182203,0.10351216196873965,-0.8428027429348179,0.11157333568636797,0.25017044801083776,-0.05501398916345614,0.6130857029884386,-0.7327109908366739,-0.897158138576909,-0.32575401715431185,0.06033637188786708,-0.4989563756472538,0.08112623878161603,-2.6861020481699405
126,-1.2460886876550223,0.2754445103520916,0.6770655615905389,-0.7661574723726762,1.2226554509542586,-0.4580139497499467,-4.023439369630768,2.5414068510407644,0.9175500976693562,0.4196724809506611,1.1161296732589436,2.6486179659898896,-2.7787584518269313,1.665578115218446
127,0.06764816724290276,0.18345977868947647,0.06743083214720941,0.011304492579949935,-0.11281711892011126,0.049627608878328185,-0.06510669571365657,0.0012311946340912278,0.21189375592947227,0.17666742623568238,0.010409370849028168,0.1638831186659317,0.19928422670350157,0.030185766094418913
