,AF3,F7,F3,FC5,T7,P7,O1,O2,P8,T8,FC6,F4,F8,AF4
0,-0.09533936943566511,-0.03801807333419435,0.03407763333077556,0.020421650188232665,0.013526395993080031,0.04288572563642493,0.009969637417221993,0.04671044822607136,0.05843008970739739,0.03863533959585965,-0.035058082430855016,0.06439980390972651,-0.0898379684293089,0.008810285206178306
1,-2.429287686364823,-4.055251988544391,0.2412918368263916,-5.292972421730229,-0.5598332794357689,-0.02761147356996052,-1.3976776466849181,-1.2601094675007036,-3.297199358782363,-3.764987022164193,-3.255788780785452,-3.1169633189714827,-1.4369381566497517,-1.6010526462584247
2,0.590819077693922,0.9128461522428943,-0.10022862139694552,1.7962126157916856,1.2452087497520512,0.21380337556757162,0.8458850529512304,0.8877301252865298,1.1291390614352301,0.8019784567437238,0.7943362668765362,0.5981775032725652,-0.04856893565222564,1.3635684145164033
3,2.2260269706043196,3.5064813077415726,-0.13287201510317972,4.371806172687615,-0.12168218304624168,-0.1374604053841788,0.8589979941073821,0.8732071512848517,2.6467850371848654,3.304983699288482,2.713445607943724,2.6691061491916206,1.3550843319198027,0.5651283487515759
4,-1.0502533494464066,-1.427528378005783,0.08809419817082476,-3.1123457592554598,-2.0587658002786813,-0.35495920529504416,-1.3323583254412796,-1.6177000185116581,-1.9062807863748483,-1.3910186655546763,-1.141286489882598,-1.031180410470386,0.27824325541035566,-1.9834264148279723
5,-1.7476596863229983,-2.658230099818223,-0.036214526489894615,-2.8041655956418463,1.2203289872742888,0.39270127444025393,-0.05991957724698518,-0.15805016085297366,-1.552147294849512,-2.5084487028544613,-1.9329534054711828,-1.8853122973183543,-1.3017231245963667,0.9979175090358896
6,1.4155396623078185,1.406844939157339,0.041332728762502706,3.6024019912915346,2.1672969361197114,0.32370500541761293,1.29007765925995,1.9699260906512186,2.0058556629299726,1.553082269252267,0.9139267698710888,1.0705102526866745,-0.5653957993915304,1.4719215724126338
7,0.9517841891479765,1.8662725669927456,0.18583748239218362,1.0552216462527555,-2.3154597848057934,-0.5974747149747006,-0.6099309901252811,-0.6857391006772423,0.4218410787393529,1.6178570645456911,1.3346513803637297,0.9861244941873997,1.3595575524772248,-2.310597057452028
8,-1.5529118500994759,-0.9223473734874881,-0.2744626837298808,-3.2207771384538315,-1.5861170804561247,-0.16741782153936788,-0.8438362995134953,-1.8757920476034886,-1.4232682155530605,-1.2565767675921091,-0.27997107064890936,-0.6768842609954824,0.7880688574180253,0.0020922495874209205
9,0.1561138224945493,-1.4240219929673734,-0.24614353359375968,0.408009973100788,3.0092530828992756,0.6405433037661695,0.852778201191728,1.4168407636691134,0.3401851833368635,-0.8913629402101464,-1.2027707602205107,-0.2184376569767154,-1.513165712764723,2.7261434022852957
10,1.2581213336370405,0.23248204201527647,0.5534975965371746,2.181803089870849,0.5861101562435045,0.014899495224156406,0.33068378965599554,1.3978416573301613,0.4104963356871605,0.6216269573592638,-0.37082541782351136,-0.04862564461950239,-0.8230310773844388,-1.826557695095293
11,-1.4460725131859031,1.4445374814368221,0.18683378286191776,-1.261736374555286,-3.0887549552077376,-0.5019455040521127,-0.6209183154704141,-1.8241220503937117,-0.4943239095190482,0.5134431960151501,1.5177432306816978,-0.22482835248010807,1.6367317280036486,-2.0291975483868905
12,-0.3318497985430704,0.3527656971061617,-0.8046375701977132,-0.8563811314455132,0.4316574182463113,-0.00976994252886016,-0.11260670709649515,-0.7197121477896647,0.6308834044486854,0.12473614758391557,0.6643752034695182,0.8942572544675351,0.6499629514454377,3.258104437740806
13,2.6247464090835915,-1.8438829155593852,-0.026177121715443803,1.3960689246466405,2.6032271294091354,0.26644776401247194,0.13621968031425122,1.7980249083033577,0.0542412097758309,-0.5326908448601737,-1.9741365115777991,0.2710680325087031,-1.572705443943919,0.5061657622355688
14,-1.2873849812125717,-0.6007383220635037,0.9718766480022907,-0.3558859948232485,-1.1079486620479195,0.23691380904848483,0.3788938195223917,0.09550745222368627,-1.3095451736463941,-0.7294757800222154,-0.4629394583254293,-1.6057787188755783,-0.3909124493599198,-3.7674725430596454
15,-3.2973555453082617,2.4040295532771907,-0.1841941830119106,-0.9127151927577198,-1.8307214350117158,-0.08607301523115328,0.23507458905071235,-1.3791898659234687,0.7234305457622776,0.8461653535582019,2.1660375443273145,0.0019364740888480059,1.246662929432824,1.224072409306339
16,3.409946499504003,0.42949185150059105,-1.0387135003786758,1.1370277954022,1.2727433930479732,-0.6769872530476241,-1.0442873128373067,0.2346895299132045,1.3953683829295402,1.0047053541250623,-0.05943971205237286,1.975516570986692,0.25197555623683227,3.249749413529724
17,3.134977017789913,-2.8673886057322866,0.3893271450467578,0.07249852867946846,1.1515132085422075,0.11292560268478458,-0.1804371023805207,0.7611887384222906,-1.4396673291852637,-1.2366517607312058,-1.8237912344770395,-0.38825449632853215,-0.7376616397308874,-2.509197789482858
18,-5.5983429086308,0.07940716566469988,1.0265607395930223,-1.3272513131824921,-1.010249274876817,1.2062586759641463,1.7934086589135014,-0.1404739226514126,-0.9081121894931748,-0.8992023154854303,0.5210284141165488,-1.9232521673140586,-0.40335197282180413,-2.0209203265155957
19,-2.0625798626182177,3.029411088112904,-0.5573878914921452,0.789004880243955,-0.8788741445734433,-0.43196480337745985,-0.3945077681160231,-0.23289213554633978,1.706378302409017,1.4547253450016304,0.9657257618158032,0.6295063737004892,0.25614462849378344,2.938220689396299
20,7.321853964138567,-0.7172897112840737,-0.9730158587795102,0.96007777064543,0.6132831309764396,-1.639355760203428,-2.2434355968431183,-0.3303162489110016,0.11260747829816362,0.5217929350762592,-0.5460316491473168,1.5339617424125205,0.8718666601905789,0.634335626599184
21,0.34191118293350076,-2.8126609078959666,0.6865737527235155,-1.3647989344516298,1.1162258579057394,1.0191812077538505,1.3189129623870504,0.0688884707799239,-1.2984632657587953,-1.3201716976223064,0.11137681466247146,-0.5208256847307413,-0.04137232967025582,-2.4756201754330176
22,-8.18975453122879,1.2262706761897433,0.9065818347883216,-0.24453128849647665,-0.4401783460086218,1.7986377854975912,2.13731253555652,0.9502784581403111,0.580286336543759,-0.100396896241732,-0.03476874537213073,-1.0273499794782324,-1.507942717787189,0.3751447704043993
23,1.522434257485287,2.303197503529997,-0.7908406931240526,1.4763447305926527,-1.7070242266595088,-1.7409049667185665,-2.246230428012542,-0.4074500543959424,0.24820526089539793,0.8027022264390995,-0.9847261967874367,0.001641597698518889,0.23534847193690636,1.421186918330423
24,8.123168590545632,-1.404918820412982,-0.8361183471846021,-0.511580529829778,0.7330588926633677,-1.5857168307740501,-1.4679562042199235,-1.3954227808419777,-0.7737278777429882,-0.11407945163136037,1.098132538481364,0.664239074757255,2.044172809600072,-0.7005859405920071
25,-3.0087163527559033,-1.7245209020846581,0.8789553986763472,-1.1338590472487087,2.3098314103056974,2.3972810412631897,2.8286439540643467,1.1751693312455038,1.1581081964734088,-0.04247666061856389,1.3115046800955779,0.8156075766609309,-0.7984992859527339,-0.24144615568753064
26,-7.3582514057232284,1.2047527740483772,0.7602771449567478,1.018923820969186,-1.484776189449795,1.0274835801612292,0.473620036844492,1.386291479718107,0.24515499115316133,-0.03916855976763881,-2.2886678044720554,-0.6310883901881443,-2.2156928347246865,0.34841759848417175
27,3.800395142677695,1.3431220008451452,-0.9459564965277784,0.5253698676988173,-2.570734645185206,-2.7968063701954824,-2.8836707954582455,-2.105262992352505,-2.4854411129417184,-0.7058983375814042,-0.9845628485373811,-1.6976364660254248,1.5082882579666674,-0.6375066212095096
28,6.285145625365653,-0.7655350560098172,-0.6842993955078986,-1.1186381606431357,2.427849956138857,-0.2744847181344606,0.48676291555092516,-0.8220129075651311,0.9603211307518782,0.5534652886227941,3.182816010488837,0.9611606924959402,1.885959352470491,0.41395704677669176
29,-3.8749734664860624,-1.3413553497375357,0.9839110147669469,0.06728497670661011,2.3088645357508946,2.8330795242163536,2.468668168304826,2.8512561646242833,3.3166847644162902,1.1848707595443384,0.17154607634144,2.397997745896913,-2.042984454967235,0.9862796955023811
30,-5.234763506268211,0.3582040220609913,0.62476668521011,0.8376029579343344,-3.159149826866909,-0.4530762461419354,-1.1084006738926786,-0.16407810340396745,-2.545748746477107,-1.2529361431692896,-3.4732363004377254,-1.533625637965197,-1.1219012129781172,-1.205152913123517
31,3.4229670602639604,1.724188848963616,-0.9995559212308478,-0.38917254639236093,-1.6167111858771699,-2.5289596757730424,-1.8307815977303352,-3.143494520806377,-3.40945957356014,-1.2495130146199596,0.768597287158254,-2.7628741703774473,2.1164827078442694,-0.8234781509808322
32,4.351561684650713,-0.25673681596782394,-0.5947313253237302,-0.36136012945404977,3.339653856190455,0.9516562990641105,1.2736158739301682,1.2612482773582645,4.0807957767634395,1.8702022572215373,3.0926851501412806,2.1482302648803935,0.18417283211828775,1.6971927129984101
33,-2.6742187923818057,-2.3148244534323514,1.0178105148021748,0.3131620150372723,0.8195539277221616,2.0247217878278847,1.2664432901455105,2.9076824629004734,2.77432230282567,0.9310998542964467,-1.4460672600341473,2.779029206309501,-1.6087674770876135,0.35892262088150106
34,-3.6202502402278225,0.6070432637821377,0.5824433829201825,-0.058307215112143776,-2.865426178899272,-1.1138792524823777,-1.0779364794477815,-2.1228548889722063,-5.167300151454537,-2.167069994871425,-2.2300425238213593,-2.6299692517601723,0.5685738001637568,-1.7320095666449533
35,1.7640077126607545,2.84276849933788,-1.0619301380547859,0.12364712837159779,-0.31394871205195424,-1.5132830945662594,-0.9700938222156709,-2.283274918619773,-1.6436667530805706,-0.4174213346371613,1.6061588768308495,-2.5426446511365097,0.6361789186256057,0.12968847114098425
36,3.0001833051502746,-1.3645945489449043,-0.5470530920026685,0.21228942259879366,1.9210751196218294,0.9622859142424957,0.7446704411161493,2.51687180517699,5.575242836390399,2.040059660999697,1.2373484851731902,2.9025825750988092,-0.8277044339630348,1.34778917144311
37,-0.7313191890772335,-3.0723345241612794,1.124116418639405,-0.7563929578786567,0.3694679187811298,1.1539014265596488,0.9525837411940282,1.535906873735015,0.3547539603301774,-0.04018902254828221,-1.231724996675559,2.1749862616837334,0.47419994728424797,-0.42387515257794317
38,-2.543391428468331,2.3285404500311695,0.44295927865346924,-0.008626524744593444,-0.8904053554213404,-0.6211549891989224,-0.48337303632480877,-2.406405723040384,-5.291504586595549,-1.560495468607139,-0.46983286950372183,-2.99126674562144,0.4753521124717705,-0.7202295929079505
39,-0.36651804621880324,2.8996341515763424,-1.1537092564267584,1.373095016794316,-0.9952874193207705,-1.0085354033863196,-1.0669203121828292,-0.9178347577683439,0.7892915872876183,0.24695725109273448,0.5395845351835332,-1.7419687103104704,-1.30547551358644,0.44060973849041735
40,2.387196751393481,-3.2413460236590086,-0.2594245480813931,-0.5127772830024266,0.17339011108365124,0.24384216543004436,0.3739505845096751,1.9241368665567953,4.471682763185533,0.9313753804616619,0.1283664022624492,2.9604498994520885,0.34682325825684557,0.05925861317079133
41,1.3377133717568344,-2.3742255940689887,1.0799944694158246,-1.7952320706050142,1.9363630319324068,1.0325008552375807,1.118106248368856,0.5568455667813174,-1.6121276087341674,-0.15299461364360148,0.12848025358059206,1.2298321499150484,1.5239195888453991,-0.23370929207247873
42,-2.614126154830487,3.891969248749511,0.04504272466484019,1.2166413931564193,-0.0035993187820660263,0.06303268543997981,-0.33773438508177694,-1.2669181445078104,-3.334888112714238,-0.38384817440224883,-0.17501184867998046,-2.8337125507839316,-1.2815080442454532,0.48605473899763
43,-1.8658949659124489,1.6531042929448319,-0.859730392415235,1.9258947097164671,-2.7950271338681665,-1.1196510038119223,-0.9896064244556249,-0.432142758931709,2.074328669918034,-0.13269890483912805,-0.47296757762870206,-0.5907544356846286,-1.0292211954348127,-0.06712131843271585
44,3.0890496353169468,-4.175132794112455,0.10665708401537947,-1.9309471889508538,0.35391213031327007,-0.2782664557960298,0.20438047293779155,0.5806586487261574,2.0658271208859182,0.0653191036050677,0.36276890260402667,2.5536269328584464,1.903029822816971,-0.8740052676658001
45,1.6806577032987282,-0.9291158309093839,0.5172780349773838,-1.758696117017107,3.211564817083097,1.1720511016266177,0.7149504328583823,0.4401487776108158,-2.214156073343482,0.4081201870541203,0.38526543353877013,-0.17495865023830431,0.00793646082030552,0.341667286907198
46,-3.424245179191467,4.099764530613873,-0.10719301387149388,2.5001956588813123,-0.9674255732113456,0.45173437276249045,0.16948308972900947,0.09430498820588386,-0.7753492746398126,0.02494689067757329,-0.3687637339785844,-2.012483184525912,-1.904567477433096,1.1550981554093738
47,-0.7883394327113253,0.37148622909354817,-0.14627451614726755,1.3595627114104418,-3.0148751627070256,-1.1539167180941419,-0.45813469276905905,-0.4981037554235002,2.069996063676897,-0.48949547148023587,-0.005129860622149205,0.9588991437860237,1.1425527145562395,-0.5452824231982442
48,3.145768997782634,-3.768943328784789,-0.07175646282343023,-2.820572014310139,1.486048759025112,-0.6519114397905871,-0.7988502421721382,-0.7899857276703608,-0.4710728744908994,-0.0207674858724301,-0.03097900657282442,1.1380914663526276,1.2347177982903308,-1.4111613679923152
49,-0.41058425021767475,-0.08737492321361466,-0.13332183648013762,-0.8363099060039048,2.279541524036024,1.1030863008869711,0.4182597851917166,0.6121340220453618,-1.6403493132933304,0.30943684254930115,-0.3448058915323583,-1.553596593828481,-1.9870339071929244,0.7250065870245714
50,-1.9873608801061826,3.3511551184203947,0.37507206819283595,2.8565890567845114,-1.6077809565041545,0.9084041353588198,1.541654764161082,1.5216926024003445,1.5922408082235735,0.10385550326575467,0.8307396230526941,0.01848877114342878,-0.11420610356981736,1.684403676779497
51,1.2380985833608618,0.09373315601463682,0.23796432910805887,0.30422540203555865,-1.2778317614056125,-1.0986117528829045,-0.7131913599624977,-0.8628164630604931,0.9066699316743122,0.05036133246662088,0.3198372651946559,1.7360834292838405,2.2374539722285967,-0.9804847630892672
52,0.1280282427977874,-3.041332369528983,-0.689881744410655,-2.640697454619828,1.2033126721773022,-1.181028730624862,-2.1567866127209694,-2.213286973409838,-2.4526190451379177,-0.3960958790220731,-1.7754378127823818,-1.2521340261632559,-1.0744971669629106,-1.9356021258787184
53,-1.0599952253893756,-0.29671045440891447,-0.16352380843172884,0.1478465101019137,0.3618644346732059,1.2048767955241106,1.3048171420953232,1.3196552463360893,0.10194090832484218,-0.4084625665469722,0.26702472113747766,-1.3853898840466732,-1.858142513766252,1.3925646278024797
54,1.798630800999184,3.000615287964007,0.9047739361290217,2.2546222128719497,-0.3538742157123596,1.370831936180995,2.4169153635232674,2.697248988652529,2.883229705326773,0.8898773407678287,2.466000218641707,2.2594774718810844,1.9644785308496804,2.05528591345695
55,-0.361194684355558,0.4974064557239724,-0.018315792047140726,-0.4829683557003271,0.16919110668642548,-1.4224657286689324,-2.003847373182072,-1.9478891951355883,-1.2541881825774244,0.5845019041914321,-1.334369843926996,0.5683378576530566,1.0438969353969099,-1.960697101594742
56,-2.9627740447906055,-3.281990543579086,-0.9648241071910637,-1.794150663050759,-0.6897943238080738,-1.3675109089473991,-2.2178225420024886,-2.7973540137245125,-2.755524435311209,-1.4543158774898655,-2.5423809055875783,-2.762823021796231,-2.3554147988706156,-1.922606282171548
57,2.6918690012519377,-0.4475495654326113,0.20589870044878048,0.7214971724421924,-0.16961940050188998,1.6722030977597466,2.55041477358111,2.5793467039931826,2.3186779194531297,-0.49157375322279506,2.546468827601592,0.46094467086212826,-0.0931190225394546,2.5868772381868954
58,2.737024969573301,3.7787671558885516,0.8887102828913963,1.3293590955504972,1.6022858044415416,1.1099501171928554,1.6305061694657974,2.4418237052480483,2.063091122233276,1.9087190433136612,1.859095718150572,2.641822563331043,2.2645712111955025,1.4778551813365746
59,-5.144500463606132,-0.04832894189990013,-0.3236302817168784,-0.9202905347666676,-0.3115121489212162,-1.8231543858592842,-2.7300150559931446,-2.976175774515727,-3.0320056860793247,0.16869126689286038,-3.448365556085974,-1.3586358496427968,-0.7475549256441796,-3.1172836407316895
60,-1.0172161659182062,-4.240688478097859,-0.7414037640048452,-0.8799635008336484,-2.097714708116804,-0.6285812230613632,-0.8723884416450091,-1.73029287721445,-0.9585514547014736,-2.114602575127269,-0.5719178112382088,-2.0012804203385026,-1.8626568568004302,-0.7646309848174668
61,6.830355516549576,1.028875216840908,0.3517586677115219,1.1346231439654177,1.0552827393257886,1.7532039343996062,2.4695329066538725,2.952541317686543,3.200208240047857,0.25771734303921945,3.662896650024048,1.8426224186808977,1.381466308189867,3.417446086421399
62,-1.710372494335792,4.3706523937628265,0.5863955595471799,0.41992271075761195,2.0280038499142172,0.045073811126156216,0.21261727477523287,0.906505668740257,-0.2804782847142336,2.03121453005565,-0.9050958401660902,1.132735642560959,1.3433834357761878,-0.08421847413465462
63,-7.158995210615999,-2.333159230517433,-0.31493540054960467,-1.3843669953808246,-1.754484950735218,-1.412122824241697,-1.8692952241329606,-2.4798380803148845,-2.7812239701768067,-0.6498870009692744,-3.0642096333742703,-1.8205049785290832,-1.8559085929930208,-3.4358426872472423
64,4.585160816707003,-3.9613692744318545,-0.4530501280110394,0.09254388159581088,-1.4337176565688838,0.47417572136311087,0.1443157580815589,-0.24926621840697752,1.342405769490409,-1.7093189011951744,2.0577631360010016,-0.38404298861647895,-0.8091837383619676,0.9071366563691645
65,6.0783338790908825,3.6551211861012782,0.24550759580323087,1.6435044314254528,2.1254616557116175,0.853054236738893,1.1566453423809995,1.7114027542636778,1.9073470869876472,0.9206941931575368,1.8519340560868673,1.4255036649544157,2.2681174212635953,3.2195915631552876
66,-6.747581607585109,2.9970561905200714,0.33953759388131377,-0.6797080389851117,0.5278622522928538,-0.7889626681136505,-0.1436838912245116,-0.055746444403884404,-1.9875676704389442,1.2403979663621658,-2.4835916934695836,0.002789082434291576,0.24039340713363333,-1.583144057306544
67,-4.049353026846737,-4.672611955130903,-0.15463063817999007,-1.8552512624600377,-2.010160392888012,-0.21372768652925703,-0.581629302423524,-0.9130714870529996,-0.8379567197193063,-1.0477725194647094,-0.48822699535584535,-0.9404143232207722,-2.651796465797596,-2.878256700754707
68,7.677855824160428,-1.6607225745439869,-0.24199200892744124,1.3243329907545554,0.38337984362280536,0.8440017897884109,-0.1048435649178854,-0.00763457096229793,2.122955015723552,-0.7037386953422446,2.0706178702864815,-0.03498690516028662,0.4394075848869704,2.0709259756541343
69,1.7972241098281205,5.180430884710231,0.03489608423285287,1.9589489699110973,1.4285457349706807,-0.3438381145705116,0.30258122137088383,0.3410720638266877,-0.13500370465235864,1.0437877966937195,-0.48625663322734647,0.6513585363111429,2.9229332862084467,2.523253780583932
70,-7.344450549561247,0.2447701336978253,0.179308324237751,-1.9706099578969756,-1.0117858937034505,-0.6846265574993775,0.39109514199819695,0.2983364018339423,-1.8163374116410995,0.14751996547081805,-1.0613936459444466,0.33016073404232915,-1.2512404484430022,-2.402280795901414
71,0.014339756602009476,-5.155145842977035,0.11026024480893036,-1.9131648330621702,-0.5617562876779487,0.7028869629253032,-0.31673671789979796,-0.1348629091649211,0.7873088752580567,-0.9165584340358238,0.6869437143195861,-0.7111414133569048,-2.9238153138112497,-2.2191525891166966
72,6.1237253722286145,0.9793742461896864,-0.18720426603710452,2.537556620707993,1.184693237435615,0.4225231867700072,-0.5173885520426507,-0.6040566017829783,1.2474471709222814,0.39006018794785696,-0.03958083724372432,-0.6447495324617265,2.0826974158785347,2.6428301087815655
73,-1.025908840785824,4.724944568251591,-0.23998348008346648,1.71014254909318,-0.32250798329574365,-0.8333608248937557,0.472034150984332,0.27782065265604405,-1.0262809284803496,0.655708642435022,-0.06611328591214563,1.0847555494960073,2.5376891011483442,1.9683752482488877
74,-4.566085628097125,-1.8583175510811667,0.2820694316063516,-2.935525582703359,-0.8926023316433263,-0.17273139711126478,0.4042186043769707,0.7478824288686103,-0.621278726552002,-0.8452973088575633,0.6874717698932103,0.7815395377463717,-2.7038126759311507,-2.8465231981234855
75,1.2497267486941057,-4.0761253504931725,0.2825945445547754,-1.3853506775006936,0.9678173551509386,0.7845481612857422,-0.5562269319482214,-0.6360759102994159,0.8929102922798868,-0.2594602780414868,-1.0535075941355032,-1.6013202814105398,-1.7968663952989559,-1.7285112575071335
76,3.139084979756276,2.375907979958897,-0.423655245456121,3.085295460185175,0.275488561763778,-0.0011346298621464882,-0.13245913846481872,-0.657851375487872,0.08612339880339313,1.1173088611135058,-0.5506154211354376,-0.6846054420798585,2.8738046590709825,3.025627937246903
77,-0.964206110929284,3.358926653865341,-0.18020237616175022,1.022820386869363,-1.2120790463215914,-0.6370323066639331,0.41762487176802876,1.042266050395728,-0.5068044331690077,-0.21805601919901355,2.1219244132418043,2.074942948944251,0.9093483494536898,1.447529553339063
78,-2.063270763065247,-2.6022772480341305,0.5124101808376508,-2.9438881305577382,0.43884473811446817,0.10266914359778112,-0.10230812622111644,0.3705609004750352,0.3035160450140244,-1.1032364825128536,-0.3294273867122323,0.43814632237364487,-2.4734644475299072,-3.1448238054189908
79,0.5116860166483855,-2.643493512050125,-0.05652186539394936,-0.7481585042834403,1.0299311272017546,0.4456882851569197,-0.0528835170791977,-1.3719040367906148,-0.011120399736813068,0.6403735862497422,-2.620825960118333,-2.4176783684659893,-0.1828051617964628,-1.1002269191060696
80,1.2973292069055449,2.6182557327972957,-0.43498952917367356,2.534299605074443,-1.017594497815646,-0.17326308569622448,0.09989047273858316,0.017767749905200983,-0.5650612066697742,0.7684021713054804,1.5572221895732088,-0.17773072151978486,1.58070068470062,3.1374983588347973
81,-0.10489131251860948,1.9371817767843706,0.3254120449234251,0.6995113186730895,-0.5253654162247655,-0.20969702837624227,-0.3855850645804571,1.5748435730068095,0.5912179743079536,-0.8184730707794708,2.311146220224646,2.675295375128806,-0.10857237065050794,0.7131980249735653
82,-0.658832816219986,-2.4641648685234996,0.1354675089349983,-1.964819127483151,1.2971365944889788,0.23945735380714064,0.22921627330784672,-0.41153482885897874,0.7303031081067656,-0.20624828474446122,-2.5766333349438715,-0.022877836993179922,-0.4459092352066593,-2.937400395126153
83,-0.26649368222464287,-1.2367391272164598,-0.46669819380829997,-0.977310710874611,-0.1181184169478242,-0.112340233193477,0.6659894500118272,-1.6600439023118552,-1.214811363937274,0.5970552444480837,-1.343472548881058,-2.9676398624796496,-0.16312144468578052,-0.36985727828059783
84,0.009186422458146134,2.137122954573862,0.3332121537663877,1.4200934994882102,-1.223056380162376,-0.2732494529202191,-0.8045523591497896,0.750247001124401,-0.7979766391523414,-0.3632552678368772,2.94046029148021,0.21279485485258917,-0.6115738364569115,2.516406784195978
85,0.7852938347030212,0.5746241354084096,0.34119825114855534,1.5891209613508916,0.7071795877397267,0.5530303931545957,-0.5958770449379048,1.661393453831049,1.8725654128976639,0.046791543786707655,0.17694226511962532,3.377855491527475,0.9428020752500555,0.19131213446182768
86,0.5988675068011619,-1.6285626769956272,-0.8149547573927866,-1.1152176415762847,0.8440658054622802,0.1929570898455265,1.401721654137847,-1.0092732305710292,0.7304153075444844,0.6755952833858472,-2.520879869821996,-0.5336926598149824,1.3223683887435327,-1.9163728071899817
87,-1.636738912852671,-0.029740002896989023,0.09126451403440629,-2.4152915860129185,-1.096654877706681,-1.0851843132484353,0.12174764137564487,-1.6146139803652824,-2.522975369151305,-0.9577754199658014,0.6480857582618013,-3.8664815390029403,-2.0346903739475057,-0.2948563110577067
88,-0.9017092035500104,0.9724493119677593,1.1160805535616194,1.2209376363190214,-0.2701751800622126,0.09325020236691811,-1.7475638272661778,1.1862205812014424,-0.49007413228914753,-0.5485608049554432,1.559916200411023,1.1204880016927945,-1.5432890432693285,1.260769209108412
89,2.8099795446172444,-0.3032892625785789,-0.7403127892168161,3.218699787480123,1.2118383383663913,1.602963883792528,0.6376112788095546,1.552717367400906,3.0870794485824917,1.8505053288129423,-0.7673628931901462,4.2663375583726175,3.1841978249688916,0.7399283801885579
90,0.5644749042437135,-0.27180846203907855,-1.0956566125647706,-1.7847268843500386,-0.37518485233364224,-0.6250809558704811,1.635803210607953,-1.294730281968438,0.07995404314180085,-0.019051601172681357,-0.5430631255358438,-1.9982733413095028,1.272557928853703,-0.7335019973332232
91,-3.9940264701460255,0.36972047489111504,1.4196531851285312,-3.7077887068009026,-1.0351124124319253,-1.9498153719841929,-1.434160303224511,-1.504433318916637,-3.480526530936045,-2.4339673835785365,0.1567081760134833,-4.35923436947971,-4.15395548700844,-1.4801517823974757
92,0.579620071532462,-0.31683611042124493,0.7303445367290569,2.682134370585031,0.9798441229201271,1.3442676475919255,-1.0108036144199224,1.3667342465758774,0.44609669676237385,0.8386998767962289,-0.03572644320851537,3.03734020882109,-0.6230401117693554,0.5211435187965918
93,4.657279051962697,-0.205415496927419,-1.9277234026715204,3.639581726779913,0.5818282436562174,1.9814560125516032,1.9836829105116496,1.4802277657958323,3.6525653026057796,2.5432234828053595,0.8681012449823556,3.986788763579541,4.77213077505902,2.3458930552868544
94,-2.3260944698081585,0.6411840810261751,-0.12035049596141009,-3.6291065776371902,-1.438668531562036,-2.091768089172851,-0.01065738085487779,-1.4447793895570882,-1.006429406430649,-1.6198403262510928,-0.09604643281073429,-3.987627937644695,-0.2184546541419667,-0.731730455917368
95,-4.302103292225478,-0.04878310564503402,2.1291866644734982,-2.9259852056592366,0.10545066817018778,-1.6340869962978624,-2.0662270065726016,-1.453581524307887,-3.601451225801878,-2.204352490756054,-1.8066199972157166,-3.1358432422209552,-4.957251973583011,-3.078617308998848
96,4.07556572212646,-0.630250035886882,-0.560833617873791,4.265240003725927,1.6430432081259336,2.653157352195685,1.1788857037560327,1.5515128821190334,1.5231933754782754,2.101411601483069,0.8688796640503978,4.569937248352765,1.0336261066427102,1.3233162114052226
97,2.7710566440946542,0.18885510689486412,-1.9965711093495564,1.695171086916133,-0.9369557437644069,0.9659686094089481,1.5982697470632214,1.3651785901933662,3.3627209877356306,1.603748250883971,2.2072744797204784,1.9626439123240123,4.729903353153502,3.420109761323488
98,-5.047866023878424,0.3504846684188181,1.139672203043051,-4.285106959465762,-1.4947836409248165,-2.8350304355208484,-2.1904319884121315,-1.6523785890897813,-1.938294188581223,-2.1542074276317065,-1.910297393958509,-4.581072666749758,-1.6206736159239241,-2.085452590066982
99,-0.4231521561245891,-0.038932115834043726,1.5993703252153397,-0.27126668350663496,1.7526442544122807,-0.15259957250009837,-0.6592202986624083,-1.1678447267690633,-2.990722016128064,-0.9916723397798146,-1.8719234042440507,-0.7531400675186023,-4.208848763601423,-3.228056241406322
100,4.650765112026287,-0.00015821129531365505,-1.499354956814897,3.565991249895,0.9549404374402259,2.541928429119159,2.780188038912661,1.6516151502122138,2.2132211993408775,1.810368496431249,2.721469889524217,3.975526942530582,1.848390611520623,2.702181720889629
101,-1.9508644880629196,-0.4481066210069072,-1.058575075648747,-0.9306334328690826,-2.3317917680004525,-0.5652117627797112,-0.5302742158628725,0.8913445449273162,2.5514693840170164,0.5793790626229444,0.9403320462991995,-0.16281181979997178,3.578866896525035,2.5613960476629547
102,-2.809258686423475,-0.17280408806384104,1.5988543441609586,-2.2340344831138386,-0.10493542727182716,-1.8228603104965027,-2.802456445793874,-1.4500566536179738,-2.3306290528757327,-1.2257173213248174,-2.9094182649212237,-2.900931574703842,-1.6994542525200826,-2.884374702812364
103,3.461864989445434,1.1405746256049256,0.49795860620784643,1.5567715310884105,2.455669392099367,0.9628844322934372,1.6728824167297205,-0.671280873122552,-2.122577510677319,-0.47507696512675457,0.1823448140136544,0.5194498347124866,-3.027663168124991,-1.6788415446978702
104,0.06134548164715915,-0.0014248814065734193,-1.4593421181431547,0.6339060686850829,-0.8237824627785524,0.8675722927698205,2.2784930664978424,1.044291542857314,2.308739806358532,0.6115636371092772,2.368678591659261,1.67499832717107,1.2765847196809206,2.512696211164906
105,-3.5410022426986703,-1.7719358868333137,-0.014436256672482226,-1.452080755128076,-2.0095451521723424,-0.91433613447895,-2.4880673842255763,0.6935638323943023,1.7805820188086525,0.6678990576846615,-1.0220379796622499,-0.21809792234949385,2.6732710718593453,0.9326564279458587
106,2.651666170265445,0.510389896029066,1.1384361158382779,0.7909526899990182,1.4899226573684932,0.04938962294581195,-1.3903543375942184,-0.5963413488164807,-2.2159583225214075,-0.16928575136067686,-1.3278898145767875,-0.7001276484914557,-0.7590047826188061,-1.7123955808802838
107,2.22068078755396,2.070164201130822,-0.3300335513612252,0.7243898785849555,1.077696721661337,0.44474657237567955,2.8063284107884847,-1.0628105769899279,-1.566107227692699,-1.0436699659292887,1.2662716115745285,-0.6085972639228855,-2.517621541421985,-0.5996351851451871
108,-4.401459223676877,-1.1469749347930198,-0.7097490791724056,-1.6612378683994766,-1.5598587894954241,-0.6603003783077344,0.4146829975466789,0.39881232387855825,2.159091961394468,0.0389302884184902,0.2361440358361731,0.32804103679929164,0.3248943378119242,0.807318376313848
109,-0.126996949188535,-1.9065228830102796,0.506259839237775,0.2923652458508935,0.02734458385507305,0.2681023044485384,-2.625419353321564,1.673055429240954,1.4449123054369026,1.416606168516045,-0.9194885919712875,1.606812708195795,2.4513219677486244,0.7355046941284094
110,4.684223154804749,1.609022920331786,0.25154123224076685,1.8037861498817016,0.8667552514504526,0.8014486772935187,0.38249982197068383,-0.7202044187824576,-2.2322923560577483,-0.25871924262393003,0.46234265296522153,-0.7125723297742333,-0.0752990099173034,-0.1633352251519274
111,-1.8102134759953836,1.3761939921127415,-0.5159067823093699,-1.1628488495078986,-0.8427074445204997,-0.9504021640595817,2.0988185058056743,-2.185389955689166,-1.3011398794142144,-1.5759021227661831,0.30318403547754724,-2.3057434749193493,-2.307812566031327,-1.1371292028815443
112,-3.625811047888346,-1.6630647559835008,0.1619426546879496,-1.3178599274037242,0.4606319271108749,-0.4802715919436924,-0.8437874821109309,1.6052656408988881,2.4475690166904664,0.7379448623813241,-0.5596279500831919,1.711368423829136,-0.00734674723548711,-0.0035517176757837807
113,2.7794755176167274,-0.756400038847273,0.39085755843110537,1.5169270050075578,0.9356011126153277,1.3334258090822992,-1.4588747789551966,2.1669621530103593,0.9871358868173987,1.3527047717806946,0.1093771485543805,2.297968778522281,1.9427497478710782,1.4449626023801982
114,1.8938107194741483,1.2803135389833762,-0.47209588226926,0.5393813644009997,-1.9796016584282818,-0.1185798149916035,0.9639618258926135,-2.7612410108696257,-2.6941153444595036,-1.2611859014619762,0.20343387919561964,-2.8968180352401625,0.05053676980952287,-0.24974833964875287
115,-2.4381030376492254,0.35782798571964447,-0.18805787022834172,-1.1975459749708197,-0.12189379540451692,-1.2649329283211252,0.9137048170164509,-1.3413363338242412,-0.41568794094696293,-0.6991075869319358,0.04937320488510321,-1.4322539607630533,-1.30739405757875,-1.341156404326035
116,-0.3746721065547568,-0.6627202096415026,0.648572518560983,0.08834437482216013,3.0704954727642546,0.7015638394879187,-0.8610203938577541,3.6332496414593796,2.767827861311614,1.5459322159279314,0.16822936162242183,3.7009913350153663,-0.23552539065084263,0.6154513556247283
117,1.0372270933459895,-0.3504494805395435,-0.023990912495366702,0.33296252890340833,-1.3851719901571353,0.7828216988003515,-0.5710673292841105,-0.19092103228589502,-0.3573301670262931,-0.2541454425569722,-0.8221421899911795,-0.07304311434359305,0.4881215331249927,0.7383472182744254
118,-0.2263939679857218,0.13667470134242174,-0.6959255748054589,-0.19606152966971427,-3.199021431630746,-0.9911507127308253,0.6975297988811875,-3.6652098120123977,-2.472111659443697,-1.3544727491393143,-0.05910999776920037,-3.656043477714492,0.7103070265483062,-0.702441102126647
119,0.7205903797803356,0.6655816263046391,0.18397361705599288,0.7038045696358805,2.9975031549701736,-0.10847416856424355,0.4228770584560883,1.9124879454061234,1.1186793536358273,1.2066857403943774,1.8708851157613373,1.6726934936718332,0.30843573247238637,0.1514864390101985
120,-0.3152731997523277,0.030335221274747755,0.6494713065673958,-0.3456779563250166,2.1916985534715216,0.8554019368712598,-0.5997803778688007,2.618441283520705,1.7411932104580423,0.6209001340310639,-0.800009598617721,2.6289194677270675,-1.5024930595601302,0.2639071789274763
121,-2.0171181107913254,-1.036796032244204,-0.25420809845595377,-1.4478476068213146,-3.975202882221267,-0.450466728585626,-0.385679052980418,-3.09052779038535,-1.5764265356716165,-1.7889937714233572,-2.631465159042624,-2.705120904257598,-0.830490236842285,-0.9182514688634014
122,1.6716658812097194,0.21633167128889152,-0.5617806735089866,1.3538727066105638,-0.37472688033440676,-0.3752974392697027,0.6151707430208823,-0.7612678993010803,-0.7130622831897387,0.4767172999506599,2.2703934331981315,-0.9269163067825019,2.4743643353446894,0.6449144388115937
123,2.294882704902966,1.1610328782326604,0.22864237365276371,1.5544658727350662,3.767864431513375,0.649008055771052,0.36301041222550673,3.135075203382095,1.5004099981851562,1.7273860530514182,2.6093893867772087,2.6918111515957377,0.8950666933109374,1.1771714723926838
124,-3.145372010152296,-0.6899206470812457,0.4855157932692679,-2.4051758118068056,-1.5263149404223997,-0.19441675737081407,-0.7186746674278911,-1.2020495304306689,-0.29962765381038614,-1.5590827459629162,-3.8420815972749534,-0.803662401492344,-3.355835614773003,-1.6775241172189979
125,-1.5029087084653394,-0.883909693174909,-0.13085779678373957,-0.97160587018928,-2.3044878026736524,-0.4292838743505533,-0.29255176017908124,-1.923007091989269,-0.8516222348732845,-0.9937752344877436,-1.6570856359865853,-1.580955519735506,-0.48866833079542543,-0.7886478830594442
126,4.022591214176078,1.0811660851228575,-0.45839220592269436,3.0367581655008715,2.7055750724529646,0.5589175788047605,0.850330775150788,2.449823572423272,0.9368063439509539,2.2053450650731716,4.882239409788141,1.8601997057097732,3.8555707219093214,2.377581483012957
127,0.0934218185002591,0.29177525044447683,0.004306835758213561,-0.02696573280863754,0.06430305232394898,-0.05132472236615697,0.1600902922662325,-0.10169033917225198,-0.17282131280782168,-0.15159939969169686,0.07127132214433973,-0.20125647392769472,-0.2061947942250077,-0.056268675864140465
