,AF3,F7,F3,FC5,T7,P7,O1,O2,P8,T8,FC6,F4,F8,AF4
0,-1.7259587611184313,-1.1990296560092972,-1.2624918437167838,-1.7122633744103992,-0.4951968252252979,0.20418018014469716,-0.42149182142576264,-0.9647698410791525,-0.08343300928747911,-1.5912658057850777,-0.9302512713345527,-1.7754071584061408,-1.030560329061279,-1.6156038769070284
1,-5.425514956016089,-5.311099179238536,-6.413206056383898,-6.885171102809853,-4.185254215658682,-1.3913476186291012,-1.0199994234156649,1.5250432475300217,1.8756564599908605,0.8829152740983705,-1.7609616142151838,-6.067852718131527,-2.767459591689316,-4.617426810983208
2,-8.697307322696465,-8.953863770970587,-10.98523438435583,-11.512557412379714,-7.489207121143488,-2.825128243626904,-1.6093382164138137,3.708446315635192,3.634401957292459,3.164517378747077,-2.5206658527918884,-9.88615115208991,-4.3032683453580916,-7.270515034136761
3,-11.294466434507157,-11.83799258655409,-14.576835800664863,-15.23617244034558,-10.114149398009184,-3.832042673419259,-2.1829207929151706,5.277863413866572,5.009632699290394,4.98236889732469,-3.330288593403336,-12.956303563211948,-5.546746179710974,-9.395941032693148
4,-13.023149935908476,-13.73854364480219,-16.883067395094677,-17.77193479533858,-11.833974482926942,-4.203886943168807,-2.7224239342586083,6.0136991949136585,5.863944899107909,6.127162342765376,-4.282395528524854,-15.065086627651045,-6.421078490299759,-10.849262060301102
5,-13.75718305525591,-14.513152756044473,-17.724870497149354,-18.93265222856126,-12.511387954425924,-3.8202377516096537,-3.1960590042969077,5.8147028718431155,6.121699735681878,6.478653848122332,-5.417635656874788,-16.075547121294704,-6.866213773069508,-11.529385618140166
6,-13.44805628673615,-14.113697716222825,-17.065073915467597,-18.642872842032485,-12.110680068144225,-2.667709335953331,-3.560172903596764,4.711787660965062,5.776944830961782,6.020815706571529,-6.710653060286847,-15.936640688767598,-6.842442534174294,-11.386277899308942
7,-12.129401567977562,-12.590384140873748,-15.009653793423023,-16.944600548592962,-10.69989188969709,-0.8449468494002826,-3.764194739733613,2.8633954731709035,4.892335349961081,4.842900227737817,-8.067747856956778,-14.686228100252523,-6.335089879464761,-10.426845810136617
8,-9.915281917567707,-10.087691126336429,-11.79416289885787,-13.993293786420187,-8.442162854583227,1.4474191193910901,-3.7583154129287615,0.5330972326771591,3.589385005582602,3.1263505860431446,-9.336666972943878,-12.447039884627264,-5.359545976547489,-8.717959864267772
9,-6.991958745525931,-6.832202327574502,-7.756843314097638,-10.044325934697389,-5.57723159399652,3.93064862723349,-3.5027221324751596,-1.9473660490966769,2.031558598258843,1.119472620245998,-10.326998040882064,-9.415700680756407,-3.965362726528813,-6.385420094464298
10,-3.60327367326318,-3.1130185105971617,-3.3013992142866897,-5.430879985965178,-2.3951462915095,6.282569611815449,-2.9768170449370808,-4.2243378511859895,0.4026559557341629,-0.8965348659571722,-10.838027183304067,-5.845468950553481,-2.2379441763924293,-3.6078105484517087
11,-0.030390088584814814,0.74383703203938,1.1464306842762555,-0.5350262185867052,0.794895157819844,8.178615018044928,-2.186713806018403,-5.971238102071177,-1.1164961184513744,-2.6454493406410453,-10.689847844219562,-2.0239662859096295,-0.2965242162806874,-0.6046794258441119
12,3.4326735046575836,4.404918628726085,5.18364177663158,4.2455788241362855,3.6971122027700054,9.333963356745114,-1.1694670713781534,-6.933394935330375,-2.369901903708036,-3.892600380722294,-9.753115377079917,1.752226722215007,1.7123609601167198,2.380731679618881
13,6.5056217508046315,7.560090634962433,8.471040960522618,8.532409765054748,6.059497899370254,9.541403739463872,0.007065849463262823,-6.962481591180047,-3.2439832112056455,-4.4752492290576935,-7.973152554406683,5.203742439142358,3.62593299608595,5.1030389205862985
14,8.947956092162585,9.951465358070108,10.766015218783574,11.99896397383036,7.698600346848296,8.700112555130199,1.2491647033896023,-6.035887056215612,-3.6787781362412315,-4.322840457357853,-5.385032284727677,8.092727213409153,5.279921889953994,7.338452705839045
15,10.581675037792648,11.39747469337302,11.943346719472405,14.398616007863486,8.516004703722567,6.831692953465905,2.4466310126597635,-4.258574703806175,-3.671609867223239,-3.4646873365326014,-2.117611724678108,10.242658060328823,6.525362691669295,8.907900131290226
16,11.30784659322238,11.809330528635956,12.001860783804911,15.584607730532495,8.504753353141904,4.081431531369646,3.4854799004625425,-1.8475300157004617,-3.273170938592824,-2.0244320296693323,1.6139711071450786,11.55143253927331,7.245229707262927,9.696425010253607
17,11.114829873544679,11.197844353244154,11.056419755331191,15.520085089842894,7.745127183989514,0.7045596100530361,4.2621690203414815,0.8986232739275215,-2.5770043008923773,-0.2024170120690369,5.526342594899788,11.996200912984735,7.368502803162246,9.665957436865757
18,10.07684961787748,9.669632768249082,9.316589683523015,14.277132667103167,6.390486874665078,-2.9608654712519376,4.697235177870562,3.640222815593291,-1.7041991542184287,1.751342430424935,9.294253091518188,11.62939609344684,6.879488359486252,8.85927500540072
19,8.34284873500065,7.413017260625627,7.054979375987595,12.02499334234251,4.645086078811991,-6.531246220828899,4.746202505462637,6.041470030064378,-0.7856495825735711,3.569787739299303,12.582177957025523,10.566556910213167,5.820842089690481,7.394156059314868
20,6.116891539802579,4.67526198603967,4.569562372629214,9.008941811453157,2.736763648296907,-9.620505730792717,4.405990271839799,7.813338969172834,0.05560615007580895,5.002715531347257,15.07768846573572,8.967672512941945,4.289659094759024,5.448176857534768
21,3.6326499826434633,1.7339780753459078,2.1450556768642026,5.522428141202119,0.8880629015334911,-11.883898131894187,3.7157318943506072,8.74875096191137,0.719636450473969,5.847678871970732,16.523153903976016,7.014720203905698,2.4270499721928553,3.236086895559823
22,1.125451290948654,-1.1336460796024008,0.01851927155140782,1.8759406616147765,-0.7104865982467677,-13.057513089644182,2.7518042363611035,8.745643344492242,1.140622983494206,5.974240024705027,16.74272181839719,4.888654494183555,0.4026231120860157,0.9829398008329605
23,-1.1941970254641099,-3.6798148275951217,-1.646283450041836,-1.6335923900887916,-1.9214984909123096,-12.988969991633535,1.617799628269868,7.815492987513957,1.29249701356818,5.338956935572623,15.662143196575508,2.7492008802263594,-1.6039422377323123,-1.1030856588678037
24,-3.1618804327022825,-5.709610288436451,-2.772504854364158,-4.749221298793163,-2.6736255081522278,-11.655845052374472,0.430982286697322,6.077021739660654,1.188885092091388,3.9897595747102588,13.3197391446033,0.7203539453355098,-3.421664535574592,-2.8541404157180064
25,-4.672455538996537,-7.096182324927635,-3.3703324118399083,-7.273296808571434,-2.9647380994485557,-9.169784246332712,-0.6926897362356738,3.7368620783692217,0.8778257123183955,2.0596912934032665,9.867548175716912,-1.1164888144296201,-4.904870769731119,-4.15901307806485
26,-5.683594922628956,-7.7861694992882855,-3.5241615524008494,-9.077949703753873,-2.8552906884710554,-5.76585974292139,-1.652717716678367,1.0605929143000652,0.43237126979676477,-0.24881918982241885,5.562399092951518,-2.7211691903488737,-5.945646025322007,-4.970103346307046
27,-6.209810623018133,-7.795453246474664,-3.3693517293443676,-10.106408403753328,-2.4532006069196854,-1.778346676057489,-2.3753368235034324,-1.6614399002776064,-0.06136370795962123,-2.687051296307903,0.747322141033022,-4.086087521864697,-6.480929392605609,-5.30051277447555
28,-6.308709642699805,-7.196883012777289,-3.062690720127752,-10.366265091372039,-1.892800603225425,2.3944402607375994,-2.8204005886025665,-4.148811327952633,-0.5169465782069658,-4.987724015452515,-4.175631942639874,-5.222456100683336,-6.494014789450956,-5.2124373396239605
29,-6.062547888459453,-6.102816806573845,-2.7516274337380877,-9.91697010872786,-1.311276402183255,6.332446966750385,-2.983134663284548,-6.161888955932538,-0.859448358194854,-6.894335841380039,-8.779420571817752,-6.144692899640778,-6.011107587093496,-4.79953131835573
30,-5.5588704540181055,-4.64596668431586,-2.547435161659972,-8.854523013828222,-0.8263203150462023,9.63875270389156,-2.890873003220783,-7.525487009502571,-1.0348908718974459,-8.189075324930851,-12.650446799415606,-6.856498399362586,-5.094246780603052,-4.16685600919166
31,-4.874011401786334,-2.9620007809162807,-2.5067075609741645,-7.29641465762376,-0.5184616279602826,11.982159073166322,-2.5956747975366445,-8.143166056613707,-1.016288080664592,-8.716508149305184,-15.428297950682849,-7.341795783949039,-3.8322181963040345,-3.4122508109210528
32,-4.062480724668531,-1.1766510658715423,-2.6240934790923167,-5.369359616338943,-0.42071374094086644,13.13284263022068,-2.164307118869581,-8.00143192326174,-0.8057620464906744,-8.400702322414794,-16.843129551557944,-7.562706852526655,-2.3310337982544636,-2.612440246524023
33,-3.1539401033939596,0.6011386464082671,-2.8371964531327247,-3.2013630577597567,-0.5169351705815278,12.987109218110541,-1.667375465942911,-7.16439471444734,-0.4327441359881712,-7.254081636570486,-16.7467399917793,-7.465266484822868,-0.7051955068988702,-1.816042229774381
34,-2.157826251119801,2.2799618181760026,-3.0424375006510886,-0.9184056912251654,-0.7488354770183422,11.57841494812607,-1.1693552656632622,-5.7605084033922695,0.05124480117944956,-5.377061152883838,-15.133470028788437,-6.991929483245987,0.9295788133111554,-1.0441173274416102
35,-1.074049897876728,3.781952308964907,-3.1187745243534355,1.3552229534388314,-1.0301118642155853,9.073285337218033,-0.7209506212561549,-3.9637259434908803,0.5803565920237695,-2.948381894788774,-12.14765382318082,-6.098424521814616,2.4620610518783628,-0.29731651397114944
36,0.09309156651497959,5.036463452731523,-2.9548244997868394,3.494882108984217,-1.2650270359133433,5.752430286255402,-0.35466963257474327,-1.971747390379303,1.083589361893867,-0.20698261173683066,-8.075496132947135,-4.771468981399584,3.7900002640598527,0.4326302131722161
37,1.321340964969347,5.974327864411845,-2.4743817532488133,5.374232981452214,-1.36803858737155,1.979044392015961,-0.08387739046139647,0.01596872278051882,1.4941419201122417,2.5728459678356983,-3.3208953982421274,-3.043492845722058,4.823981750620313,1.1501358391453753
38,2.5607584793126934,6.52539849259477,-1.6556556270759857,6.866841710968536,-1.2809832623133337,-1.8421934283031929,0.09501313963918682,1.8180679768914874,1.7577743739192138,5.110489199719296,1.6333067458448698,-1.000908757812687,5.491237260990266,1.8448782837727482
39,3.7305949752207446,6.62121808817763,-0.540692515454663,7.852239501162616,-0.9848179597101111,-5.3107413986307845,0.19802837659152706,3.287211624913416,1.839197382269467,7.14912916297979,6.275166512039033,1.2164625810360497,5.739755227182117,2.4854944865256354
40,4.724171785578178,6.203335990551164,0.7668110860761186,8.226756635838889,-0.5039280495272329,-8.07511507335087,0.24790237119573666,4.320891061846049,1.7258172072393756,8.483645394960414,10.119352605309134,3.4256495703970007,5.542666868215782,3.0194740339394905
41,5.421533064034828,5.236266742664998,2.1150674733401265,7.918068497173109,0.09765420298681975,-9.871773261178996,0.2683004779328567,4.866717934924655,1.4285312646239454,8.98314347663151,12.762341413678891,5.419562506089131,4.902471585853384,3.3795313324811485
42,5.70800433271743,3.7226901997935644,3.326925974047141,6.9011292407845986,0.7273630958722667,-10.553291370594872,0.2790418139351454,4.922421368039379,0.979649236634451,8.605498421949491,13.930302628909642,6.992275737856283,3.8543201632624515,3.4953555416426223
43,5.495483966453175,1.717529812724213,4.228000180838935,5.212306794930228,1.2805340623535122,-10.102409839003972,0.29307185739034003,4.531300139438615,0.42835951945507245,7.402161426766491,13.513385460304788,7.966826571678026,2.4673867828079463,3.308490976397051
44,4.74256233566094,-0.6627654333512398,4.675511418385798,2.958279806167723,1.6592653626567981,-8.630281022578881,0.3155436716275796,3.7742018053911175,-0.16557102936784016,5.5125655974060725,11.581508805981468,8.221214976290193,0.8433881930672213,2.7873979541823166
45,3.469548206077973,-3.2389701185610127,4.58305115825235,0.3167077956181333,1.7904381012809654,-6.359226933296986,0.34494296893109744,2.7592240440668436,-0.7390122312549148,3.1486566146373853,8.378912786099738,7.708427785797279,-0.8884334617367571,1.9396092824216258
46,1.7651929814309235,-5.777949038516544,3.9371519610647163,-2.473201476705665,1.639808815108224,-3.5923007336225585,0.37580903564535173,1.6102851659774478,-1.232700784062447,0.5712314028851416,4.297390775077535,6.467147514375324,-2.5800873919195286,0.8183481522238056
47,-0.21678729854614356,-8.012055828504456,2.802907783113235,-5.130506693890227,1.2197797204121363,-0.6736510792681225,0.4023175383311831,0.45554408166089383,-1.5976490921269693,-1.9392498239663587,-0.16906270835143017,4.621191004055127,-4.077002752691179,-0.47808458554664185
48,-2.2716237354291606,-9.667575928711162,1.3176524159520178,-7.361209435877498,0.5895138526402267,2.0551126145885386,0.42183977678131823,-0.5835729992089309,-1.8000541454923804,-4.11403520004443,-4.482890401691942,2.367416108858268,-5.2326022937106815,-1.8145958778780928
49,-4.166341628328043,-10.49893799394166,-0.32641472442971564,-8.892594049400701,-0.15269211546334296,4.296838400671518,0.4375967056282659,-1.4022008852172585,-1.8242538564234807,-5.726014976114217,-8.127685137266614,-0.04644815053419917,-5.923762087323242,-3.034374745071999
50,-5.668548339510978,-10.324070757488558,-1.9080765886468023,-9.508779021811387,-0.8836365889331779,5.83357469859564,0.45968942436175203,-1.9203454031066673,-1.6735394686955687,-6.614756717673643,-10.67080780151424,-2.3511237577892925,-6.065298564321734,-3.9787014640447547
51,-6.577148141308459,-9.055629993495526,-3.207598474219545,-9.082429514128567,-1.4738771757767912,6.5496974853706496,0.5040922875926275,-2.089383926626811,-1.3688933109200787,-6.703764323119807,-11.815904146104101,-4.288331636922371,-5.621552733540103,-4.508617955616671
52,-6.750581756069118,-6.722998909858772,-4.037434297742123,-7.597759850084362,-1.807987543161235,6.4406325861101905,0.5895958129471631,-1.896467058412767,-0.9459480944848182,-6.008017780363368,-11.43858649642794,-5.642234819943553,-4.613367700519187,-4.525242456828664
53,-6.1284764918633305,-3.480971310519073,-4.2687525235689545,-5.160906660617508,-1.803324535712348,5.606435760100171,0.7331201618335961,-1.366487268615815,-0.4506319145290824,-4.6310191736439155,-9.600742667927696,-6.265670511310964,-3.1192529172748915,-3.9856840228768604
54,-4.743492800493415,0.3972794288838919,-3.8500890067198106,-1.9953479195808026,-1.424441635245696,4.23164287621038,0.9442118139096155,-0.5612446205452983,0.06594175239861204,-2.7518226700155917,-6.5417318711164025,-6.097848638178802,-1.2702217291837785,-2.9121509879259397
55,-2.721507511843146,4.543208480796918,-2.815622953910339,1.5779512632361474,-0.6909200761721124,2.5547202378588723,1.2198103455071383,0.42452533178520135,0.5527591107572081,-0.6037000085038692,-2.6477269055320014,-5.1713931904698445,0.7614267602362097,-1.3928310160754624
56,-0.26986772590890395,8.52988607822191,-1.2820588729634335,5.173862013186337,0.32265550590268105,0.8318312452702653,1.5404645050226276,1.4704430032568068,0.9638311349506077,1.5529614218829704,1.5967483123457917,-3.6080254294036633,2.7783481337278118,0.42571753568185083
57,2.3449509653274063,11.918905172730524,0.5653390704998171,8.386149416258245,1.4947132193451644,-0.6997203425264302,1.8690498597565885,2.440988212527956,1.262317929321,3.460329247764828,5.668826358987832,-1.6036316374863966,4.57774787782777,2.353763297958579
58,4.827559334766433,14.311599414400623,2.4955884606564185,10.835073761689511,2.671684881287642,-1.8531867720387944,2.1526964167295315,3.198705249074602,1.4235363395421776,4.891973309883029,9.071237715659963,0.595262877162972,5.972240713224946,4.179295195137548
59,6.888015997238906,15.398143065731794,4.260629201991662,12.213576773195447,3.6879526433176424,-2.514962935690447,2.328119525887026,3.619138627217515,1.4366724509142583,5.677714866126492,11.392233194681452,2.720623551175328,6.809716975624241,5.692014324414861
60,8.276102939948874,14.99814822845127,5.626029118880126,12.326126521380383,4.388024537905302,-2.65532702995913,2.329943286971657,3.6060892766426615,1.305156165132071,5.721876622569028,12.354210072346689,4.514087955752612,6.990053539010752,6.707486895261549
61,8.811315132017139,13.087280153791943,6.399867304456454,11.115120033954506,4.647894182636963,-2.3264384353853527,2.101013653128463,3.1054489034851263,1.045774960821162,5.013159928529502,11.845327080701946,5.756529384137846,6.476832405823291,7.088562948125796
62,8.404909348014092,9.806059516885288,6.456248095807617,8.67124471297312,4.3926465404248125,-1.6485800507177912,1.6032197412126008,2.1157261800064835,0.6866968702922375,3.625332359984037,9.930607612740083,6.292644908437611,5.302736520472682,6.761560356688289
63,7.071336764194852,5.449199714481428,5.7506648094745945,5.226180218481269,3.6078814737731926,-0.7872858241635193,0.8270671040112153,0.6934879898391832,0.2646330187899757,1.7088751712147912,6.841599184494462,6.047889704293264,3.5679228110232017,5.72539204624828
64,4.927679852778654,0.4362638311024286,4.325515049426877,1.128231489333228,2.34336968703403,0.07481663765925238,-0.20175391075158366,-1.0476598078304529,-0.17859943161216832,-0.5253775560302285,2.946262525955557,5.036033014077863,1.431372196664636,4.052682218223257
65,2.1811751549874554,-4.733187758405147,2.3053272797728015,-3.1963548531238346,0.7084187140784055,0.7670520445486122,-1.420255358429065,-2.945240466390872,-0.5998426452080442,-2.8288385845690738,-1.2968998620604952,3.356722834941708,-0.9040677861151122,1.8828656582446845
66,-0.8936472659744263,-9.534761805121411,-0.11746902604689471,-7.291799296773006,-1.1404371312401105,1.1563490717632998,-2.7313540774266336,-4.803000014799907,-0.9584188654647625,-4.941681364909887,-5.394663709697415,1.183588121916371,-3.211558251921088,-0.5918219215956956
67,-3.985423336000246,-13.478117452258623,-2.704271595977591,-10.725056533586539,-3.0177625570234743,1.1659567439947138,-4.0124535337726694,-6.411685058514789,-1.2197343181555682,-6.620598193374321,-8.87797166215336,-1.2555492785436067,-5.263108364549036,-3.145783308393316
68,-6.780334745805627,-16.162416816766804,-5.1967360254168335,-13.135536420564563,-4.7310985599983635,0.7849085250326362,-5.128595539734175,-7.573298958274677,-1.3583977002046799,-7.665018945637354,-11.356789901195151,-3.703950040869695,-6.853040457066291,-5.542707236255742
69,-8.996311215515675,-17.321541693869094,-7.344663701940226,-14.276156732130454,-6.103480998148443,0.06740979204653652,-5.948568763617825,-8.12589385020367,-1.360597255669639,-7.939135241575395,-12.564469621188396,-5.903786583634734,-7.819594861084504,-7.558940398442098
70,-10.413062523723584,-16.853522136886195,-8.932085754969782,-14.040683796633012,-6.993663461723502,-0.8771580337992979,-6.361774190578403,-7.965597135146098,-1.2255097819082645,-7.387442021590606,-12.386553395946594,-7.62341158814483,-8.06230844461351,-9.005132953744148
71,-10.894549317691057,-14.830598683095511,-9.798678413431215,-12.474057720216313,-7.3114961114005785,-1.9016166362567528,-6.293393773889271,-7.062684457467647,-0.9655681096630511,-6.042091861842597,-10.870946927333408,-8.681125175208452,-7.553185796003091,-9.744006323619761
72,-10.4015013742017,-11.488782260303696,-9.854371546072326,-9.76457125193616,-7.026647889069631,-2.842844720935328,-5.715547977064823,-5.469114878997989,-0.6054939384436595,-4.021114627604343,-8.218674048935288,-8.962990454544618,-6.340296639146622,-9.702597255764164
73,-8.99284157973667,-7.198351823744594,-9.085943102523645,-6.219080007473491,-6.169820856159579,-3.544795609229223,-4.652651475022873,-3.315975559661696,-0.180107900800203,-1.5174275766832657,-4.756751970841724,-8.432980960963054,-4.543216172486009,-8.877961123189907
74,-6.816208480787233,-2.4190941928434104,-7.555390010170107,-2.2245550900430717,-4.826642827474222,-3.8794851307678075,-3.180007074360607,-0.8006111638872787,0.2689492165934316,1.2205175086163003,-0.8967834108632623,-7.13462850591667,-2.3406003897350907,-7.335993840287817
75,-4.089034451680388,2.3540594669431747,-5.390806549377112,1.7990305084759872,-3.1253893540575475,-3.7633238842246453,-1.4156876149523052,1.8353409686552502,0.6973222086355184,3.9147017845826286,2.9155603882958863,-5.184281724706653,0.04892508954943254,-5.203700322266566
76,-1.0726971934604441,6.648231361671334,-2.771286222281827,5.4484683738192325,-1.2204523585083757,-3.1670525464864494,0.4932133430868862,4.334425664247562,1.06249283936208,6.287566300856659,6.254039983603219,-2.7569969301233304,2.390570832226074,-2.6558603026484557
77,1.9569889228105326,10.065601720332713,0.09207902318424496,8.383471812451226,0.7260529389968916,-2.118574079795661,2.3879942385617245,6.454692657684216,1.3283026552962296,8.092921264644318,8.761948318664398,-0.06688053549288459,4.459243523751205,0.10241690262050908
78,4.739320834919003,12.325810903434103,2.976746881746227,10.363508109470642,2.5620236793123405,-0.698987815992486,4.116862324952454,7.999596243963736,1.4689264456658382,9.144223640413982,10.192876322863135,2.6557001448447113,6.064432218403252,2.8553457781751743
79,7.054763461829484,13.292763052612262,5.668484576414766,11.270865115812496,4.160157985606131,0.9670398743089013,5.551810842148641,8.84219556823761,1.4717925942670707,9.336751083750702,10.437321688875375,5.187307403594322,7.071053856060264,5.396197951414778
80,8.744522092133117,12.982871115562372,7.9783173742289515,11.117359232973024,5.428054613641783,2.7248976909079596,6.6013819670038645,8.940030315775456,1.339035941668653,8.660682338823808,9.532002802040749,7.3323259244770105,7.413553828038723,7.544999585264068
81,9.72156493182637,11.55418777266381,9.755197616737274,10.034278841398136,6.312663319808195,4.4057752204852525,7.217531879605588,8.338302851230521,1.0872273357244657,7.20302308393904,7.650834333878425,8.939249830065721,7.101323305464182,9.162352952284728
82,9.972228701391563,9.278333235064155,10.893636419823627,8.247394434293005,6.799022049457424,5.842770764381543,7.395818574470472,7.160699633790989,0.745336650938621,5.137626007429907,5.078801767966688,9.910763298461607,6.21459752848037,10.1580662551605
83,9.548845361084114,6.499336249488896,11.336294479377555,6.04084895055215,6.904090433199335,6.88592130452371,7.169280576853962,5.589078949073684,0.3511272300867423,2.704100441471461,2.172163921315591,10.206937720246222,4.891301927089937,10.493986187570004
84,8.555055017970908,3.5851560659439823,11.072210030464253,3.7151937115252,6.66720464497593,7.4151310283078455,6.597460955665464,3.8350313218898755,-0.05358436685032028,0.17798105936681335,-0.6897786404610705,9.841867722837222,3.3066262213117827,10.181227283961087
85,7.126439587394841,0.8785293236900644,10.131845993453753,1.5455532619217258,6.139126386399817,7.350371169986349,5.752853943390793,2.107676780541289,-0.4281776423451842,-2.1641164539330613,-3.154951258008655,8.874985586767849,1.6482189343310099,9.272760525786753
86,5.409675978099251,-1.346233868848442,8.580387489620954,-0.2542181070591296,5.371769572770038,6.658819020559048,4.707450834849062,0.582749883285397,-0.7382511138821094,-4.079719976180349,-4.944087165002021,7.398978479580362,0.09060954658002619,7.852933301731128
87,3.5434751183419246,-2.914799306054698,6.510681759110173,-1.556474593319764,4.410446568119086,5.35876617743578,3.521954640526325,-0.6221045765187213,-0.9596842849771925,-5.391207727175644,-5.885488539834084,5.526569558554014,-1.2273594457631336,6.025833583276764
88,1.6441280361476582,-3.768697584626851,4.036905390986135,-2.330548065930699,3.289925548725316,3.5201758792027142,2.239636302559715,-1.461849767642024,-1.0811255849868628,-6.007564677984893,-5.934274241368858,3.37835639981093,-2.218728216954078,3.9044184351623596
89,-0.2024139064716365,-3.9637980207733086,1.28953937806575,-2.6382013183966673,2.0348266581430945,1.261764974059854,0.8858344184524655,-1.9660406914431434,-1.1045243769899264,-5.9339247025448545,-5.173546673431094,1.0734465726422955,-2.8558504997552827,1.6019955907610102
90,-1.9412054789680646,-3.6521080698316237,-1.5883614223562195,-2.6148979997444233,0.66403249572673,-1.2555010508632016,-0.5270581986552599,-2.227971864691121,-1.0436335849709129,-5.267361402491826,-3.7974414498707896,-1.2761209504221385,-3.1680491591729063,-0.7729696604988766
91,-3.542330620255479,-3.0500284425254622,-4.444172810876935,-2.4401314673594605,-0.8020137699490154,-3.838520077475029,-1.9904048867516253,-2.38281522468442,-0.9207463650570168,-4.17942961525611,-2.078613832227537,-3.5670847587474657,-3.2300683247081476,-3.1185442251754045
92,-4.990114600597339,-2.3981335315746053,-7.1189364772355095,-2.3016790886873504,-2.3328651799937705,-6.275584427185934,-3.488099199983962,-2.578426830659099,-0.7622363904663157,-2.8879951999334494,-0.32498830797117145,-5.703599296374403,-3.1434183442691768,-5.338156853521181
93,-6.270250843578502,-1.9187443978190435,-9.45190600062261,-2.3595361613190793,-3.8805393396263907,-8.352812442493022,-4.9859414435479446,-2.943761032768789,-0.5936874797112026,-1.6225872115144158,1.1677991113696833,-7.5942867746198495,-3.0139132996324274,-7.337891665160412
94,-7.357959388123341,-1.777828480097913,-11.287298045843237,-2.7152928757053276,-5.374898291455839,-9.872540438204362,-6.424228046109647,-3.5602826957597737,-0.4354788896612432,-0.5885709576118834,2.1611688561836764,-9.14953695721054,-2.929365913930227,-9.023962779187888
95,-8.210101214634749,-2.0570459643407943,-12.483669823303945,-3.3918431895766044,-6.723506412399857,-10.67228692565155,-7.715637972795006,-4.441333398362565,-0.2996171877085998,0.06432144591536733,2.508879562706685,-10.280829668017688,-2.941401656877886,-10.302100336482601
96,-8.763417496157391,-2.740168409192888,-12.925665453437569,-4.326686461725433,-7.816783844572846,-10.642510229965076,-8.7495668520641,-5.5231561197439,-0.18838305880145662,0.26421278487066857,2.1775623648367604,-10.903388312472483,-3.0546660034623967,-11.080191562044035
97,-8.93986688284431,-3.7158597497166523,-12.537120663869992,-5.379946949001341,-8.538327212498093,-9.741136178656438,-9.40288063289064,-6.669418139532094,-0.095028289371189,0.026604605141345997,1.2495118043509539,-10.942679063886974,-3.2254292342139954,-11.274793272646424
98,-8.65860218426282,-4.796273430638591,-11.293843339917629,-6.355920808732619,-8.779284877433142,-8.002822409567374,-9.555845294715166,-7.6888962905239815,-0.006373838710816214,-0.5502409187556421,-0.09251693256064339,-10.34429854286632,-3.36995133853511,-10.821195547302654
99,-7.8527195612865315,-5.748471681288103,-9.233949924535121,-7.03482667346135,-8.454822850156464,-5.541223406610207,-9.110956797824459,-8.363854479727092,0.09320376616597716,-1.3032606101907263,-1.5959677369085048,-9.085836029920609,-3.3812365670062743,-9.685751880246311
100,-6.487795598668442,-6.333692432342055,-6.4635531833501405,-7.209817831386823,-7.520155675657428,-2.5431536459603317,-8.011731067637017,-8.48489229953252,0.21718400493980786,-2.0329750020506916,-2.9796858218366005,-7.188553448702209,-3.1512851497941523,-7.878395093796489
101,-4.578619944958354,-6.348282346259699,-3.155923054936321,-6.723459876549805,-5.983452825560017,0.7455334954284778,-6.2583295725795,-7.886947898825022,0.37262889828518747,-2.5377361509847463,-3.9791610883354243,-4.7263600249729345,-2.594907080580338,-5.462800316658364
102,-2.200562055243597,-5.659864490277694,0.4570387826977495,-5.497913751006041,-3.913205201257086,4.0414544683692935,-3.9172155448080583,-6.4808590515014775,0.5571030745028644,-2.648362013447753,-4.38876038593046,-1.829662029801365,-1.6707878923048316,-2.561648828153344
103,0.5073031775143062,-4.233050843820609,4.101150303571589,-3.553981820906995,-1.438315987477412,7.0506341138466055,-1.1228022545915788,-4.275456760929248,0.757462502863908,-2.2576402083847205,-4.094452956828567,1.3177494341202343,-0.39586709860116265,0.645071588512813
104,3.3489402262732675,-2.140627102115286,7.483095422312328,-1.0158354423507632,1.2598279942589499,9.498052862276676,1.9298495782762553,-1.3864941517802867,0.95085215661771,-1.3400220314779816,-3.0920905721025322,4.489622348608099,1.1498398339870137,3.9298647422491064
105,6.087987286311933,0.4416202069737467,10.318196245562204,1.8996037109987405,3.9628849800240067,11.156463164990727,5.000962650618406,1.9694018539782316,1.1078448654624418,0.04159311954200116,-1.488602375906225,7.435585614462011,2.8292461447081165,7.0355054319689065
106,8.472591937290138,3.2557475053379865,12.359728227852866,4.9073380715988195,6.437106789266595,11.871053677166818,7.829027068885751,5.495409972367798,1.197246696730393,1.7430230397072106,0.5138643051379312,9.905219750327973,4.464441027205016,9.699307324957104
107,10.265251067258655,5.995088028573497,13.42617181751596,7.689608878830796,8.4583522366793,11.5769149417743,10.15820333020572,8.847363812778113,1.1917645540826023,3.558757241185456,2.648202266366805,11.675047831240823,5.8608134558522815,11.681131208498075
108,11.273419276343246,8.345298988643572,13.422774241199988,9.936831174602993,9.837383211675236,10.30704460136264,11.76679479550146,11.674538727896849,1.073540804164778,5.251555113033125,4.622176350805599,12.574901107858308,6.835293042630027,12.791491243788228
109,11.376278468011254,10.026938896655771,12.354315242125043,11.388288268778467,10.442091169287698,8.189721164749418,12.49316843809577,13.6629616753321,0.8385421835785932,6.587084131354217,6.161613718670103,12.509907267888869,7.244187982695957,12.915769878893418
110,10.543443769022542,10.833337464271645,10.326983434765397,11.86677102407863,10.21362697766017,5.435337033032908,12.255717377286972,14.575399420596595,0.49895009955217257,7.368282212734136,7.050331866342929,11.474737155416399,7.006104395999862,12.0308465474821
111,8.842475813415575,10.658326046509236,7.538648285914058,11.302267282139308,9.174185920144309,2.3140594513370476,11.06414297830503,14.282569441544672,0.08301254176636076,7.464257298440346,7.16081536581556,9.557694910522144,6.116198439308027,10.211364115263892
112,6.4337088013644275,9.51001490796999,4.25836460199764,9.741450781504517,7.425316986720588,-0.8731766718770053,9.020408593745724,12.781281628406953,-0.36776486344486903,6.829468282528578,6.471210640972411,6.933615256075245,4.649407834734363,7.624270179530248
113,3.5528177629419786,7.508957571435256,0.7974405484549932,7.341821258070222,5.1369111780211245,-3.8269931220717908,6.309041482725856,10.196996644597652,-0.8037581881282294,5.510497852950248,5.066431438819993,3.846125546783619,2.7520881799968167,4.511952731848949
114,0.4834143589731208,4.871375108475502,-2.524397571500087,4.3515715018922405,2.528280394534352,-6.2814140003970165,3.177850267627209,6.770420230955153,-1.173954035502738,3.6396664196035253,3.123684951622753,0.5813790501866203,0.6233326035091502,1.1659623831267614
115,-2.4765344121278003,1.8802534304650549,-5.413495758177189,1.078257346507558,-0.15622221995959246,-8.031461552473212,-0.08861558765320189,2.8299287808057727,-1.4332324827337963,1.4167346452451264,0.8851266610517583,-2.56338555308268,-1.5111327405058976,-2.1053010324349555
116,-5.049770756206587,-1.1512455248568727,-7.633063394747876,-2.149172474012103,-2.67391511322697,-8.953237064947144,-3.1995905137626974,-1.246475300196678,-1.5490443809385601,-0.9183116999596047,-1.3777539664274296,-5.312357918651136,-3.42847350263621,-5.010685619721506
117,-7.011443000804736,-3.918723901013871,-9.026436242499473,-5.019669929351116,-4.8094838578925785,-9.014158474144486,-5.888828349656001,-5.074620765239496,-1.5063938928764802,-3.1171730616888587,-3.4023207368751494,-7.44051631073783,-4.937251151594092,-7.307690171215905
118,-8.213179491342421,-6.162442389468513,-9.530062088354429,-7.275432943567591,-6.396548830719991,-8.272283936231158,-7.941794576402539,-8.307353285504085,-1.3102942360765513,-4.955091008222849,-4.9697180085145485,-8.796113388706923,-5.900754655191638,-8.827143134407553
119,-8.596516675594543,-7.695507547007167,-9.174921961142097,-8.738836499868848,-7.332648700546354,-6.865065711267818,-9.216094509213775,-10.671951115404658,-0.9852671498010711,-6.258117435484033,-5.931514207406688,-9.313611196761736,-6.251951467460037,-9.48816693043503
120,-8.194310419254604,-8.42106541324975,-8.076711218941888,-9.32789170447534,-7.586142893766185,-4.989251868079927,-9.652881326927467,-11.997223956787938,-0.5719371155522567,-6.922176404844451,-6.224615767508429,-9.015791830337957,-5.998262565334613,-9.301883796126024
121,-7.120551119717024,-8.336977432511413,-6.416611832273319,-9.058939264013725,-7.194650365702476,-2.8747822781390986,-9.278235610586044,-12.22730547768668,-0.1212474936654762,-6.921711191211133,-5.87304778820481,-8.005299106722594,-5.215994143313282,-8.363934377629137
122,-5.550643686372064,-7.528307773649953,-4.415662428405153,-8.037117229192635,-6.255744350507744,-0.7562430560253293,-8.194848760470496,-11.421061384690484,0.3127846932192458,-6.3073807535679,-4.977333349889684,-6.447284039678549,-4.035825849599018,-6.837408252476636
123,-3.6954526456094365,-6.149608243648723,-2.3064150674496227,-6.436767403266411,-4.911560034470682,1.1543542474590278,-6.565577265506788,-9.73800410790731,0.6806234302821152,-5.193920868189553,-3.6940686952166755,-4.5459302207090175,-2.6220162232186586,-4.929000381462634
124,-1.7730826705285478,-4.400220090379374,-0.3056868038607847,-4.475138659544458,-3.32962741788641,2.690040105201382,-4.591390888481133,-7.413340667956339,0.9438867726697221,-3.7406542403493264,-2.2095962382978405,-2.5182832048280117,-1.1487594505833643,-2.8619474596689036
125,0.01759928826490928,-2.496480427013829,1.408208166252652,-2.383371185005246,-1.682546308140198,3.7439878474669723,-2.486795033160599,-4.726042345217697,1.0801113237753963,-2.128017922112644,-0.7122496216388787,-0.5689345814046213,0.2226818196049486,-0.8494846347307295
126,1.518257133873837,-0.6447792104115668,2.7112248432667827,-0.37875899614011466,-0.12905674496987135,4.2757905721975575,-0.4559088439929846,-1.9644583798475732,1.0849199325756766,-0.5337614889032943,0.6325532738168266,1.1312726932627428,1.3628357341419786,0.9277979871051664
127,2.6247915592413826,0.981095323782908,3.540985675651224,1.358265006819241,1.2013408445686595,4.308769384599499,1.3279637118422216,0.6060503444745442,0.971358268073411,0.8878506977294984,1.7009713576204073,2.4601635568948668,2.1865226523451535,2.338144921788468
