,AF3,F7,F3,FC5,T7,P7,O1,O2,P8,T8,FC6,F4,F8,AF4
0,-0.2409828664723962,-0.4952724891389399,-0.5781089433902957,0.20546095015761204,0.5059646056671386,0.5215777174453952,0.09102302833960514,-0.09184587323490563,0.18614331917765747,0.10225271307832721,-0.005026058944928122,-0.5474487283248671,0.0825824103330185,0.5513912217120164
1,1.4716860198707162,0.9340509202735552,2.2665462482533463,1.2122303598877595,0.8365011903575107,-0.008962054287088433,0.7868260284680237,-0.2598685779977251,0.06806000840874803,1.382149656371071,0.9993764094801758,0.8100108895991037,0.7344906730632549,-3.8361543924858705
2,2.9386029755226417,2.2312652877442436,4.880421374690086,2.1051873609836016,1.1151812711599625,-0.48527405895364467,1.4408585636883995,-0.40346342529521584,-0.061002099362962865,2.531026113511124,1.8801598580609948,2.0654660571053896,1.2559527874435397,-7.892385221168405
3,3.924410843395102,3.2297765493169304,7.0561314040145025,2.7850408372500577,1.301754041661987,-0.8194437189938387,2.0325851343679195,-0.5120105104978949,-0.2161890460596938,3.415142283296593,2.5053362173312093,3.108820461374242,1.5241948264535528,-11.285104617769544
4,4.263099206244052,3.8051106769372853,8.633023598571043,3.176843501195382,1.3647722262271906,-0.9489462706817836,2.541012311925135,-0.5790753392607827,-0.40543356136158126,3.93854794511148,2.7810692115669755,3.8563621383809914,1.4591825971800292,-13.724502777784926
5,3.88142907345334,3.891472411797897,9.511294641059377,3.2386617675654885,1.2860403046281432,-0.8459015383857776,2.9434345683002556,-0.6028980203434372,-0.6260187814013816,4.055236509646045,2.665025468514193,4.258599186137415,1.0373613843478653,-14.987934580058019
6,2.8094464660489002,3.4899305230923545,9.65921147835664,2.9661549950669213,1.063432713179986,-0.520902065400823,3.2155369921409913,-0.5862701441365019,-0.8630966234726086,3.7735841951805886,2.1720049829566226,4.30371045534736,0.29643028123755755,-14.942625994144368
7,1.1766514329938003,2.667150609143335,9.112773939144539,2.3925227986670214,0.7116833741703998,-0.02096864305931391,3.3330352984672587,-0.5358215234184882,-1.0905534457748085,3.1525890186566876,1.3711114849849235,4.016339953516021,-0.6696157382348479,-13.563826564154645
8,-0.8056189015310552,1.5449668885516623,7.968052574091817,1.5838840456700405,0.26103076661948843,0.5779256105046012,3.2746848739791683,-0.46082019858718787,-1.2742394535650223,2.290725217580713,0.3749978626146087,3.4520772154264288,-1.724422356558779,-10.945588580902408
9,-2.873117413437057,0.2824075591928321,6.367308728923779,0.630748164344856,-0.24610081172363613,1.1825256968990057,3.0261683646336,-0.3716598925441814,-1.3771767294932922,1.3093818561050092,-0.6770984048024236,2.6885301353287407,-2.7100296180987873,-7.301476153316436
10,-4.74487589796993,-0.9471366396107888,4.48074695016941,-0.3632553418903226,-0.7599365246182159,1.6963340671924185,2.584136578359099,-0.2782583002078106,-1.3659963144635143,0.3336741776583123,-1.6399109789432589,1.8143299476827544,-3.4712115609235843,-2.953197881830193
11,-6.161604693305359,-1.9802466595710089,2.486264131640497,-1.2938814248382946,-1.2290577048352958,2.0338930610647066,1.9595765545413402,-0.18860819593796407,-1.2175893251733751,-0.5262309229135932,-2.3831820832280113,0.9176474454783948,-3.8796106567655033,1.6935872380335066
12,-6.920966220634304,-2.685802203697057,0.549770783729368,-2.068370743955942,-1.6062353488668617,2.1332090359234375,1.1797357063756346,-0.1077065812639614,-0.924842206355737,-1.1903074721049922,-2.810064473028881,0.07581238973775702,-3.85391545663891,6.185344692710103
13,-6.904864308423861,-2.9821633714375197,-1.191471302064662,-2.61561284733261,-1.8536589643011447,1.9645519636972322,0.28803482073331527,-0.03703557005434605,-0.5003938375596642,-1.6180846730098144,-2.870238784399295,-0.6525890317459707,-3.3729642963341533,10.065775285266017
14,-6.095067103022237,-2.8469042295127998,-2.6405163372107077,-2.8931563041710975,-1.9469484244892354,1.5344521756772982,-0.6582794009864016,0.025311768890362324,0.022394916615719497,-1.8110367056705265,-2.5659587995868014,-1.2321849378944307,-2.4797872653365554,12.925340829059357
15,-4.5751767023098,-2.3179550961054805,-3.746168360814887,-2.8903351518332907,-1.8775319180667174,0.8844643384182618,-1.5926146215442398,0.08386668568314053,0.5916633058104559,-1.8079357325587582,-1.9503480045723485,-1.6514675579848135,-1.2760358663957094,14.449291692627998
16,-2.5189113152082143,-1.486301358693431,-4.5018501603719585,-2.6273463636867094,-1.6532017212826535,0.08506278411380307,-2.4451477745628107,0.14449190085971525,1.1423753889756283,-1.6743410696775345,-1.1184465105839065,-1.9198475170363956,0.0922493705470952,14.457794483677562
17,-0.16657587797254758,-0.48160053695545285,-4.938511151595334,-2.1506651635842555,-1.2968809288624068,-0.7742530217946321,-3.1497790075373637,0.21276577675656058,1.6041589961316471,-1.488319378094289,-0.19255799356602965,-2.0618926615601687,1.4552713141277083,12.932261435054208
18,2.206819197327997,0.5469709169296031,-5.1130002548156,-1.5256415647242405,-0.8438222212280784,-1.5970458166931274,-3.6509630331012772,0.2923163448131339,1.910645771572552,-1.3249993255341075,0.6957876507519648,-2.1099284413408235,2.6433342329878844,10.023478991122916
19,4.327293633110211,1.4517750166678458,-5.09392156446211,-0.8274254895162619,-0.33760268098148627,-2.2923854791385985,-3.909458470628308,0.3834048571918369,2.0090151657017086,-1.242600731771813,1.424559616714242,-2.0963558800222692,3.5103686353365022,6.039425804745362
20,5.956620602591926,2.1067021766676284,-4.947275777274502,-0.13149112225319134,0.17462548581736523,-2.785886101245891,-3.9062088171045724,0.48203616355129053,1.8683488223751983,-1.272175886041929,1.8979775192733546,-2.0469918061626378,3.9537374826261376,1.4134081682941553
21,6.921486079188805,2.4234420929424756,-4.7241382144185975,0.495026063230244,0.6471174668820235,-3.027912638885886,-3.6438762338740323,0.5798018320036249,1.485515631476984,-1.4125643775109729,2.0590386327866383,-1.9764825032846396,3.9276053954661334,-3.3441071979896178
22,7.133449193212542,2.3620477857153523,-4.452248395055644,1.000178260985304,1.0402325961706869,-2.998066825378548,-3.145925141552857,0.664550871466906,0.8876239655049517,-1.6311387025169333,1.8962716315340973,-1.88644065657348,3.448180703151581,-7.704241785533015
23,6.597428243578049,1.9346930958794595,-4.1327427403991965,1.3515613832497613,1.3243616656000226,-2.7056752800638675,-2.453520076595378,0.7218492277138266,0.13055205890462526,-1.8699651996747473,1.4440371363868678,-1.7664755389781048,2.5903561234140806,-11.181734235350714
24,5.408032628885159,1.2024954639947856,-3.7424445645341375,1.5378777799707388,1.482680320975651,-2.186590135397435,-1.620795060696119,0.7370546398350424,-0.7063770961471673,-2.056173001977332,0.7766023456185711,-1.5978035343211268,1.4764906130878166,-13.392364395634994
25,3.7346682362282664,0.2661872930807797,-3.24125153677281,1.5677844681413717,1.512442832921912,-1.4970883588725359,-0.7092268392370794,0.6977202546640817,-1.5289672918283685,-2.1147334309678207,-0.0029636283952806284,-1.358712952395599,0.25912080330363507,-14.098391368944975
26,1.7977518840666091,-0.747850916100574,-2.5833554136014216,1.4664366747231965,1.4246794324340009,-0.7059651706774528,0.218114716371526,0.5959673430099525,-2.2389156765192046,-1.9815785546381284,-0.7773974856596119,-1.030872155896133,-0.8998668856740971,-13.236153855497788
27,-0.16059325661704776,-1.7042135954962243,-1.73041034346451,1.2703816777334282,1.2423273929097365,0.1139643569444191,1.1017506990188952,0.4304468400155487,-2.745443335333452,-1.6150491451758406,-1.4313052382389206,-0.6053505162985716,-1.8507132607910413,-10.922324690261329
28,-1.90743983860242,-2.475590164320404,-0.6644303493354752,1.0215956347139938,0.9969976235494368,0.8938093362088795,1.8899046155384682,0.2075460961186537,-2.9763685950594048,-1.0040218471235725,-1.8665515786422358,-0.08728107722869587,-2.4750705571462355,-7.438137572308632
29,-3.247615787350494,-2.958323314436475,0.6018017621959417,0.761481812043938,0.7247391230772605,1.5750719600589964,2.5412668808680787,-0.05841151540544064,-2.8872919847823435,-0.17164144298674697,-2.015040256188819,0.5016800087268195,-2.7006730241263885,-3.193808173993878
30,-4.046460792233132,-3.084673981613064,2.018693396922662,0.5255726172649673,0.46129494891957756,2.1140510173881077,3.0263731259876048,-0.3460911667817565,-2.467800490257996,0.8257310095070237,-1.8473754387814705,1.12358805275501,-2.5096816825857853,1.32206078655432
31,-4.244201536759557,-2.830543249134334,3.4994286457622956,0.3395209295351362,0.2374256526705015,2.483957010728397,3.3277524647185204,-0.6291509739785334,-1.7439459927267775,1.904063810124958,-1.3764734608740874,1.7272088120108895,-1.939869174714528,5.601431358619938
32,-3.8605093161986423,-2.2179608388743115,4.925638465191282,0.21675634904705185,0.07489294183546025,2.674852330232078,3.439132473900982,-0.8791176522981403,-0.7766670813649974,2.960831639893766,-0.6558400497269368,2.25343751243036,-1.0787303633289946,9.176563339781932
33,-2.9890463827391778,-1.3122211172568563,6.158743422298325,0.15795023100746486,-0.016359843265532945,2.691787830380052,3.3640479269304127,-1.0687826982131825,0.34373804251847695,3.8865701072795664,0.22714453981294108,2.6424481992640003,-0.051448235733404936,11.673099943017922
34,-1.7830014277533421,-0.21408653179588624,7.055743056363252,0.1522086645155833,-0.0394204468070344,2.5516661947275243,3.1141989255374836,-1.1756713066260396,1.5065578236577004,4.577372035939434,1.1620463445287006,2.841648557189064,0.9956753301435448,12.850229463504014
35,-0.43363838596569954,0.9520382390973671,7.487558984296092,0.17971756684038603,-0.009791240641198943,2.279426259475166,2.7078549972410655,-1.185101778680584,2.5921315918416123,4.946899340872906,2.028996916201373,2.813404057410849,1.9142466535492215,12.623578673053101
36,0.8553549213557329,2.052647304560672,7.357591079174128,0.21541456841783138,0.047045752136910896,1.9041291986309732,2.1685178173927278,-1.0923897991543743,3.4846387528348326,4.936635510266749,2.7135219591965765,2.541502008529906,2.5729493691748444,11.068871343295381
37,1.894496748654073,2.9607652133178974,6.617970847388226,0.23316884152864079,0.09961859775296572,1.4554584625019529,1.5239474278639225,-0.9038568082803717,4.084835918082983,4.523341135329185,3.120858905338042,2.0354379358432553,2.8745356059441947,8.406843100755511
38,2.5328334593286597,3.5708784198791164,5.281130288415238,0.2099188728943566,0.11550897898999166,0.9610354441400701,0.8055377515366383,-0.6364605056253824,4.321315308862295,3.7229596592847507,3.188073315270859,1.331813394733778,2.7685536553936454,4.972116594213091
39,2.6769859968340204,3.811400676648274,3.4247586916181887,0.1292510570984128,0.06676747297087975,0.44480851769444174,0.04791338430160571,-0.3160549269115281,4.158961197370287,2.590536159200005,2.8924887250761433,0.4924298503325088,2.258195817668657,1.1704629905769566
40,2.302629506873936,3.6531515241608674,1.1889646116346284,-0.016006438427788056,-0.06507219246806902,-0.07340107251285738,-0.711470184499438,0.025520864965504,3.603543753672231,1.216057483757514,2.255326210345532,-0.4009622684458472,1.4003284776534723,-2.5700437986450315
41,1.4570739368147254,3.11278461981427,-1.2345816386987767,-0.2224633410703795,-0.28513326156892044,-0.5773049429185211,-1.432988574087246,0.3541609524433966,2.701800566746774,-0.28350260290834045,1.3399887076972783,-1.2548739324123344,0.2985956101152627,-5.848093343639204
42,0.252736606236174,2.250721997993258,-3.62069781625345,-0.4762466468693673,-0.5831117954117209,-1.0527979573922566,-2.0760289552739173,0.637537219422963,1.5368801950780138,-1.7752591462790916,0.2450714251681587,-1.9744347008992946,-0.9096258883788682,-8.332839097363298
43,-1.1475613998385015,1.1638448305023732,-5.734103500514284,-0.7544379808487387,-0.9333599572171967,-1.4862882774377422,-2.600870000369935,0.8489396897568993,0.21959509918046555,-3.1235712809727154,-0.9071453570405836,-2.4747239649979087,-2.0708138206707054,-9.797548929115214
44,-2.5515366478177204,-0.026143949781212313,-7.355564825386036,-1.0276733823159083,-1.2972326865302601,-1.8632073225138666,-2.9713055014268144,0.9704040574092996,-1.1235321052568301,-4.203949164120035,-1.985359538926436,-2.6916793134618135,-3.0351852902170924,-10.139896786430093
45,-3.761945214806933,-1.1872341907188395,-8.307652245081357,-1.2635867845283684,-1.6274753950947265,-2.1671674299176806,-3.157876526247145,0.9947114022572277,-2.3640298537525735,-4.916236064929526,-2.865267171835251,-2.5911485661361864,-3.6762851265639105,-9.387263863909768
46,-4.601585705740657,-2.1927146729434734,-8.476904137580137,-1.4306968283680352,-1.874136251642154,-2.3801042779578268,-3.1413873023053123,0.9259982217328355,-3.3854160396505844,-5.195613691061497,-3.4449405090553533,-2.174820727680371,-3.9076940890365734,-7.687198130088913
47,-4.935750263295617,-2.935983514944535,-7.8295124616330165,-1.5022991490630484,-1.991257832442205,-2.483533749339846,-2.9162181753818777,0.7789057976127062,-4.095666725825101,-5.020177243237577,-3.657630547670436,-1.4821219431089567,-3.6946398681481663,-5.284856062677265
48,-4.689440366480752,-3.342801102816228,-6.418343661799475,-1.459929809659549,-1.943470035152085,-2.4608091204661333,-2.4928522277177962,0.5763976613054587,-4.4367623507813185,-4.414167765734661,-3.4803709750760152,-0.5876401066962038,-3.0589614889331287,-2.490627718959888
49,-3.8573344440288393,-3.3795475916139526,-4.380095066536952,-1.296006804491594,-1.7115878042961143,-2.3000338321501568,-1.8990297433487837,0.34655355765415063,-4.390229963901701,-3.446383277061977,-2.9372665846587034,0.4058243137582752,-2.076745096739841,0.3579222004247664
50,-2.5053766154469095,-3.0565272770903937,-1.922547985782945,-1.015333972237139,-1.2964186444660617,-1.9971146859144464,-1.1790520129065156,0.11878421109351366,-3.9780935956091183,-2.2237654268790394,-2.0969846365731493,1.3779624825549406,-0.8688934793628176,2.9352612865683443
51,-0.7638470244802119,-2.4259489828625758,0.6969223203455962,-0.6352630469459406,-0.7201967300938885,-1.558365093624799,-0.3909704275542608,-0.08001415966062933,-3.25919565870062,-0.8806359152652293,-1.0646590034061152,2.204345701341578,0.41420984293282553,4.963842130896386
52,1.1872353509421867,-1.5748468420388202,3.1993229336361804,-0.18444888960127082,-0.02535818392505383,-1.002104238317133,0.39830374008419855,-0.22884453867996635,-2.3213959612313046,0.4354876066037253,0.030908661301031537,2.7710841841022305,1.6120340027486741,6.243010688823849
53,3.1386437118517136,-0.6138222369620222,5.315385503349788,0.29971154383974363,0.7292823926771195,-0.3588393704352575,1.1195902294035351,-0.31508405219534513,-1.270632992220745,1.5801544983069142,1.0532768667776686,2.9891325534575484,2.5748079013587755,6.6680607711055355
54,4.87599465618041,0.33698934713180784,6.816634294518176,0.774711461029426,1.474547684340629,0.3301626817918798,1.7090219416982961,-0.33573552881168994,-0.21819286959440637,2.4286482678409764,1.8757049218485857,2.8065606296944967,3.1833468421640245,6.237836642627957
55,6.204503676036314,1.162965713011471,7.542441166308071,1.1972592261415727,2.1383998478491337,1.0158547418386474,2.115653439693215,-0.2973196054926156,0.7322677886907915,2.891182577110503,2.3976516583356062,2.2172182031394176,3.3652272850198206,5.050584366464748
56,6.9715496741278296,1.769161612228687,7.4196822553193815,1.527823684077419,2.654012597370907,1.6456376966343056,2.308007492823763,-0.21446430006196948,1.4963844598308962,2.9247403916004724,2.558290552578973,1.2645129280289122,3.105133228501047,3.289001835923716
57,7.084406945563575,2.0917963064763287,6.472395378774269,1.7348869051092073,2.9674060105351376,2.1683494272561696,2.2785171656830534,-0.10742860830598158,2.018048191642146,2.539891150270304,2.3451866374762664,0.03948795715169114,2.4478706558990546,1.1965169780614182
58,6.521063284442071,2.1056108153289284,4.819976365082846,1.7984121340086165,3.043682423980746,2.5394196182571367,2.0450440491934536,0.0010629793137047615,2.2746302848650886,1.801382135943274,1.7968280743925156,-1.3269990527616857,1.4934307350208742,-0.952360294796533
59,5.332849569577691,1.8261725003565392,2.663822603799855,1.7121172304080292,2.871080315955774,2.725578518004466,1.6490309883060936,0.08921480299685397,2.2778985543153913,0.8219762409966106,0.9984581666571319,-2.6774883447084536,0.38448390954678174,-2.88427160328435
60,3.63857170709487,1.3068662402481899,0.26377200662001105,1.484280235665779,2.4623507572334016,2.708570493435806,1.150330198194915,0.13930509990916,2.070591394111159,-0.25016417792332385,0.07152156691408917,-3.845298104422163,-0.7123082420379206,-4.358334721349592
61,1.610851203837736,0.6310172700171798,-2.0929848454132913,1.1369772126185023,1.8533164796424648,2.487447514713342,0.6192638897210194,0.14015242244475806,1.7191510632549247,-1.2493680897640773,-0.8420921517102249,-4.674215899958565,-1.6288935002580929,-5.193245028394802
62,-0.5436767904024941,-0.09975800512875349,-4.1267995137529265,0.703839758064081,1.0988434853980327,2.0791810719202926,0.12694172785367944,0.08858220599649272,1.3035875830442119,-2.0136359056586266,-1.5990745585013353,-5.038194910828516,-2.219435464096478,-5.287325104234208
63,-2.607912194648627,-0.779376849494239,-5.599944564947712,0.22659416427310636,0.2667827712464641,1.5175114548920738,-0.2648031145267953,-0.010276824112564297,0.9057946636358188,-2.4065227062659225,-2.074541576329372,-4.858564685197901,-2.381737395952816,-4.629440535489362
64,-4.378740212328078,-1.311419961424488,-6.346093136057813,-0.249218440899242,-0.5693226021098965,0.8501318463658765,-0.5123545045450145,-0.14386693306515344,0.5978293837728207,-2.3368555340057773,-2.1800355181706292,-4.1164047802154355,-2.0734365117902755,-3.2996484521955005
65,-5.689446434035302,-1.6216832428480592,-6.291033316308782,-0.6788592487663825,-1.3378516436768766,0.13446668174970863,-0.5967137332889244,-0.294083797368039,0.4316759662923788,-1.773521287848386,-1.8771772324009168,-2.858203127275736,-1.3204987093538603,-1.4595196976558615
66,-6.427437006350814,-1.6675130659602415,-5.461801250051959,-1.0228447920838697,-1.9761375577474163,-0.5675610844751374,-0.5262625950263086,-0.4398712953789312,0.43183820681473395,-0.7530665658696993,-1.1849574166866614,-1.1936892480431909,-0.21650024350869157,0.6668183640396983
67,-6.545211080079959,-1.44274770389788,-3.9828746591096937,-1.2507748956911673,-2.4361440432744788,-1.195278517013984,-0.3353056650802713,-0.5601471734975767,0.5917616143976484,0.621297397483848,-0.17944701962316895,0.7142956988723165,1.0875982347269662,2.8188446862532968
68,-6.063392400521608,-0.9777016480925015,-2.059748138391049,-1.3441645061378156,-2.688235180730341,-1.6949727119535618,-0.07844542724686936,-0.6366495223036825,0.8746105987322683,2.1895986402986924,1.0143047286570965,2.666983146923662,2.402160555536558,4.73010892340829
69,-5.06563163452317,-0.3343147133845125,0.048108592390800835,-1.2980314221310025,-2.7227675188182086,-2.024997113251656,0.1784895806495066,-0.6563231071337008,1.2183709403639056,3.7530409888546616,2.23735577883447,4.4520301370276405,3.523807127936184,6.159563151437042
70,-3.6862147564322223,0.4027495486079385,2.0614555378039023,-1.1211299334398264,-2.5495234289225865,-2.1597510518388665,0.3696529319326669,-0.6129439539119332,1.5446792608656703,5.09797183919838,3.317123537744289,5.868389400215402,4.263341972984693,6.920169652698396
71,-2.0921235679548156,1.1377263273406004,3.7181742624263916,-0.8348565551228201,-2.1952624294327734,-2.0921056426576294,0.44080016241739245,-0.5077972294746153,1.7702706473186065,6.022978400549304,4.090215288903839,6.750603987565136,4.472896911972953,6.901440259198331
72,-0.46196885462016674,1.7764173228765776,4.807932559259693,-0.47097568479589436,-1.699857207246711,-1.8339961941210614,0.3594363725677263,-0.3493606163983582,1.819551053403204,6.365666082525533,4.424811024584449,6.989394587623021,4.068484467608493,6.083199867402931
73,1.0354412137484565,2.238137006864135,5.19993399844853,-0.06841189962237715,-1.1115853160389502,-1.415090894668896,0.1217436525117855,-0.1520835263983777,1.6365986889827056,6.025578937440194,4.239545732872083,6.5457952479493535,3.044667946062428,4.538838529141357
74,2.2601735186478593,2.4653478301437186,4.859943989198003,0.3305727018738996,-0.48216564879653645,-0.8796631082351573,-0.24503410562030806,0.0655284261476887,1.1949134248214932,4.980108635993472,3.516238956156586,5.456872391665745,1.47906804659574,2.427526420222504
75,3.1155679576319186,2.4298058830973566,3.8542107100947556,0.6844552258345293,0.13792746469007633,-0.2820151585642309,-0.6854090410752041,0.2832310642490165,0.5034728522794729,3.291064247637479,2.304604617761266,3.8321358427019723,-0.47420478157880935,-0.023820547976877663
76,3.5563567447517177,2.134606917733649,2.339683187731725,0.956409405449013,0.7034522668701061,0.3190117893496817,-1.1235214834675156,0.4814319419072223,-0.39190237320026017,1.1007359277503899,0.7181409653382449,1.8409740759756805,-2.6015716745738304,-2.546779850242275
77,3.5898046179252554,1.6121473818433687,0.5418217418843978,1.1177877307664912,1.1774152967473297,0.8657946719391219,-1.475081167870541,0.6433362847945843,-1.4122683010879724,-1.3823651980025666,-1.0784007002519282,-0.3073514890228827,-4.6553741281800765,-4.86278422146334
78,3.2701327678447587,0.9185911042153735,-1.2769719487925733,1.1508180681100024,1.5329928336259249,1.307295080315332,-1.6616571373105578,0.7565884789106645,-2.4540644529635482,-3.9065424143662995,-2.8884129093739546,-2.3886083785803613,-6.384362534582496,-6.715846304797268
79,2.6873757929959314,0.12587127143903545,-2.8539560657404515,1.0502757370488414,1.7543708401637823,1.6034736600933512,-1.6250886286847923,0.8142388209043383,-3.401420202345584,-6.2059729684452405,-4.507192975904156,-4.190177197641812,-7.565293230086664,-7.902663372826511
80,1.9525105775465914,-0.6874955933510767,-3.9626111744532704,0.8239840680999603,1.8366189236206667,1.7283687229815792,-1.3396093388611887,0.8149724307085092,-4.140693708422618,-8.032171629238702,-5.74696864828073,-5.535876406735456,-8.031477680298291,-8.296391380081735
81,1.1811001154060725,-1.4454690404313315,-4.44408060646994,0.49210264069820325,1.784780800627936,1.671674648001932,-0.8194791659475006,0.7626453382328957,-4.575304448896763,-9.18383617224709,-6.459923954964085,-6.305835190881328,-7.694536304782565,-7.861122974361178
82,0.4777672710277764,-2.0822597631288255,-4.229107765341269,0.0852733863865993,1.6123974382787856,1.4388669841674924,-0.12049785538439635,0.6652661228731145,-4.638822327724305,-9.531191950007319,-6.55624817710377,-6.44891114020023,-6.55652623995888,-6.65524241990256
83,-0.07644625991070256,-2.547975077028722,-3.3474157687314685,-0.3582003684742064,1.3396839224310906,1.0500815191441786,0.6653301513297682,0.53362641432178,-4.304472225701697,-9.031630746013025,-6.0149240960426855,-5.986178962492406,-4.710902524807704,-4.823227896510248
84,-0.43232405628023163,-2.811698101140171,-1.9232423009512434,-0.79587862201115,0.9915623917952402,0.5380392807578988,1.4216236889328906,0.37981084581880553,-3.5896762743553725,-7.734572339568082,-4.885965868165306,-5.005240254006264,-2.3322528642872014,-2.5769541593289262
85,-0.5755479459032056,-2.861996305110092,-0.15770173727376452,-1.1850867286336373,0.595717190366664,-0.054681344267265265,2.0244808564029495,0.21580490866073967,-2.554921738925834,-5.774911629447065,-3.2839662102695426,-3.646350901457796,0.3437884273669896,-0.16892207196440404
86,-0.524637483936052,-2.7052392717172338,1.6994847575915606,-1.486835579892719,0.18079154834797484,-0.6787690925565653,2.361958612103433,0.05237381579048924,-1.297017541953011,-3.3559494425258265,-1.373951930196548,-2.0824559994341514,3.0477920040247617,2.139083944126699
87,-0.3245486462386559,-2.362382551067849,3.3848476343920235,-1.669401034994127,-0.2252048441959161,-1.2815126713304177,2.353177283558947,-0.1016812212202796,0.06241935354960823,-0.7241248650074229,0.6484828453137812,-0.4960057789784839,5.507428297353126,4.107794596847136
88,-0.03730303607242266,-1.8650066264904628,4.657660514723435,-1.711237110724667,-0.5962529540075041,-1.8102174304039083,1.963925422960977,-0.23985693409845746,1.3917320485552505,1.8610311209573451,2.580122541539229,0.9442118483112774,7.4781073250807815,5.5485427229688415
89,0.26866612198914824,-1.2513747241270516,5.33292498384213,-1.6029617475313338,-0.9094551232783882,-2.215624472446504,1.2160270384412115,-0.3579081400106284,2.565255526942101,4.157677263279156,4.23321230028152,2.1030932913003215,8.769616062474748,6.344004688431231
90,0.5287523334535624,-0.5631044461494527,5.30627511890731,-1.3482442366434833,-1.14596710962318,-2.4552679061631046,0.1885884268107936,-0.45352301756445845,3.478420013282683,5.969085466256819,5.455830995314171,2.8935180061561123,9.265645858754723,6.459015374330508
91,0.6905714391204537,0.15722434919385533,4.567453393443477,-0.9635315343569226,-1.291763973338917,-2.4966965579893725,-0.9895591143187739,-0.5258338640523952,4.0598477966926625,7.164148852027947,6.147174639178927,3.2832509547596596,8.934127427299627,5.940298695293659
92,0.7195709143082077,0.8675177605371873,3.200700750392733,-0.4766649591216448,-1.3382653460944025,-2.3204517431580602,-2.1555468516327188,-0.5748903166587088,4.2787911476192955,7.688463720874264,6.2661265227031056,3.2938939054516614,7.8275445261967596,4.905534449153138
93,0.6014935813763497,1.5269473466481562,1.372299121835763,0.07545548769312031,-1.2828292704050386,-1.9226362477695291,-3.134311794618368,-0.601204480136362,4.146939382135506,7.5648748973031,5.83242616716339,2.992492798146842,6.073695918068766,3.5236740670877937
94,0.3418993116248157,2.096518019622631,-0.692682894311502,0.6499196116991245,-1.129099534597003,-1.3168397710983168,-3.7635856132714918,-0.6054414531023269,3.714455040510989,6.883914385018004,4.920730171228148,2.477441918235085,3.858540170791518,1.9895957574608638
95,-0.03661556255796092,2.5399189283262555,-2.740928227456061,1.2012810899743953,-0.8871603879636822,-0.5351178753196695,-3.918418686242684,-0.588284000029525,3.0609515920940247,5.786005705331634,3.648749019804475,1.8610803836923497,1.4036407224532548,0.4968823751444579
96,-0.49862059546858345,2.8250388633970114,-4.524275004857615,1.6851601725925969,-0.573419533363972,0.37232080794625233,-3.5315665331308352,-0.5504569536215023,2.2828620371921873,4.438425832110727,2.1613247001134708,1.2517455213731934,-1.058776116095587,-0.7873812165339727
97,-1.0005710756841886,2.9262933249836363,-5.831334326091629,2.061699907642144,-0.2101162692240553,1.3390496480942462,-2.60656506777845,-0.4928642694217357,1.479151401389791,3.0106413169239423,0.6126966690904604,0.7379832864514544,-3.310078846076515,-1.7423659343818223
98,-1.4953076189611687,2.8276103237607098,-6.513117835324941,2.2986415773827975,0.17565004313191382,2.2862127913881185,-1.2213148861587577,-0.41677568995166153,0.7375192774043664,1.651680464695018,-0.8507484200498454,0.37714024863939166,-5.166088222750995,-2.305352572475833
99,-1.9358879205609845,2.525627353245752,-6.499500147891421,2.373832489460114,0.5534456087016028,3.1282058340985044,0.47866501509235637,-0.32400275586662647,0.12309928513561633,0.47268770605285115,-2.105212683133943,0.18976607362097966,-6.49249583717954,-2.474512888241132
100,-2.2786289410825225,2.032436098019533,-5.804771032852659,2.277024685084266,0.8915912910860513,3.7800149287553073,2.2966703906568564,-0.21702201769971824,-0.3287762037294167,-0.463159835124022,-3.060187010447564,0.16028168607232346,-7.213669016024265,-2.3028436933776826
101,-2.4855112832761934,1.3771341244223962,-4.522129798925678,2.010862071650346,1.1597311434582913,4.16567100565777,4.008884672348936,-0.09902844468510168,-0.6148378463983554,-1.1424361529412959,-3.6642525567600654,0.2433791382126237,-7.314574830057565,-1.8847624185787433
102,-2.52625042394132,0.6055347375519384,-2.8084953814536133,1.5909864364885262,1.3316900105768823,4.226984749256352,5.39292869087544,0.026075756898846534,-0.7610340784604223,-1.5953276829609542,-3.905828088280067,0.3747682179216558,-6.836382885886064,-1.3378549153086032
103,-2.380339239375382,-0.22236082166491353,-0.8622342114617378,1.045224814853473,1.3883318654228967,3.9315172730788226,6.257057012019945,0.15373986310794283,-0.8152151684714388,-1.8831331536749045,-3.809363090893059,0.4842940118987437,-5.866959175616005,-0.7828164491033868
104,-2.0392220337170355,-1.037155700867163,1.1028133037604795,0.4118588433380877,1.3200629920607678,3.278664352613177,6.466044558801935,0.2788547854273313,-0.8366336936732048,-2.0818448663711764,-3.4279961033417066,0.5091960141725419,-4.527884878972516,-0.32468681450058884
105,-1.508517893733412,-1.766726251035214,2.8833787189813402,-0.26297311492564607,1.1286055317254535,2.30282327983273,5.960234904639039,0.39586957146376456,-0.8839880570364461,-2.264717594397087,-2.8340228777142586,0.4053862906894371,-2.959804735907298,-0.03807242219842124
106,-0.8099423010541013,-2.3439993056029964,4.309533371875586,-0.9286259254176052,0.8277087461511983,1.072878564356059,4.76513585901187,0.4989443013344059,-1.0039086366537588,-2.486728427827983,-2.1086253427936312,0.1550565198405343,-1.3078415852196872,0.04173539162412006
107,0.017637103078739492,-2.714801345053491,5.261548316329907,-1.5338587083211024,0.4425685658364531,-0.3123384242487462,2.9902124319071173,0.5821619793975366,-1.2216812415702052,-2.7733866520653985,-1.3322100592205075,-0.23040612068818217,0.2914539475807997,-0.0791466571718076
108,0.9186589290626119,-2.8446415049285063,5.6792368118933805,-2.031036112189719,0.007880473250210539,-1.7324434860027575,0.8169615105131725,0.6398259420552945,-1.535647315496209,-3.1155557186070486,-0.5764316760262089,-0.7124264065104318,1.7205558909169998,-0.357699607803265
109,1.8234002303488075,-2.723379197642675,5.563318402656025,-2.380276912564706,-0.43536240237372065,-3.0570322877782186,-1.522237684809697,0.6668601336400873,-1.9161700301769833,-3.4709341833772505,0.10140976137606748,-1.2316268043755956,2.888226004426006,-0.7239351267826946
110,2.6528756358437087,-2.3669954193090805,4.9694475742519755,-2.55315771136463,-0.8440220289891155,-4.15915163210329,-3.771801865949691,0.6593065440870917,-2.3093838578288914,-3.7717679354037448,0.6613389942322584,-1.7173967658448845,3.733457477098757,-1.094343085287491
111,3.3259884155045025,-1.8160941703938527,3.996454670276968,-2.535569528156187,-1.1774521136887202,-4.929162630358197,-5.683616799783323,0.6148817886642335,-2.645238388561999,-3.9373924887354734,1.0811860120809347,-2.099020658136519,4.226355414336954,-1.3865385635538
112,3.7683414307067986,-1.1312428381683948,2.7709365610549552,-2.3293675789915915,-1.4020513370701233,-5.287303485867513,-7.04680278077725,0.5335222122812269,-2.8486956378970296,-3.8894717057844383,1.3550313526530557,-2.316584245916536,4.366474618730617,-1.5327694629897188
113,3.9216690065999487,-0.38573932059054644,1.4305524227045787,-1.9525537030991096,-1.4951489392897894,-5.193343101125281,-7.712812921308657,0.4178239435900298,-2.852430139271368,-3.5674087450002916,1.490254984733251,-2.3300096311824547,4.179259810955754,-1.490283568268741
114,3.7525384258760583,0.3432112465555269,0.1082357714737012,-1.4378795101624573,-1.4477078590042542,-4.65202025508042,-7.612732115356093,0.2732786163671135,-2.6090873566508743,-2.941404715513884,1.5038748822172803,-2.1249460253787373,3.711231846828919,-1.2471781158533843
115,3.258876137246661,0.9836838622581093,-1.080903715970271,-0.8299391124666659,-1.2654747488522147,-3.713449186839271,-6.764668887272182,0.10822016053013601,-2.1011347797631443,-2.0210224791669846,1.4187905102535956,-1.7147908974079695,3.0244725240698234,-0.8231486229022068
116,2.4730422641885403,1.4773097551011252,-2.048837960441069,-0.18100798287974973,-0.9684030396742712,-2.468284156465847,-5.270419351611736,-0.0665689378671214,-1.3466187681579507,-0.8578148592959223,1.2603964506661283,-1.1387320655819302,2.1908289268698242,-0.26537888620410294
117,1.4606002694159794,1.7855207305553953,-2.739570798326884,0.4539508947043316,-0.5883962264532882,-1.038099875837611,-3.301965033307125,-0.23859819867611717,-0.39970207193556356,0.45851128875165786,1.0538500580675494,-0.45628388354210203,1.2861354887671232,0.3594642968962293
118,0.3145486229927281,1.8929734817581543,-3.12994088679058,1.0225780834220126,-0.165633900223902,0.43792414564964743,-1.0796633616238935,-0.39471238353982585,0.6543672556387439,1.8099406406317422,0.8221072685858812,0.2607442490321022,0.3846749204687496,0.9756571965049027
119,-0.8545021671459238,1.807814416225183,-3.226919825569577,1.4801236058565075,0.25607350130364603,1.8184191036907087,1.1549687102937751,-0.5223442509686901,1.7093302006292306,3.0646403318780364,0.5847095764903149,0.9376153952815969,-0.44592135148319856,1.509550982441537
120,-1.9310365392211382,1.5589282622466134,-3.062342075465856,1.793611786555461,0.6343258413334686,2.9754411228910267,3.168326386517084,-0.6108421544483181,2.6516771697120918,4.094022882077352,0.3572207345175076,1.506037109043688,-1.1491133936343312,1.8997318058740102
121,-2.8085246700457556,1.1907448167283712,-2.686108426628983,1.944705675660628,0.9329380393003165,3.808336195871947,4.761914764372945,-0.6527098110322584,3.376091168408613,4.789898983878675,0.15116847215424056,1.9122931928855906,-1.6829862396742805,2.1048126426155016
122,-3.402529958171787,0.7564882846362347,-2.158853565092959,1.93096679670479,1.1259032129725168,4.254133692386675,5.794259901017908,-0.6445868421681125,3.8002285258326944,5.079192896966432,-0.025666092135634547,2.1231334346651,-2.022623527015688,2.107920195478653
123,-3.661119532717736,0.3109021964298752,-1.544909130289435,1.7653991971039613,1.2000195291909523,4.293214313335361,6.194887022932648,-0.5878138233406477,3.876525189240085,4.934027309520383,-0.16876098728947256,2.1287734926138477,-2.16110505609712,1.9174940880144804
124,-3.571034689032119,-0.09653570378923682,-0.9061757565431513,1.4743720574421817,1.1558661042169935,3.9496390452231025,5.968832335860325,-0.4884665941868318,3.5991361973896434,4.375658774267418,-0.2762964513815299,1.9427702286224606,-2.1089995453998416,1.5645741375379218
125,-3.1587038657720448,-0.42705459114678757,-0.2972823343870854,1.0942055531124752,1.0070380393058282,3.2862442182586724,5.1914619591858635,-0.3568093558849388,3.004866868263461,3.4716658766189505,-0.3486249524074094,1.5989584392029725,-1.8923552593423092,1.0972359739238493
126,-2.4859568151300313,-0.6560940144239062,0.2378082438079674,0.6668562329872996,0.7777889016247481,2.3952996131665794,3.9946908328641166,-0.20619789313479195,2.1679172766899377,2.3268196196193727,-0.3878227020496047,1.1460136561533059,-1.5493467594546697,0.5731851967115875
127,-1.6410983788310027,-0.7745912797610361,0.6677627321655919,0.2352320320553812,0.4994465171517369,1.3860924896796156,2.546836736032888,-0.05155224705966865,1.189269231566084,1.0690299635317793,-0.39733159794676104,0.6404968618824637,-1.125890336643313,0.05169622382386133
