,AF3,F7,F3,FC5,T7,P7,O1,O2,P8,T8,FC6,F4,F8,AF4
0,-0.42886857019319163,-0.3537769089061464,-0.36330405147721245,-0.4687898671692214,-0.6422989399288689,-0.9545045769785419,-0.6753776161601309,0.03502053350865771,-0.34461966244130765,-0.7530316276271151,0.059269031706003096,-0.9106287892357725,-0.48803647373095954,-1.1537349423905878
1,-0.9495604392642569,-0.5555454485136857,-0.23905995265759247,0.03314101181964231,0.5501315368888263,0.1221367823690612,0.06372241139702828,-0.19738928180806006,1.2001871639903492,0.8128439583411519,-1.029322445485714,-2.304119557025524,-0.8121713204047968,-1.631943560963834
2,-1.3867325561905177,-0.7478490819586123,-0.08241064292329833,0.49895618094457317,1.604952188935316,1.130753652016653,0.7827363885157554,-0.40715888672086664,2.637677202511648,2.262303161652771,-1.9982835081874488,-3.4651121036802066,-1.0166771449622651,-1.9613233682329572
3,-1.6844161569391776,-0.9283628571749507,0.1109421749507022,0.8772130743428236,2.3900350147808114,1.9896025363455694,1.4218586992518056,-0.5774290983684329,3.827278324140627,3.459508114209586,-2.774700151472867,-4.255814928321477,-1.0451411088432803,-2.106380711544296
4,-1.801816497269724,-1.0907328889679075,0.341771169642481,1.1307595594268844,2.8139133820395905,2.6409364827566706,1.9340846543975234,-0.6951570593381597,4.661462232764775,4.304191714701073,-3.3040736630233933,-4.582475049917289,-0.8662671423162794,-2.0492738551782446
5,-1.7180681245356115,-1.224076869212655,0.6064782899591742,1.2415443321810973,2.8376714601800552,3.055977631768202,2.289394693069714,-0.7521927104392976,5.07705630816979,4.742097668772731,-3.5542046723360206,-4.406063660332964,-0.47917132280378966,-1.7912901158146657
6,-1.4346971959559263,-1.313579446824319,0.8964411961962754,1.212404093793843,2.4791796081788795,3.2354331455175607,2.476348780396564,-0.7459194696620259,5.059993809560484,4.768632774368657,-3.517107013414881,-3.746135582838455,0.08538636345978388,-1.3525545907998626
7,-0.9755054537290324,-1.3421869473065648,1.1976896805676573,1.065633051106184,1.8091621139972873,3.205692383181246,2.501059220086027,-0.679398307673641,4.643199722788051,4.425494023680265,-3.2088435216977724,-2.677484650458693,0.7680853925842535,-0.7700062897312578
8,-0.3838959900461435,-1.293213091606027,1.4910740919326515,0.8386522556592406,0.9397866065103072,3.0115153631128027,2.383897238082742,-0.5609948006238238,3.898368959687581,3.7911079407799564,-2.66734153663891,-1.3201431764786793,1.488133650625959,-0.09382172531269707
9,0.2820313090046736,-1.1534928037682082,1.7530736825317383,0.5775426407440785,0.00755508794385131,2.7065598688344594,2.154610320794909,-0.4035130414763064,2.9232953991981967,2.9666364930101734,-1.9484054489922593,0.17588485512956423,2.1535115548265353,0.6173989354053023
10,0.9560173798815655,-0.9165905489843834,1.9573367158132213,0.32951889115134164,-0.8469098917451066,2.343412698832088,1.8467393342643204,-0.2229056063274931,1.827008107924501,2.0599209078992056,-1.120283901693528,1.6491236143261978,2.6730777062048547,1.3022516371545123
11,1.5710212906562069,-0.5855086050051747,2.076948262492815,0.1355527120140463,-1.4991778616691274,1.9648325048902948,1.4922928497495955,-0.03667292742661954,0.7151660990264592,1.1699535323427033,-0.25726416051792883,2.9459594829073743,2.9689574027101844,1.9024311938866005
12,2.066545913190119,-0.1743704297556118,2.0872943946529428,0.02428421364134864,-1.8584645894551106,1.597661637526608,1.1175434071137154,0.13789604935056862,-0.32207226223212276,0.37425363130183564,0.5671453837210592,3.9383611482113707,2.9875471703435856,2.3683338261335374
13,2.3950351869277853,0.29132056930792377,1.9692524047474438,0.008107053896269843,-1.879763990719688,1.2503602485954484,0.7405679210056006,0.2854634855093055,-1.2180976428357422,-0.27908091830144716,1.2868272547496962,4.537801785069319,2.7075968675067443,2.6637596137534536
14,2.5265952907111053,0.7760452061490967,1.7123163375074224,0.08192945827108145,-1.569043924920981,0.9144468428377568,0.3708063439105113,0.3941746851233371,-1.9330601858194207,-0.7737499449213415,1.8488333302597117,4.703738466285522,2.1441735570149802,2.7691602870067946
15,2.451521394832993,1.23721342075939,1.3171982502406874,0.22467269722346084,-0.9809583108059188,0.5694174805851971,0.01052600923307132,0.4568056460746402,-2.452410063694251,-1.1221416356121399,2.2177506085304897,4.445746075290188,1.3478355348898052,2.6829996146516715
16,2.1804096864242974,1.6294095137323001,0.7974513579548542,0.40314647101534423,-0.20964319885506513,0.19009022258752406,-0.3422732816680613,0.47138311544385586,-2.781756454562398,-1.357737384076057,2.378191267736491,3.8192509340611194,0.39898665969787017,2.420993826669974
17,1.741956508819774,1.9094562838705005,0.17974849193429948,0.5775996396255862,0.6258411030698983,-0.24510472321148355,-0.6902321261071512,0.4411914369112931,-2.9396035026536325,-1.5247223071383937,2.3351244980729158,2.9156529525634465,-0.6019451740599582,2.0132633960701627
18,1.1788439586898405,2.0416773585850145,-0.49739146453050775,0.7080289946715103,1.3991327255251107,-0.7465188613913982,-1.033111816872544,0.3741562513520252,-2.949749306756484,-1.6668547436068757,2.112001419930604,1.8483555103060565,-1.547250155531273,1.4997248015914069
19,0.5423413813244782,2.002676648940103,-1.1864272484251603,0.7602639354885449,1.9946090911064902,-1.3078432723629478,-1.365162045908822,0.2816784088926384,-2.834994161031804,-1.8176326873236766,1.7468914855891138,0.7367453364453399,-2.3358855895354256,0.9243396726550692
20,-0.1136144975675353,1.7849834395788735,-1.8349375922163913,0.7109363487727661,2.3232529355632745,-1.9038952942977216,-1.6739580140122134,0.17706874776205264,-2.6133447405927264,-1.9934227499571724,1.28711861668345,-0.30958861552259903,-2.8866872972109863,0.3290708494079844
21,-0.7380756085905231,1.3990317427689034,-2.3906365061511714,0.5506732003415906,2.334189526021009,-2.4921017956413016,-1.9409808364378125,0.07379310618737822,-2.2972315277985516,-2.190571599926599,0.7831168749947368,-1.204174801086622,-3.1489413699192745,-0.25147911060378797
22,-1.2877775401298004,0.8731395473585541,-2.806654769489186,0.2851695273215436,2.020477781083795,-3.0174796649417206,-2.143855423997434,-0.016233156115042977,-1.8955234187985166,-2.3867316362371898,0.2823708486326063,-1.8926746094741358,-3.108739431654701,-0.7937962384033648
23,-1.7303606636906477,0.25140081185316815,-3.046408794500115,-0.0658502934057277,1.418641447237932,-3.4202932988148835,-2.2598177465003313,-0.08406742379583572,-1.4174746385026498,-2.545854422385585,-0.17567979622747898,-2.356405155025526,-2.790119056653703,-1.2868040588824063
24,-2.04585777216349,-0.4103343381060115,-3.0874173289706976,-0.471459738773838,0.6023477914690648,-3.645097144364655,-2.2697261447505377,-0.12468739057799826,-0.8772993687425718,-2.625681677191386,-0.5630358265289239,-2.6100297345791286,-2.250753915248734,-1.7304688157273689
25,-2.226470540631909,-1.049974161249766,-2.9235771198530305,-0.8935939191763896,-0.32856020902907135,-3.6496254047653833,-2.161811718030847,-0.137345488955394,-0.29792239125160647,-2.5862010268678572,-0.8643919299931959,-2.694002881802934,-1.572796632945452,-2.1318082154192037
26,-2.27491893238151,-1.6055881032346537,-2.565642533991718,-1.2916841937492565,-1.2619054032710486,-3.4120112744621913,-1.9344057020173606,-0.12530345749100108,0.28737052650225975,-2.3974786186238815,-1.0761988076878577,-2.6632130948650943,-0.8502525191357289,-2.498998261015757
27,-2.201842257863995,-2.0219756923072043,-2.03992139173764,-1.6272008892320806,-2.087846766498342,-2.9351012961961995,-1.5970787011419085,-0.09501478055340956,0.8361920317019144,-2.0455148774286425,-1.2038929889188552,-2.5738979376229327,-0.1748335979731027,-2.834738578472143
28,-2.022826005951392,-2.256649578790839,-1.385445611160481,-1.8675435874396802,-2.7123703563079973,-2.247128349684184,-1.1699391709076123,-0.05490402107351534,1.3013640317613049,-1.5352251026970447,-1.2579894921083132,-2.471190613213984,0.3774978140099545,-3.1303135637674275
29,-1.755616062213122,-2.2845402843212446,-0.6500588982945864,-1.9888898900732976,-3.067909505033922,-1.3986331306895354,-0.6812058615298396,-0.013947177393834834,1.6376883244729923,-0.8902263243624444,-1.2499284039943275,-2.379535611751492,0.757188093249437,-3.361803271502513
30,-1.417973833557381,-2.1008728596112296,0.11403847002465649,-1.977817939879946,-3.1199329675219323,-0.45616866252942145,-0.16351656622899838,0.019722242443973997,1.8099431686093734,-0.14970613520447112,-1.1885863717630418,-2.2977010402407543,0.947293199830486,-3.4896294318855055
31,-1.026447877298544,-1.7218740431375186,0.8547431315203059,-1.8317173111560567,-2.8689885433690967,0.5061306716439272,0.35031203706368824,0.039973179847503496,1.8004657728398195,0.6368503804655616,-1.0782045954385695,-2.199303373313936,0.9642802615544741,-3.4620925634102138
32,-0.5961237257357018,-1.1832162684411258,1.5240371167389344,-1.5581636882614198,-2.3483490194108314,1.4156872720892093,0.8312595132971273,0.04344389313804959,1.6146109098399197,1.4159815989410818,-0.9181754997997156,-2.0387859723835797,0.853362276810735,-3.2228397294099853
33,-0.14120372012685142,-0.5363631288128948,2.0811899737536503,-1.1735336313549125,-1.61797667689589,2.2098186756569906,1.2570746317884263,0.029828333034485285,1.2826741326085873,2.1364384654493063,-0.7047302058958382,-1.76182499421502,0.6791824743955766,-2.7214185421036317
34,0.32389554964634343,0.15677633797408094,2.495014994156655,-0.7011716913949818,-0.7559285297580861,2.841974584025557,1.6137411636412213,0.0016760330649024835,0.857487174894009,2.7542091426175,-0.4341568204360202,-1.318344257906932,0.5134131183732152,-1.9253688465312255
35,0.783327024522496,0.8302743696805573,2.745160866437739,-0.1694013942914092,0.1514709568485683,3.285017025288929,1.8952619586562152,-0.03622274604547821,0.4077147284818722,3.2356807537989516,-0.10683552062042341,-0.6758401770848674,0.4213226038388234,-0.8318211588597537
36,1.2188748738253308,1.4209459248724123,2.822516365550169,0.3903915939523048,1.019363477703177,3.531279026416514,2.1019392675976496,-0.07773378463091019,0.007741297542137019,3.5586830245489525,0.26883521045629766,0.16937480525303522,0.4495175185573394,0.5235876472353248
37,1.6096136727161254,1.8746561719157515,2.7288569663514957,0.9454658458555002,1.7728512463045074,3.5897465976299467,2.2376284910410864,-0.11639134744337153,-0.2742414280408564,3.7116195539587604,0.6735881673293904,1.1851022294743097,0.6168663558876079,2.0624640547601345
38,1.9323616283053873,2.151453960190039,2.4758838175439144,1.4631823060630027,2.353419053753345,3.481210655283672,2.3066309653616823,-0.14635968966341012,-0.3879026621987746,3.691281145062504,1.0763428290293588,2.3018223216170983,0.9101017222546642,3.665503439920165
39,2.162986550039569,2.2289874907844642,2.0838139321575553,1.912269287665345,2.722833236487122,3.2325351618136318,2.3109396843949543,-0.16320616567838853,-0.310101465495355,3.500174790803827,1.4357009050593712,3.4174995379030717,1.2848658592921502,5.181035094333002
40,2.2784923913404915,2.1039140626267354,1.579683117832692,2.264015193822915,2.8644542418862002,2.8712408902678264,2.248460629723768,-0.16439653508126173,-0.05013246032328444,3.144241676524263,1.7040040293383818,4.408284470009777,1.6721232417748828,6.439877021759637
41,2.2596993211190552,1.791303300041943,0.9955183441981013,2.493530808050532,2.782235926335574,2.421419219412852,2.112627594959286,-0.14947776825766795,0.35017107428364813,2.6316721114605985,1.8336071578035418,5.143855011341035,1.9890364659931845,7.27508561568633
42,2.0942311439373262,1.3222981023115767,0.36651943102495643,2.5811893625361666,2.497928156605037,1.9016211443734055,1.8935529430029139,-0.11996511897087768,0.8216566232518709,1.9731975011033205,1.7845705950771118,5.505390913751574,2.152704848388001,7.544278986694676
43,1.7794394130494708,0.7404909412515247,-0.2706424997520169,2.5142666105266556,2.0471244931348793,1.3249000042787187,1.580560682673284,-0.07899110645452016,1.277674261030194,1.183826009428659,1.5326177370661371,5.403695315968571,2.0946954186235858,7.1515715678124545
44,1.3248302070287754,0.09756349081478272,-0.8793525212892993,2.288680101269501,1.4747984775312049,0.7007232415433909,1.165680205271213,-0.030798964366783723,1.6270230358107645,0.28557620879093315,1.0760105079401314,4.794832957185784,1.774116981326053,6.065898832593063
45,0.7535336889966876,-0.5512808258548223,-1.424412921039113,1.9105940584458625,0.8308692869739007,0.03810163012333141,0.6474806049558355,0.019830071161917377,1.788047857906064,-0.6895677213295435,0.4400053298877877,3.690871457233762,1.187126732741437,4.332704878200839
46,0.10238952518641264,-1.1516675234730407,-1.873311670857833,1.3975495751994054,0.1661709440741393,-0.6509214253219098,0.03452793153667123,0.06813523551908383,1.70174251445179,-1.6974370612203515,-0.3222110798246305,2.163868117997088,0.3712058943361481,2.076626080123204
47,-0.5796699760229683,-1.6539141091797593,-2.197517811857413,0.7787357420816661,-0.4709816248108934,-1.348297995024678,-0.6522317860174616,0.10985947268629245,1.341878922073379,-2.6811384933936435,-1.1327578962976408,0.3420785197365637,-0.5967518137851079,-0.5061207654661819
48,-1.2350683347390226,-2.0162888343002776,-2.373925875593056,0.09406136912373973,-1.037588304980986,-2.0282493311537975,-1.3787234356900178,0.14162036912816028,0.7206397502307826,-3.572911064531537,-1.8965127457305977,-1.601621932956413,-1.6086136906579587,-3.16556979826232
49,-1.8027394878664693,-2.2076626688784105,-2.386520058383804,-0.6081752712059676,-1.498174247454857,-2.657242918571487,-2.0989547157154136,0.1611545834595374,-0.11110246576016289,-4.298696345258909,-2.51215018961761,-3.4680415603728094,-2.5385815853554674,-5.62450415996023
50,-2.224574601456742,-2.2095984742035744,-2.2282274795722916,-1.2750061794964358,-1.8264941230214422,-3.1958026717486234,-2.7582274874929507,0.16743830081915667,-1.0689504511054342,-4.785229349078623,-2.8855025156087923,-5.054654411032492,-3.2604456489742284,-7.610699493735515
51,-2.4524706253530444,-2.0178932922728645,-1.9027959102611454,-1.8536329675239478,-2.0067752808782466,-3.6019586819214626,-3.2980888408705495,0.16069429101173321,-2.0449297590321835,-4.968933891858877,-2.9434914076698573,-6.180455261981699,-3.666148166513865,-8.890946587716778
52,-2.455076084208319,-1.6435049026636253,-1.4263923479052092,-2.29686469130105,-2.0344753441983814,-3.835872642859555,-3.662496911154652,0.1422974035442765,-2.9209173574707026,-4.805458601015766,-2.6466193110932625,-6.709465250181417,-3.6829473874276517,-9.302341595522584
53,-2.223227671824332,-1.1126910924485987,-0.8285100418628435,-2.568442893533802,-1.9164581246893098,-3.8649890469941695,-3.804477006524489,0.11458970665256367,-3.5837958918603277,-4.278397541124495,-1.9980309872749233,-6.5696677074537195,-3.286507636384269,-8.776397834078303
54,-1.7731212828426977,-0.46611797092075585,-0.151731261780074,-2.647463378785041,-1.670450895021264,-3.66897524073481,-3.692431487757881,0.08061835356330652,-3.940353724647608,-3.4056614364680353,-1.0474767674359955,-5.764602223587232,-2.507676875190356,-7.352241754299334
55,-1.1464806257528195,0.24330543685814868,0.5500482722101557,-2.5311661956498908,-1.3236587349682931,-3.2437266063896253,-3.315253483197371,0.04381524224852698,-3.9299723864381906,-2.2421340998625174,0.11089352855553006,-4.375707626529159,-1.43151643398166,-5.176450909042407
56,-0.40735994487319005,0.9540122697678884,1.215158287074408,-2.2355679825342607,-0.9104845197337428,-2.6038171867406104,-2.685484134278041,0.007646307181381886,-3.533403713578095,-0.8776622236191581,1.3471683592471733,-2.554683232706575,-0.1882302582193816,-2.488823559081871
57,0.3643039612613686,1.6007384100882618,1.7794141800497918,-1.7937229187593848,-0.4694264252270278,-1.7829554626613018,-1.8399451020278923,-0.02473356489943445,-2.7764110517618454,0.5699542183658436,2.510088640399881,-0.5064784424656444,1.0631429116675992,0.4046926118791721
58,1.0817639797960072,2.1205598256483436,2.182728686279065,-1.251766250978065,-0.0393757093984393,-0.8322416006164086,-0.837563325586768,-0.05078042355190656,-1.7276859680465448,1.9665552232270045,3.445683534786902,1.535161416185094,2.1562443148888084,3.168817970527307
59,1.6620736990901877,2.459441452136929,2.3763753090166584,-0.663253217724236,0.34431564728976954,0.1837046025501744,0.24554159191501188,-0.06878004593386977,-0.4911887037335321,3.1766119116100047,4.017826456574946,3.3365587402464816,2.94116023928755,5.4808928496858895
60,2.0368279323937255,2.5785196118555844,2.329943211379906,-0.0825925739681138,0.6535194141526839,1.1923931941211046,1.323257795761806,-0.07796106208000891,0.8061868160733306,4.079765140617349,4.127940010897784,4.693615207082651,3.3069598843006367,7.072426018970159
61,2.161500449003895,2.459240741702221,2.036897714002179,0.4414643303823211,0.8702492073601473,2.1202802161454852,2.308168753786704,-0.07849488636111596,2.0300536666578384,4.586626898348567,3.73097940158807,5.4579845043496835,3.19952300553464,7.764531160447888
62,2.0219589038498085,2.1065300890452923,1.51771428001948,0.8713129192857128,0.9883405070493342,2.8999436082990826,3.1206635355078083,-0.07139363448304237,3.0550275259521675,4.6514560512394025,2.8451428023363166,5.556254909268428,2.6317157471696433,7.49218882943207
63,1.637081000081937,1.5493705605614096,0.8197996323389986,1.1841547537117818,1.013560865125217,3.4767177302809755,3.69728511399954,-0.05833260458927035,3.780023119445005,4.279600430619175,1.5534830588694404,4.999365884049591,1.6840052642355983,6.313678683167779
64,1.05692922399176,0.8385090148605324,0.013828641440337519,1.373316189382869,0.9620414096279221,3.813922963645645,3.997194793751364,-0.04143207553176414,4.14022534530365,3.5282521534932156,-0.0033472509370975163,3.8807944694160557,0.49498769189262887,4.403523355662995
65,0.3565874105852358,0.04142275132313416,-0.8133472500105356,1.4471055345014305,0.8571959890816532,3.896004275343562,4.0058823821156695,-0.023032557072970954,4.114069289232556,2.5000119382931945,-1.642731630328741,2.363615389197702,-0.7571632079014801,2.029597560265461
66,-0.3735796090382407,-0.7648999480169577,-1.5685088536986302,1.4255021575607254,0.7255712701159948,3.7291883464603415,3.735656176608339,-0.005488988436699686,3.7242993363599135,1.3298575291788506,-3.1623533263623456,0.6581326043229389,-1.8798761499200036,-0.4826571982940896
67,-1.0399202684307571,-1.5024638543304203,-2.1633967707901314,1.3353326439511375,0.592288621924539,3.3396334314894283,3.222933668915183,0.00900435676954316,3.0330780963638344,0.1671789687157717,-4.366255665492804,-1.006843792315916,-2.6944241978182126,-2.7940645209821224
68,-1.5580517261781759,-2.1009457098532565,-2.5260304516482393,1.2048295097747808,0.4768435907052132,2.769413777016583,2.5228342465807088,0.018560582804593603,2.1320301295557575,-0.8446067738140307,-5.091163906489658,-2.4150569371346324,-3.0630642688622824,-4.597518794504024
69,-1.8641708840739886,-2.5054047396971044,-2.6103890595056547,1.0585442753207184,0.3899934460210942,2.07098672157528,1.7019618760577315,0.021730219620510617,1.1288712129643723,-1.5878716595548577,-5.22933460083193,-3.391818096640856,-2.910941260650489,-5.659346417128246
70,-1.9234816161672421,-2.682024328913757,-2.4029807489902932,0.9134889185637273,0.33229127970865363,1.3009866422199032,0.8304918529302749,0.01762784591872895,0.13275322363868566,-1.987022315716741,-4.7445585401233865,-3.8268806308108574,-2.239292806754061,-5.850400225447037
71,-1.7345214974312144,-2.621176999514203,-1.9252331195291712,0.7771283935469993,0.2945467514443367,0.5142478979178529,-0.025292811821295634,0.006061654277612985,-0.7594361040861175,-2.0186523282948974,-3.6788310608693338,-3.687973051972922,-1.127712250379424,-5.162522641859645
72,-1.3287846984602982,-2.3374976219869876,-1.23123821195227,0.6474888266746173,0.26015785729838947,-0.24112752074348578,-0.8090300981530463,-0.01234117206616728,-1.4738540738098722,-1.7139825159860205,-2.1485034119009567,-3.0231680053870567,0.2751684152778074,-3.708123096583263
73,-0.765743064528325,-1.8670773060986858,-0.40108276928292724,0.5152484671661147,0.20892478423839464,-0.9270576166591286,-1.4782023688390808,-0.036036899915698896,-1.966199467515457,-1.1531646026492586,-0.3302516738666661,-1.9519104480598108,1.771465850765135,-1.703062710431856
74,-0.12405063119512785,-1.2622835662566292,0.46933292306796837,0.3673168391754641,0.12168641768748116,-1.5168324191964804,-2.0056891392795535,-0.06253349864048932,-2.223361258022955,-0.4523090025291733,1.561293115737088,-0.6461898956595726,3.1415759436675614,0.5645500335519222
75,0.5097301839377985,-0.5850122708766962,1.28055345320461,0.1911485922658999,-0.015038182432093414,-1.9945893900432394,-2.3791004662622255,-0.0884690389468702,-2.2605019286362475,0.25474767956521355,3.301164285330323,0.695238511282511,4.175497337092913,2.7750460392170244
76,1.0532042616050312,0.10065757542297246,1.9421680235231666,-0.021073226260837463,-0.2052386496737699,-2.353298475887997,-2.5983931677944,-0.10983804244384122,-2.1145864774362737,0.8370957994844904,4.6830594249313595,1.8757186473478595,4.70337075378565,4.6214667961695355
77,1.4392701389702869,0.7354234982025045,2.3839870188677743,-0.26919915141569145,-0.44114263684446836,-2.591885373712725,-2.6724972962588454,-0.12238279267358909,-1.8358500989364674,1.1866325184470505,5.545662979985575,2.728417521979204,4.620731659585425,5.851126210286638
78,1.6247397171284006,1.270487152792182,2.5642734100526394,-0.5434375476472846,-0.7029499632903964,-2.7122323857126385,-2.6157470318979557,-0.12213448745963551,-1.478859027208198,1.2341422612968564,5.792659828613201,3.1389624660641045,3.9047393359974625,6.298706491859027
79,1.5953170746550556,1.6714562567530866,2.4739751941941908,-0.8245557502291042,-0.960710139095113,-2.716757831534789,-2.4448183606511953,-0.10605159357379193,-1.0946573478503172,0.9592029704291595,5.4037742508912405,3.0599034437590076,2.6189799339833852,5.906495719582525
80,1.366378551929897,1.9201466361686885,2.1365178469790322,-1.0859268976072503,-1.1781287100542908,-2.607101488568725,-2.1766569959414745,-0.07266745123703958,-0.7250733348755392,0.39255930837999464,4.435514590702582,2.5152010529650983,0.9061342698760524,4.729340098398757
81,0.9796287000736438,2.01433550416977,1.603370021662578,-1.2970693341799624,-1.3177661946737875,-2.384175145422905,-1.8275889027754342,-0.02263456562668147,-0.39969565996176326,-0.3891914547536204,3.0118124312714105,1.5944503059304205,-1.0304126726926925,2.9241403895344154
82,0.496294580104958,1.9657901953884935,0.9461861676147489,-1.428084807362594,-1.3468570894006309,-2.0495297281746057,-1.4135073319877196,0.040953029385366366,-0.135452722858022,-1.2755642119593456,1.3061803682780124,0.43804574971113425,-2.9533432770309256,0.7259220158333918
83,-0.01202283956802035,1.7970765225008536,0.24676874714290906,-1.4542768683259302,-1.2428627153740306,-1.6077018048379135,-0.9507852074476625,0.11256047002634445,0.061747637033081955,-2.138780247680708,-0.4818411635027582,-0.7842481169682471,-4.622712358364766,-1.5856754853440864
84,-0.47345854715690106,1.5377221628112412,-0.41367693968889546,-1.3602306454873971,-0.99789563075624,-1.0689816808149344,-0.4574165127474997,0.18459554063081893,0.19415621651261744,-2.8523434995503223,-2.152484452423576,-1.898013815909424,-5.827366566629417,-3.724466480625244
85,-0.8255316310825399,1.2202808745861107,-0.9645224299620998,-1.1427468391508824,-0.6213085897766842,-0.45192645131288667,0.04612959442530837,0.24817447444340882,0.26901481319232745,-3.3087722975795613,-3.530189296953299,-2.7485582548537306,-6.412155212651644,-5.4349291000631315
86,-1.023077825734783,0.8767380953547866,-1.3536722265067238,-0.812217996277382,-0.14000196627745753,0.21505872191006864,0.5367545084380584,0.2942011818838755,0.2958681625743383,-3.4339388766384817,-4.483453177617067,-3.2215505476492563,-6.297336548900194,-6.523552688632803
87,-1.0435440589277623,0.535553196313729,-1.5526167342223012,-0.39227536456384676,0.4036710257577417,0.8936286211763783,0.9894917324562047,0.3146274118256807,0.28485005612209197,-3.196135799371121,-4.937726466079824,-3.2572290988398462,-5.4878042077305516,-6.880425419651246
88,-0.8891455527515538,0.2194859069525757,-1.5581686687250311,0.0822217864322143,0.9561818349921244,1.5372292594846189,1.3791626494523122,0.3037147590639215,0.24607129332109473,-2.608907293440866,-4.880125524780019,-2.8565402030960736,-4.071261816833465,-6.488756895317487
89,-0.5858257315665915,-0.05576428130359653,-1.3909422076544613,0.5685728869748481,1.458762330629656,2.094687820887202,1.6826832304566943,0.2590991992361201,0.18988938551564635,-1.7276822871475455,-4.355978421949434,-2.0787888965636983,-2.2060163568079787,-5.421839958249611
90,-0.17935212703090844,-0.2821474662238988,-1.0910435048706117,1.0205675873468962,1.8542472075122347,2.515365651297083,1.8816200596346424,0.18247086600324047,0.127594053616169,-0.6411518713142048,-3.4583606905812943,-1.0315775718808915,-0.10041307806742042,-3.828703391402156
91,0.2708160393944725,-0.4591440243676432,-0.7117403004051209,1.393251226689098,2.0939518684517378,2.755269230112245,1.9645277824140197,0.0797272656642709,0.07194935994606508,0.5409931702250445,-2.312655015883367,0.14518809205139285,2.0130821592032233,-1.9111465957563485
92,0.6990625863553743,-0.5929866874967804,-0.3120441966951715,1.6476011793741037,2.143715583855501,2.7832820307585306,1.9286316936791934,-0.039468075756250186,0.03710338592636316,1.7019934298288368,-1.0586682236403733,1.2987569740120504,3.9056415941664757,0.10420074661933136
93,1.0416498595336807,-0.6952550284633271,0.05083083423790338,1.7546361056429964,1.9883559346847517,2.586569114794624,1.7805330097533,-0.16269874985110325,0.03758088416693783,2.731630449010762,0.1670806567565854,2.2836814502194698,5.378166370140085,1.9947808727473249
94,1.2443800897882245,-0.7808750419563032,0.3282612505986033,1.6985677183729269,1.633989744342112,2.174236734023865,1.5357808887842177,-0.276264885841808,0.08635424448637972,3.5378036926414116,1.2466000766944993,2.979981118137504,6.282666674071636,3.5681742314054965
95,1.2691130615075814,-0.8655977781139147,0.4855684858891882,1.4787165138345735,1.1079438508541277,1.5784989483594627,1.2173401284527698,-0.36691436721826487,0.19227121672028208,4.054857890999078,2.091511807169862,3.307099875420013,6.536709469559972,4.6822514046185395
96,1.0985268930518224,-0.9631158245224773,0.5054818701320452,1.11003236183444,0.4562685845527209,0.8528955456533481,0.8531542427994903,-0.42359031609472864,0.357338454598845,4.2480469484866905,2.649098126951393,3.2321568590637773,6.129737446526827,5.2574057867060775
97,0.738692073071712,-1.082090314208641,0.38950610367779576,0.622177711450189,-0.26085619580665076,0.0674945498928775,0.47313493625617603,-0.4389369737019578,0.5744730694642433,4.114124602160862,2.903251390497267,2.7718546086990843,5.121129348283137,5.2801009098107885
98,0.21922211349902415,-1.2234747063716422,0.1572178263393544,0.057241078940449046,-0.9752961504373641,-0.6985404206984482,0.10598565291032355,-0.41033660518889725,0.8263205284300605,3.6785636648223314,2.8709847539454723,1.988273444559489,3.6308317199649887,4.7981756365663255
99,-0.40904316811437874,-1.378599975053929,-0.15630162539281048,-0.5337506648640867,-1.6180198153314533,-1.3661910597991418,-0.2237167449790551,-0.3403187288614998,1.085600716376872,2.9902598589655587,2.595670189584218,0.9795243230545176,1.8241348555599244,3.909362559609785
100,-1.0786773938510534,-1.5284968745830072,-0.5045643642679224,-1.0952626911260148,-2.1262505154655016,-1.8664359860826436,-0.4978005606344757,-0.23627774390630904,1.3172086611765905,2.114742277566713,2.1384133667211165,-0.1332368909196408,-0.10736853995904276,2.7451724652696785
101,-1.7122997716772304,-1.6448501353616212,-0.8348976338111587,-1.5722891224718034,-2.449930196022073,-2.1493002043481417,-0.7058506789354043,-0.10953991292128819,1.482000708278698,1.1268954193846699,1.5689554973131827,-1.2206550693983662,-1.9664219438576371,1.4526244185230661
102,-2.230681853873225,-1.6927957712637782,-1.0943400708342768,-1.9155963889587246,-2.556808735185025,-2.1906939399243472,-0.8454789552108692,0.026081664966868593,1.541888337820901,0.10403364906558052,0.9572617150335001,-2.160076579548834,-3.5701890010650508,0.17626117936022764
103,-2.561627803361479,-1.635496024952804,-1.2357333544226088,-2.086725587976684,-2.4356430464476437,-1.9958854999897673,-0.9215153338870576,0.15603144768034025,1.4655911496074954,-0.8800858223213727,0.3666002882016879,-2.8488824688714725,-4.767891167938072,-0.9574606766302245
104,-2.6487649906129205,-1.4400916567780393,-1.2234978032859338,-2.062281297941307,-2.0972101106373864,-1.5989323323259588,-0.9442776482858571,0.2668045597351381,1.2342155399826082,-1.7600070722677645,-0.15146853355270037,-3.2149606312276098,-5.454495657270279,-1.851884074267069
105,-2.459270615744682,-1.0842951783622488,-1.038547799482769,-1.837040764953332,-1.5730779160163084,-1.0580244881011587,-0.9272121086826377,0.34754091464596654,0.8457635100346775,-2.4820209587393567,-0.5601129825889198,-3.2234342849974715,-5.579408963079438,-2.4471197899486663
106,-1.9895373124757352,-0.5626210158610379,-0.6817876128214877,-1.4254674405784167,-0.9123103242053794,-0.4473625288493394,-0.884288819624118,0.3912133469332698,0.31775587909801434,-3.006426537184335,-0.838420872859162,-2.879199419177747,-5.149615731039234,-2.722094090707176
107,-1.2678822033372161,0.1088813969789488,-0.17566021919807506,-0.8613180256495206,-0.17648354596039736,0.1532257489165749,-0.8275731225300237,0.39527163161937656,-0.31262824611486206,-3.3087967208521407,-0.9810549500018816,-2.225242920258087,-4.227185234749547,-2.6920880521564596
108,-0.35365089124485133,0.8904652386594438,0.43666749211605976,-0.19519728390025778,0.5664530632592452,0.6693385408901978,-0.76536519732009,0.36168826163518897,-0.9911652168845065,-3.380425056332803,-0.9967016977102916,-1.337090459887267,-2.9215315967172324,-2.4026297552528004
109,0.6675441547534147,1.7198962969401044,1.094691868836313,0.5098680957309397,1.2488417708408692,1.04201729548604,-0.7012055556615304,0.2964372849364103,-1.651827558394494,-3.228064402233267,-0.9056144041637595,-0.314053392438951,-1.377243130479444,-1.9208800867910052
110,1.6922179845927883,2.5173736518570933,1.7264421404186943,1.184518472567147,1.80984272928169,1.235205173783943,-0.633893757545724,0.20851239877070177,-2.2241185532900922,-2.872984541483026,-0.7364995375434669,0.7318023411446131,0.24133069975328178,-1.325756708063073
111,2.6102740798861332,3.1939076612748076,2.256386114910947,1.7602507363607052,2.2011869759784863,1.2395701197264974,-0.5584872549237121,0.10864562754556803,-2.641611917373843,-2.3493111395718236,-0.5229570114197157,1.6878591754808352,1.7672534021127848,-0.697989477408523
112,3.3178785759093308,3.662278469576112,2.614564414014617,2.176942427596723,2.3916079807354307,1.0722377955482199,-0.4680711698411158,0.007916924850680008,-2.8505643770133,-1.7015936384554706,-0.2996828748916213,2.453106722476173,3.048265497440916,-0.11113780194830496
113,3.730344876869371,3.849155907717334,2.7458465743967935,2.389820560218692,2.369537371781655,0.772657942923341,-0.3559522947159359,-0.08355498476832923,-2.817386353826674,-0.9815994979841459,-0.09868153445675408,2.949011964601727,3.9624028482817684,0.3756247494017514
114,3.7932888481030207,3.706608110427834,2.6180345469039725,2.37497324668781,2.1438194981003673,0.39543864173638194,-0.21785688384729401,-0.1576776969983292,-2.5338583813792086,-0.24443915040078973,0.05420267096640475,3.1279284586502945,4.430320434284183,0.7224057284425826
115,3.490434709611583,3.2211434406346635,2.227559359354352,2.132620169811156,1.7423904590367938,0.0014224905700181698,-0.053713310142134055,-0.2090920795783757,-2.0192609963836134,0.4557372872722001,0.14207128236526065,2.9780686021269607,4.4229357707425985,0.9108806609464614
116,2.8468309813982353,2.418657158389826,1.601750474963867,1.6876023652719006,1.2090655273052235,-0.3515196900443499,0.13132431206215703,-0.23546776150031354,-1.3190051214664789,1.0701022754203486,0.1587063719897981,2.5243949790055247,3.9634545275156254,0.943952046413041
117,1.926831646538566,1.3641760851353721,0.7970878571909742,1.0868965417596281,0.5987684389929798,-0.6165582475640854,0.32681987606952073,-0.23739627815797723,-0.4998454671976759,1.5591210358178833,0.10895741087788792,1.8252364869734687,3.1234510164701623,0.8430208466153744
118,0.8269268073947572,0.15604324552400423,-0.10658406845243644,0.3943585640001006,-0.02830028245679248,-0.7637032053870041,0.5180031101534422,-0.21794534721029163,0.3577449843211794,1.8956706311596456,0.007640265751337356,0.9649538134452713,2.0133858579009174,0.6433420612001389
119,-0.3357413234278136,-1.0849522004305123,-1.0152821315975178,-0.31670413270317577,-0.6129384743859314,-0.7826439947136714,0.6875830971620652,-0.1819762912744112,1.1690423014095717,2.0669238234510967,-0.12297028505840576,0.043498117166389946,0.7686592529566059,0.38812113215402994
120,-1.4376868075409157,-2.2301570713736236,-1.8323860433834185,-0.9722034756646202,-1.1029831603205176,-0.6824587651016931,0.8181414213177641,-0.13534525488783772,1.8551063200172082,2.074760501317201,-0.256731239456133,-0.8358509841682028,-0.467086974581222,0.12213131080559725
121,-2.364273738500353,-3.159341436506846,-2.4708424246819125,-1.5060526919404718,-1.4584522712345964,-0.4885158044723274,0.8947199635750771,-0.08410751675157674,2.3520187355041844,1.9346624879512537,-0.3677772903636335,-1.5789934004455433,-1.5592959306592404,-0.11432582878362546
122,-3.0236937543376574,-3.7763206828496334,-2.864324518187409,-1.8678848012480604,-1.6552151997454878,-0.23728410259666205,0.9071808593554933,-0.033825787418942585,2.6180784081998176,1.6732531121349243,-0.43457764432919854,-2.1121148539244614,-2.398204486794444,-0.2903543511162546
123,-3.3577860778271047,-4.0215602317766574,-2.975706388273409,-2.0286680542475715,-1.686788350992313,0.02998672478117642,0.8519468944120315,0.010947256148869385,2.638019233524444,1.3248258343798591,-0.44325834153094695,-2.389916015988863,-2.9108892097717427,-0.3876981254709731
124,-3.348223656021612,-3.879823577541781,-2.8015862451494273,-1.9834748775623154,-1.5640784414819764,0.27368496619368343,0.7328282453992521,0.0469785648167011,2.4237698988300598,0.927334967018666,-0.3896572051017495,-2.3998907034874746,-3.0681146704166897,-0.4019381700863364
125,-3.0172826429105486,-3.3816702633908178,-2.3721812538431015,-1.751072543443861,-1.3131520012319688,0.46141004129403107,0.5607914468678272,0.07245840484504268,2.0117897789628088,0.5183738647617951,-0.2797830174437497,-2.162150334201899,-2.8851973916826843,-0.34162134385766574
126,-2.4232183897188526,-2.59856599133029,-1.7466202408228928,-1.3704637129873258,-0.9713578680564829,0.5719713087067071,0.3527011229147351,0.08692815891280775,1.457498254651261,0.13163322745200676,-0.12861423362450308,-1.7249413515534247,-2.4169680135937477,-0.2255912680645191
127,-1.651058367349462,-1.6323716115264728,-1.0043661094167369,-0.8949400661330648,-0.582334291589373,0.5973773445478108,0.1292301012519294,0.0910785880045354,0.827685624686296,-0.20577868597463955,0.04254631981213255,-1.1566271174073828,-1.7477670844606432,-0.079044091775503
