,AF3,F7,F3,FC5,T7,P7,O1,O2,P8,T8,FC6,F4,F8,AF4
0,0.01940779610578074,-0.06961695669218212,-0.3988599292213029,0.02354167170761261,-0.22667231456839107,-0.2623404442061166,-0.8853459534313487,-1.4807662375191792,-0.5749480151862886,-0.6245914659070625,-0.7333343334190867,-0.26130179041014406,-0.4223401783479966,-0.3048924171992677
1,0.5934256586866318,0.18471220457525325,-0.09410072405473106,0.5736611881742902,-0.43521204665138774,-1.871431722272601,-2.0989603958473553,-2.8070872958417494,-2.5412197972542483,-1.6144676678792311,-0.6979884995975584,0.016797968499168866,-0.46410779846277983,1.0203255783105236
2,1.2040634890541635,0.4649769813497649,0.32809837273811854,1.0956012567196212,-0.5782794098705556,-3.2575576231371257,-3.078919379391435,-3.909120597771384,-4.200394074616021,-2.377365003954175,-0.5342352217430986,0.4420936324559825,-0.3651872029374306,2.3741916924511246
3,1.8460698543181842,0.7488035774486774,0.9129160423947327,1.5380832736366847,-0.6322444183360403,-4.269127643272822,-3.6988608005942116,-4.654841612463009,-5.3554414850711485,-2.767945189539481,-0.18353610110131294,1.0756319411240665,-0.04405962659849692,3.7407478839942105
4,2.493727133948645,1.006861880280272,1.6685219350327587,1.8539013476318202,-0.5888891669944719,-4.806310073367427,-3.8803820460982577,-4.95472844209202,-5.877415544517397,-2.6968016820964786,0.3778544082583204,1.9301417555430842,0.5386531641099918,5.079541272688767
5,3.1000801274278715,1.2057307975228235,2.559625927250511,2.004766360261699,-0.45724634301165407,-4.832897481723982,-3.6026058695115992,-4.77284075340203,-5.721143713432077,-2.1437581825644876,1.131474821591918,2.9623680639180967,1.3699691583557503,6.3222195530233805
6,3.60101487800729,1.3121539076509952,3.508709812041948,1.965818580800854,-0.26250107210180545,-4.378915813526057,-2.9037148370045887,-4.1305173757965585,-4.929058715969826,-1.1610716225831772,2.016186306615805,4.075258843739084,2.3827997833249395,7.375328576415615
7,3.9238225927482007,1.298177640246543,4.4050359308167994,1.729293983446363,-0.042041008674776816,-3.5337521667719187,-1.874365542418764,-3.102305336723987,-3.6228428711360268,0.13386246119001652,2.9349155068088923,5.129965205941781,3.463151305903836,8.12939203262038
8,3.9990268481613276,1.1464330781679297,5.120246101324146,1.3068292187242063,0.16078043671262834,-2.431003603193345,-0.6440589671261845,-1.8048632449755841,-1.9843390744311178,1.575195301992918,3.767756504515068,5.966022860220001,4.465378648107375,8.473244678752945
9,3.7735702960797073,0.8546889855472768,5.528243111579263,0.7299624383512561,0.30420088569545534,-1.2274741590034066,0.6374602387912437,-0.3805846129876029,-0.2287169605908328,2.972247679969089,4.389558010694071,6.42671220700002,5.233337615578796,8.311593772554863
10,3.2230752100534263,0.43880280360892976,5.526267355419984,0.04853467942023892,0.3557016905777842,-0.07958632334583982,1.8210171319673822,1.0215839232328285,1.4260500333579498,4.136623204081121,4.689363001799994,6.385660888029412,5.624322000496069,7.583068458698674
11,2.360888648975219,-0.06665603906626501,5.0537748410919425,-0.6730888917248958,0.29846558077503577,0.8791956263586714,2.7779962676491508,2.265303980495328,2.7888904993824455,4.9088683576367576,4.588697222402452,5.770412600308899,5.532163311748043,6.275720844200812
12,1.2420134706125443,-0.6105484212095331,4.10595114199896,-1.3617966681363416,0.135489661899953,1.5565547363571497,3.4166409744344852,3.2432391690757694,3.7202428209815426,5.180813109367588,4.055792277208898,4.579010712373145,4.905904730316703,4.4371389313114085
13,-0.03923829836503602,-1.130115988661212,2.73943743592825,-1.9430478796288857,-0.10946076144598381,1.9124824800004143,3.692387738245577,3.8884266624301875,4.148146270668567,4.91037383260905,3.1133787493806917,2.886606600257665,3.7610494485917014,2.177008892034153
14,-1.3580596751101037,-1.5583327832063432,1.0689961130711882,-2.349014830170562,-0.3943900564552657,1.961902329272954,3.6108913194263303,4.179200569940625,4.073762574380869,4.12672797837853,1.838621181634868,0.8405719154302493,2.181450948749755,-0.33897354381191536
15,-2.573558258828455,-1.8328156187551339,-0.744766710020223,-2.52664454040248,-0.6648779925106659,1.7685933086003989,3.223524046376796,4.137272637711019,3.5659305330692357,2.925211794104499,0.35495326666389504,-1.3556445274610438,0.3113031353070681,-2.903653336714587
16,-3.546909793317512,-1.905103298565774,-2.5150904443303506,-2.4446454580214456,-0.8623861340975563,1.431599495076171,2.616283853636727,3.8196445738310456,2.7460389993106236,1.4528327702386055,-1.1831715857100344,-3.4678928698117595,-1.6618112135155265,-5.2899147763891055
17,-4.160675644305152,-1.7489224840579853,-4.053417209544862,-2.098445223765509,-0.9338557604525294,1.0664470604090392,1.894039580419561,3.3059624989940977,1.765946349247466,-0.11330729479364883,-2.6104697869874562,-5.2623905399781075,-3.530480416858254,-7.276461599942573
18,-4.3363594697690635,-1.3660695555888842,-5.194863293802833,-1.5123436631675269,-0.8411226270372535,0.784239028248662,1.1627238158834725,2.6835818499997823,0.7826534943678325,-1.5913348105032823,-3.772997006733304,-6.537935915248106,-5.09426990733642,-8.674419363572527
19,-4.047394623051767,-0.7887733913992708,-5.820987482385096,-0.7383878521594823,-0.5686333513847907,0.6719563714479584,0.5123497129799937,2.032889587056184,-0.06619026406151522,-2.819806595860058,-4.548978714968239,-7.154404245102567,-6.185895796136167,-9.35101504158064
20,-3.3253342474292062,-0.0778489101260027,-5.876379383229396,0.14811075164765203,-0.12814675641619555,0.7770422146721139,0.0035421158179742515,1.4152884902915683,-0.6821455303144681,-3.679016273701494,-4.865154106913858,-7.053112722592158,-6.692971923782808,-9.246879355696175
21,-2.2579838820080447,0.6834476687899644,-5.376492194148761,1.0560638061768652,0.44048252673647886,1.0986398955499732,-0.34033153029527763,0.8657126098583516,-1.0182684503315917,-4.1053170961510705,-4.706168882471332,-6.26580968928615,-6.57221213241055,-8.384359139144065
22,-0.9794213612981099,1.399283165385974,-4.405462914483281,1.888332035789607,1.0727713223932045,1.5868123345730176,-0.5342716127665681,0.39070719030982404,-1.0821967880372287,-4.0965409769666845,-4.115636909044422,-4.910752456672073,-5.854126172988361,-6.865496168840084
23,0.3469077121432249,1.9736314791416623,-3.1041808441542647,2.5525929981932056,1.6870215953288628,2.1498479687802234,-0.6259411642470045,-0.02788355978335219,-0.9299499434104603,-3.7080405412458775,-3.188791344849363,-3.176311040219064,-4.637690003293215,-4.859821491421435
24,1.5497534034643785,2.323514067496052,-1.650334038658464,2.9720576704723625,2.194769972625706,2.668535733670138,-0.6841926100368058,-0.42454965789416,-0.6518765858144576,-3.040362821128814,-2.057941083459369,-1.2944478828401365,-3.0759591573245073,-2.5835879084818045
25,2.473277005580945,2.3912105344949914,-0.23335316056488353,3.0947123476572402,2.512880775017436,3.0152440202777786,-0.7838097154815871,-0.8387865980591307,-0.35343461331542037,-2.2208376170248108,-0.8730268514655827,0.49202943136214283,-1.3548905849065482,-0.27328582887331954
26,2.9986167963176755,2.1536095896381497,0.9720904897594574,2.899905744397735,2.5756054486718547,3.0749172645847223,-0.9890699680056143,-1.3029964678732753,-0.1342661319114995,-1.3822315789476438,0.21973243756989225,1.9636033037116989,0.3314500755825411,1.842923734498497
27,3.060694524562438,1.6272033773557533,1.8301875001353838,2.4014036150512514,2.344886724163596,2.764813518546115,-1.338943070101864,-1.8319006080864961,-0.06921388533385743,-0.6419543261669374,1.097895703610057,2.9545314848685025,1.8057156705046868,3.5719806121030717
28,2.657803443419838,0.8677951838463922,2.262223040804699,1.646458343517191,1.8173895131853894,2.0499878417421264,-1.8365044713131542,-2.4154471627041847,-0.19449858454492472,-0.08506926822016628,1.678632078720606,3.37521093741449,2.928700415968558,4.7773470937976645
29,1.8525295812235092,-0.0352837860153348,2.256343414992371,0.7109340768423629,1.0271640253508145,0.9521495098069769,-2.4444913204471264,-3.0165710006342064,-0.5013250268907062,0.24638410307196526,1.928123432948889,3.2231812907296513,3.6145556849745164,5.392356182966562
30,0.7637792974228399,-0.9698690907657832,1.8675008252121303,-0.3089762217316376,0.04343030144671495,-0.44950999933657304,-3.08795826259976,-3.574320235000063,-0.9378750619899973,0.35637159609316427,1.8633644378858656,2.5812336311130366,3.838007867687172,5.423963215564178
31,-0.44906085132831286,-1.815260042795641,1.2076460557679791,-1.307471982254865,-1.0363635304246748,-2.0257529094780353,-3.6638502268069386,-4.011942258260919,-1.4191948832121386,0.2900700336457149,1.5463679469448537,1.6030062551745436,3.6330113033824856,4.946759821106009
32,-1.6077013270603735,-2.458243243167428,0.4276434700324375,-2.181020133418761,-2.097405992597932,-3.612036734043679,-4.0561782607582835,-4.248670626823164,-1.84313229417001,0.12248825407314048,1.0719269994651162,0.48828970929479487,3.0835167700863777,4.08846512487035
33,-2.539332508153621,-2.808653873593341,-0.3064338030537247,-2.839947520410781,-3.020959621991925,-5.028563391224656,-4.154545721553694,-4.213309397565808,-2.1094540791430423,-0.05728055312870392,0.5510175754875227,-0.5482409147025047,2.3081200378178797,3.0092409707913648
34,-3.1004939335366664,-2.812282638457728,-0.8391759831547351,-3.218348819235073,-3.6986574313285785,-6.102903286972116,-3.8731804997340227,-3.8573804754954546,-2.1387513212079643,-0.1633438658803118,0.09251115716190658,-1.310213206698962,1.441119803426211,1.87793162301309
35,-3.197181902128078,-2.459251042056727,-1.0501260921183309,-3.2811278615353627,-4.045819315669845,-6.6921349029184745,-3.1674810758281873,-3.1656383095939185,-1.8878125594038133,-0.1288833860395256,-0.21397443247281078,-1.6497665630978062,0.6128642326221647,0.8486186437683607
36,-2.798456232256942,-1.7865679333324003,-0.8729688617337981,-3.027363197514849,-4.012076107461065,-6.7015545491461195,-2.045401073719522,-2.162156462460263,-1.3587949522851037,0.08195622217826586,-0.3115305488266177,-1.4903570137390936,-0.06782072505588142,0.040696508752264424
37,-1.9416735524224973,-0.8743623498965567,-0.3068203806407619,-2.4896601935363294,-3.587943832988684,-6.09752953731964,-0.5717252681746441,-0.9108803475549744,-0.6006296457160015,0.4679578668189339,-0.18381067315568894,-0.8388373394817215,-0.5268036937043022,-0.4749383967528474
38,-0.728581089557674,0.16384586558506842,0.5820762893546642,-1.729656526334027,-2.806519832549436,-4.912897827253044,1.1356832580273264,0.48959991133085834,0.29754496896902705,0.9912626786942846,0.1437189674708815,0.21493504655727727,-0.7318747116907036,-0.6819397575389503
39,0.6872886024338665,1.1956424728338417,1.668602681664174,-0.8303191621921703,-1.7401028309607762,-3.2443270232490815,2.9174148981126686,1.9164173368362352,1.2197650858962104,1.583994295869635,0.6091033556513652,1.510896162030453,-0.6934226593563454,-0.6163055842799116
40,2.1203273684506287,2.087101043896706,2.7859165208852974,0.11395122602761733,-0.49218509827853174,-1.2420861707655892,4.590437155282223,3.236529305845335,2.041152272468819,2.159736597590318,1.1247821486767038,2.8421186424937046,-0.4589290199370536,-0.3565989919462087
41,3.377118337651906,2.7207298042657446,3.7491881981659048,1.0081540574901746,0.8141612917155076,0.9063885972502799,5.970088770936701,4.322608107017847,2.6473607030848414,2.62780543197896,1.5922179303552393,3.9853243483058924,-0.10249912904553642,-0.008330030235901495
42,4.282086439213289,3.0115337554992805,4.382646872882325,1.7671334852254112,2.050054389715091,2.997052313553887,6.893224607200439,5.068539985751725,2.952386381272465,2.907911431135759,1.9179531457578936,4.7341714583620895,0.2887198941941121,0.3149927327897223
43,4.701142413233664,2.918949437552852,4.546143624227816,2.3244021879241505,3.0950457436549583,4.831444148848578,7.2394058612974925,5.402431989950027,2.9119084963389823,2.942870922629821,2.0286355179513755,4.930533981917122,0.6290546225393349,0.511232210277514
44,4.5601559566432925,2.452930156088859,4.157441995657668,2.6383594435731825,3.8501370750184196,6.237934957968178,6.947273893889675,5.295396069008735,2.5301194171846295,2.7074468287323827,1.882771522588566,4.489280636688602,0.8475687004422224,0.506525471050188
45,3.855741698327658,1.6732315809941358,3.2069797999986798,2.6952821740888826,4.248063749624569,7.0896576770413695,6.023879397568336,4.764978586895525,1.8590832935268797,2.2121037397937218,1.4775101512942956,3.412979405782051,0.8981974540185542,0.2672614315865442
46,2.6568386932322086,0.6818736996323487,1.7628481959147653,2.508900740647548,4.259714061363271,7.3172106006018325,4.545671487262713,3.8728432659611594,0.9908650869366431,1.5013192034820173,0.8495404132663942,1.7943751935949046,0.765448589094634,-0.19454456495891598
47,1.0967856987447748,-0.3902892582271866,-0.03492842737459925,2.116816511454234,3.8960585905122422,6.914870998828287,2.650952390161655,2.717091295429313,0.04379976365823999,0.6469645788290345,0.07008503241280807,-0.19378914501494854,0.4651038229358936,-0.8231462814211015
48,-0.643123489292426,-1.40111064247539,-1.990244580842451,1.5744126452553904,3.2055292468031347,5.939808814269287,0.5247186576360654,1.4203035071002434,-0.8548558871104199,-0.2619896737970025,-0.765151490543145,-2.320260920252799,0.04014017342065122,-1.5278117187434068
49,-2.356457971076194,-2.216410364658542,-3.874914271771392,0.9471956576945029,2.2673364534180163,4.504562607482692,-1.6222138209165096,0.11491787031407341,-1.5871662598632958,-1.1316970690088284,-1.5495057719969423,-4.325151219407401,-0.44721036906970835,-2.1969974291655605
50,-3.837818627851678,-2.72827320912344,-5.457688130163615,0.30264464254775,1.1816744586448364,2.7637530059338937,-3.577194375013499,-1.0721581846377497,-2.060909572141041,-1.8756676362203863,-2.1803226144669563,-5.954116447170177,-0.9258315559146663,-2.7157623087198526
51,-4.9088758606928415,-2.8698074106781237,-6.534434518994361,-0.2973749118810597,0.05808513307748458,0.8965957268396695,-5.149867356025776,-2.0337845216304578,-2.2217892505047288,-2.4252480690261087,-2.5732092195400913,-6.992194994814521,-1.3268321695530063,-2.983796849904187
52,-5.4408205608396045,-2.624261877925432,-6.955438652200329,-0.8027417817936445,-0.9966008734916026,-0.9128130184691783,-6.1935084390211195,-2.693992365078559,-2.059885220816373,-2.737017104429511,-2.673612910792784,-7.292722189933965,-1.593713447057748,-2.9313998212196593
53,-5.370282411955332,-2.027195179912121,-6.6461328435383615,-1.1791405861965272,-1.8893568084342762,-2.4952626969275666,-6.621017647777155,-3.0153027270083235,-1.6097032207121929,-2.7963600856203517,-2.464223314148705,-6.79745112866248,-1.690172803787949,-2.5310782278270008
54,-4.706685508083269,-1.1613868907707294,-5.618430244024817,-1.409779281721533,-2.54989075816257,-3.7140883593485072,-6.413710070408139,-3.0012548474060083,-0.9441343326517816,-2.6171232712285755,-1.9673421954785244,-5.545225991587049,-1.604566048590062,-1.8031165950562664
55,-3.5301969857136797,-0.1452315167191329,-3.971073470795851,-1.4948304824393557,-2.936540600462771,-4.478803565683881,-5.621946411705876,-2.6940330474387926,-0.16346228553594186,-2.2378092733255723,-1.242072203781015,-3.668106096428622,-1.3505970500967615,-0.8143495624553618
56,-1.9807074858104987,0.8837043884808975,-1.8788592876865038,-1.4489589306794421,-3.038658175610097,-4.753223244595618,-4.3576470708343376,-2.1676483218331786,0.6188506275237838,-1.7151786735837147,-0.3768437627787316,-1.3755057653569214,-0.9643667142009303,0.3296564634987733
57,-0.23947985629138085,1.787595830193635,0.427933623134988,-1.2975042843772844,-2.8754301968546185,-4.557197368444749,-2.77971716693478,-1.5176150018613623,1.291562606948202,-1.116333327354202,0.5216539198812135,1.071525629465825,-0.4984133414645381,1.4978897480684736
58,1.4939527471118128,2.447051834251996,2.6912992936413302,-1.0719880576345227,-2.4914788029025403,-3.9617958442154686,-1.0742607422528634,-0.8484187586697632,1.7601910764143094,-0.5103809834313541,1.341694926030438,3.392507427716055,-0.01375129368477303,2.5507879016915247
59,3.0264941969627874,2.7769732887424023,4.656886983941847,-0.8056062142633216,-1.9499153052860196,-3.0785506961669564,0.5679208656735851,-0.2602747067781156,1.9588997690506558,0.03934202831504545,1.9802611056945167,5.322047358503389,0.4288751160385828,3.358418942847049
60,4.194540129239595,2.737422690259084,6.104986753301845,-0.5292713205080588,-1.3237617160062196,-2.044086731919216,1.9737452829885909,0.16328564553799377,1.8583934465765457,0.48172639816082496,2.3556772002745143,6.642264790940624,0.7772738268265108,3.817491160292732
61,4.882462938403356,2.338112110787565,6.8771531272682225,-0.26860899043597275,-0.6867926513908206,-1.0020617476977771,3.007424414811722,0.36557996190456343,1.4690437574357769,0.7825066177868597,2.417673888073472,7.209026377148473,0.9945104018304335,3.8649305028845684
62,5.0343392502101985,1.6360512820704527,6.895082348826147,-0.0421263738330945,-0.1048802325753126,-0.08470453298421907,3.584838846958224,0.32354178187581556,0.8390655483641108,0.9267593531099926,2.1537275474143356,6.968740304191361,1.0631970180438766,3.4862575277353485
63,4.657728982525803,0.726864744899084,6.169381013097056,0.1394136306946438,0.3711546622228749,0.6036814946155971,3.6810503155910155,0.050326326763702814,0.04812433968364581,0.9192112334773223,1.5909450568486563,5.963698317033096,0.9868927459133036,2.7177135081247505
64,3.819425677452668,-0.2688552228412055,4.797190753827971,0.2725373304210337,0.7103693537151051,0.9991183699187925,3.3302053669362373,-0.4065324135567182,-0.8027613118511795,0.7824602224389016,0.7932528825407398,4.325442870750359,0.7885518475067016,1.6419247577219893
65,2.6341610242864957,-1.2221604357127076,2.9490868068741505,0.3597679109777729,0.9036771094516388,1.0846624596050005,2.6180897411646784,-0.9711905267164115,-1.6037832064007307,0.5533698941373382,-0.14582739484175855,2.2571768476724596,0.506353561288456,0.3777408944172576
66,1.2481176684476776,-2.0129918740514916,0.8470525512277072,0.4078099715135862,0.9628114282651652,0.8905929954292889,1.668549433749619,-1.5490768177751104,-2.2498898829556633,0.2780372817589438,-1.1140275427822057,0.007621558865073355,0.18758234417890873,-0.9343725261543488
67,-0.1803255951023734,-2.5457239000122094,-1.2635355611174295,0.42554542059789274,0.9165082792790675,0.48813917682906305,0.6257651103642838,-2.0388683729905517,-2.6537438327461094,0.005859250911598961,-1.9935786313612724,-2.1602180357382417,-0.11853488702737498,-2.1494563037425447
68,-1.4999835110029436,-2.760983227153812,-3.1442434851825,0.4221496084907713,0.8045131678045574,-0.022311544582751808,-0.36515230034508145,-2.3454594570255702,-2.756592775324279,-0.2166826640554138,-2.6753153474379805,-4.001336619528353,-0.36801083423714576,-3.135475633510127
69,-2.583914789727208,-2.6422838956110337,-4.592321278156754,0.4055746603784098,0.6703217935424992,-0.5268274785144964,-1.1766443685748766,-2.3924062577683016,-2.535791922501669,-0.3518488582394093,-3.0719547343683997,-5.317963924021765,-0.5282896883610192,-3.7888214729397034
70,-3.342139453521198,-2.2167561902656283,-5.464210753843233,0.3815611456351896,0.5537447356872375,-0.9151554319436034,-1.7138920432590117,-2.1323833892419075,-2.0080828817195138,-0.37541879780038423,-3.128916187502957,-5.982131605350787,-0.5825845663520705,-4.045978277730737
71,-3.7287447112903753,-1.5500548816010384,-5.690931409735091,0.35324217251508033,0.48441468080848116,-1.0971319572060272,-1.9248775214680223,-1.5544049032515153,-1.2282023855277893,-0.27983716116709123,-2.831303016310475,-5.948883119430217,-0.5317587475167727,-3.8899794812261907
72,-3.7429375592828644,-0.7363062172064152,-5.28358127633914,0.3213084884015143,0.4772162184076156,-1.015995570748234,-1.8042681686704387,-0.6869187875536392,-0.2829151076976677,-0.07530061663020707,-2.2061041029639195,-5.258698849457706,-0.39349862123807,-3.350975780296278
73,-3.424434905310835,0.11540597629656302,-4.328527418902486,0.28462227153730346,0.530326031875424,-0.6567645277658363,-1.3909554856359359,0.40365942670705035,0.7189121989622033,0.2114234240216325,-1.3192520771653362,-4.029128879614098,-0.19891806294122083,-2.501013000954426
74,-2.8442939198972934,0.896092076623374,-2.9732270710359394,0.24111266547635946,0.626145304495786,-0.048551244287035604,-0.7599460545392958,1.6189026969159699,1.6591090188045574,0.5403891885552079,-0.2678224538057698,-2.437015007602737,0.012888317871856035,-1.4438526771446736
75,-2.0927876584502214,1.5113747436681613,-1.4048275607727068,0.1887649014592811,0.7349487499372829,0.7394553100422828,-0.010023178727663604,2.838249272349797,2.424425741525589,0.8637391884252029,0.8317094968528069,-0.6938561917691559,0.20152019322748768,-0.3012743538201951
76,-1.2661739435894248,1.8935409480451924,0.17542174145535172,0.12652764504017722,0.8206403916847873,1.6077152228172114,0.7509144969204586,3.9317938670041688,2.9205322548492605,1.1322488382116884,1.8577098047500127,0.9823238518090011,0.33216635332049765,0.8023005605297869
77,-0.4541802150329172,2.0095926277891754,1.5784629840772668,0.055002748305128885,0.8476670241231856,2.4403459245780468,1.4207304168669614,4.774649571150791,3.0841104169287465,1.3023467656014096,2.6983338972676516,2.394904845184894,0.38167160352098767,1.7548732375543732
78,0.27023701200975964,1.8643499526432352,2.6509782621197697,-0.02316639871694825,0.7879510937760624,3.121388576119671,1.9161322750749084,5.261329077047172,2.891518397339512,1.3426854736990848,3.265274411936247,3.392833912229641,0.34283705247101665,2.469740308676455
79,0.8577416884664971,1.498354181215932,3.293227842577481,-0.10324294341781025,0.6266944240866864,3.5509968775806406,2.182309586661201,5.3185367234872665,2.362843242116746,1.2393227182101614,3.504530288423795,3.8880517445484797,0.22625450888697715,2.8946384944083827
80,1.2855025530475945,0.9810155399780159,3.469065489937688,-0.17867966815843264,0.3660734466466253,3.659240180304486,2.198043512724213,4.914869671176783,1.5606570833452829,0.9986862188881657,3.402777027739754,3.864145258294909,0.05931335135158641,3.016141866977035
81,1.5561001964134875,0.4000617316541108,3.2071110077020535,-0.24171131699273138,0.026169161499816615,3.415581575944425,1.9758899624208262,4.066198655789625,0.5834088352154363,0.6477358658634458,2.988464607888037,3.3753522778661895,-0.11758791552835911,2.8589122625350263
82,1.6929569303279226,-0.15121190561682574,2.5932454630142314,-0.28421224322643734,-0.3570985181639313,2.832749643519331,1.5577404926864853,2.8359219911408786,-0.44595242641240607,0.23109013848415516,2.3274416619310663,2.536282293778373,-0.25719286447499795,2.480052607881609
83,1.7331972397569968,-0.5871585076934127,1.755719159875237,-0.2987569090215115,-0.7367959418365331,1.9645697602100918,1.0066915651290504,1.329828817308193,-1.3948977424350126,-0.19469274169802162,1.5136214672683572,1.5038839458840072,-0.3131137679183176,1.9594210834613401
84,1.7191152232027174,-0.8417287255625664,0.8450863930142322,-0.27979566563399944,-1.0618840850165594,0.8982264621098628,0.39661980884812303,-0.31408003425638426,-2.1380462962055455,-0.5690483278948918,0.6558765733775946,0.45414731812106385,-0.24808326753010956,1.3872611683833163
85,1.6895400339990523,-0.8776292790322775,0.011795880954471842,-0.2248236426484322,-1.285180698058449,-0.2577495894452333,-0.19888958460659348,-1.9398474362885698,-2.573640532339368,-0.8365302626911604,-0.13711424848960316,-0.44333346614400626,-0.04154415272571245,0.8508270137747926
86,1.6723502076273529,-0.6915471844909328,-0.615495182379864,-0.13538196244771464,-1.3711353191167621,-1.3878705199754495,-0.7166145579378398,-3.3903802862196293,-2.63762490549215,-0.9558222966208908,-0.772016888482237,-1.0495674364733514,0.3045976816527368,0.42179473934260714
87,1.6792014279777618,-0.31479408674158876,-0.9479735504209723,-0.017703183760555186,-1.3021498069163966,-2.384267386459279,-1.1113705027506395,-4.524932051818492,-2.3133790875735625,-0.9072324781604265,-1.1838796175689805,-1.2759493009936125,0.7630633284205834,0.14613754847807192
88,1.7032192135045892,0.19071314467352574,-0.9487078198438289,0.11718552392401416,-1.082355237529058,-3.1593387973941254,-1.3603450030200515,-5.235173992134889,-1.6356279064686212,-0.6973783096869572,-1.3451733714994505,-1.0969950421568742,1.2818250482407454,0.03782524920834216
89,1.7200018133708357,0.740653118109438,-0.6371187254848364,0.25404705912044834,-0.7381213207492245,-3.6547723784956907,-1.4637281034426557,-5.457868084213363,-0.6877538189126896,-0.36010489817351266,-1.2694498516896642,-0.554307148564288,1.7885240645227085,0.0772274372678064
90,1.6918247339183994,1.239687497168783,-0.08534794738286598,0.3747714826960291,-0.31507301162923235,-3.8459106294787673,-1.4418666145270607,-5.18250095326075,0.4074119985851913,0.046806336412690525,-1.008951900727804,0.24883565744399638,2.1984388244350535,0.21450535860624648
91,1.5744881542354023,1.5946363788370395,0.592926795713325,0.4604153420359652,0.12805679379902155,-3.7412320661950744,-1.329680231319842,-4.452811306757344,1.5023589911466497,0.44895147752830794,-0.6463621783260891,1.1616633158150325,2.4252415240788707,0.37762825889149254
92,1.3258549869299943,1.7277890897534574,1.2596738134143952,0.4937580023595967,0.5278871335069478,-3.377501815702247,-1.1694275429284438,-3.361876281451799,2.4434711736687786,0.7658036397261645,-0.2817444239867583,2.0071227056226406,2.3933098258731924,0.48401505482655316
93,0.9148418839342252,1.5886290360993907,1.7733226971030749,0.4620569291970809,0.8259052985324876,-2.8117780190354025,-1.0030603245221748,-2.0412205347269756,3.091065162261813,0.9229975227339507,-0.016485011666019764,2.6074045861867465,2.0500111105065337,0.45426346422847685
94,0.3294929728409519,1.162384893679086,2.0103494208947414,0.3595834230396135,0.9775673384473403,-2.111840731905972,-0.8653501499314972,-0.6451717713078993,3.338272634317301,0.8646212662725652,0.06344445010910764,2.8104517153111783,1.3762186037512945,0.22607050284260752
95,-0.41718288715626933,0.47415555973005513,1.8846458762670322,0.18948285845181081,0.959525739674601,-1.3466913037561103,-0.7787421143056211,0.6676886049061684,3.1262256994772257,0.5636227661890117,-0.09759582100820514,2.5138890922147983,0.39340181161000054,-0.2336629572876781
96,-1.2846881071198384,-0.41213109438556483,1.3619637386371704,-0.035450248425044545,0.7737806446689783,-0.5785634518599729,-0.7505416808806753,1.753720173772565,2.45343682118671,0.028619030830136383,-0.5141182870238403,1.683050637662405,-0.8340285636596848,-0.9203839732810231
97,-2.206487808806194,-1.4000237625208571,0.46736273902769104,-0.2933587706750824,0.448011005245652,0.1425472861083449,-0.7726404034033895,2.5016657028679656,1.3779980374049945,-0.6941398171880965,-1.154581223608317,0.36045325378615717,-2.20187878708646,-1.7885025485865034
98,-3.095558233619885,-2.371517187482683,-0.7154829721369976,-0.5553437017865215,0.031939967544059256,0.7813949928831191,-0.8236033716852645,2.846107496716102,0.012158438066412588,-1.5242212099087775,-1.9432483608789992,-1.3348823503527678,-3.574876798624347,-2.7538283598573625
99,-3.8535574114133895,-3.201424242530829,-2.053181430973793,-0.788751520554595,-0.40977421257256974,1.317176297073939,-0.8726344050064369,2.77516305961363,-1.490155296360847,-2.3556555121531706,-2.7687765246606695,-3.218572989786017,-4.800205116288329,-3.701810375841649
100,-4.382579759467256,-3.7733683344010682,-3.3786831170902927,-0.9613298986488209,-0.8070650468352402,1.7410306807313576,-0.884741807056598,2.331347290523032,-2.951374683889066,-3.0697827543382914,-3.4985002469886903,-5.061418620903289,-5.72444885712537,-4.500762993178853
101,-4.5980152672394325,-3.9953208008010193,-4.512496875231638,-1.045677952549694,-1.094949588346757,2.05228333850365,-0.8263570446025693,1.6053895516781527,-4.191645852183114,-3.5506714985050114,-3.996557997422244,-6.617029989905813,-6.212018811109978,-5.018553879410819
102,-4.440787394003431,-3.812593960066918,-5.286339925236332,-1.0233311896873845,-1.2233697759126894,2.2544636241485776,-0.6706936111214725,0.7237083970871736,-5.0508352879079546,-3.701076328781915,-4.143439845388801,-7.653214455390852,-6.162819278868128,-5.140698699291155
103,-3.8872342923961996,-3.216473699133652,-5.566130551553252,-0.8878422664655972,-1.1648640893656497,2.3520232924460145,-0.4022401571422255,-0.16890182424209912,-5.408432024930138,-3.456780699620646,-3.8542985565108605,-7.983187043740321,-5.526912405630014,-4.78752139937367
104,-2.955136497480123,-2.247207234546165,-5.2712581276294275,-0.6463470373942151,-0.9188896985657252,2.348399223356598,-0.019924907488042022,-0.9291451781046011,-5.1988703718970415,-2.797346855196251,-3.0934814010268945,-7.492546723069925,-4.314192884637203,-3.9280411792124026
105,-1.704857738511112,-0.9907903593485432,-4.387496076197523,-0.31932333662991297,-0.5121437013896197,2.2456794829298,0.4613599789108538,-1.4350352687871382,-4.420387115172769,-1.7517345607097394,-1.8831932557769915,-6.15834797750098,-2.597608461005974,-2.5885567919279406
106,-0.23519439829538527,0.4301701703853962,-2.971713370903234,0.06147858986074364,0.00513938813444417,2.0457262992556937,1.0110391096138314,-1.6029636694539822,-3.1363407506031735,-0.3978905476493731,-0.30493353828739633,-4.057474375421842,-0.5091869745071131,-0.8544898150635873
107,1.3257656368990511,1.8704281700136458,-1.147588548262701,0.4566781407442694,0.5663151664397273,1.7522744998775899,1.5849646177158858,-1.3996515410732964,-1.4688431799026525,1.1438370003480793,1.5067374111320992,-1.3627888335486078,1.7710273500753781,1.1351492162554757
108,2.8337932897849085,3.179135911169657,0.9073006885305444,0.8239882530651651,1.0977705948341376,1.373325843386053,2.129241102832896,-0.847250459170465,0.4145308728392332,2.722833630189624,3.377569735422197,1.672952110883042,4.03216861071933,3.2003908998718575
109,4.1441355479985225,4.217746166228281,2.981501922563189,1.1233743458107261,1.5292421160286112,0.9231268676214746,2.5854988401439654,-0.020760977643643642,2.3193883420185006,4.174577183684835,5.112677519777472,4.743857268810449,6.054142335261395,5.138826870799272
110,5.127695480992422,4.8764505494330095,4.854362144992989,1.3219452079407807,1.8034797838423668,0.42314087413234047,2.8971882022624915,0.9620107445686024,4.046339285254166,5.339341596884789,6.519058767152547,7.525330628359045,7.631284622399541,6.747990958665548
111,5.685761443423601,5.087029229048855,6.322249220827672,1.3979214396925863,1.8838715609577892,-0.09833565981242867,3.0163063009108027,1.9566793283737784,5.413463351584607,6.081030233445553,7.428861729632716,9.712060254880285,8.595402514069502,7.8489666973879295
112,5.761434545801828,4.830487220236518,7.222989358533637,1.3431700082817577,1.7589945500491053,-0.6079646184180034,2.9098291660141715,2.812499003213809,6.276819782609697,6.303844324496579,7.720495038170963,11.054841397594975,8.835460097744619,8.308293714825961
113,5.346317193280255,4.138573210618223,7.455405071407641,1.1640052479889853,1.4435544994638296,-1.0703292457662823,2.5650453249477145,3.3937618889036063,6.546620723856055,5.964690490160317,7.334855002541475,11.39150389208427,8.311453959752901,8.05532993736865
114,4.481630382842904,3.0891098416053877,6.991470750753432,0.8802014209325382,0.9757252405472472,-1.4516089997046842,1.9930052401675187,3.5993354398855786,6.197178914117139,5.079694135996887,6.2844758553986955,10.66784902919903,7.060622606405172,7.0926990202271085
115,3.2536349790341594,1.7958860904499294,5.879563133435897,0.5224007898028119,0.4114174613271069,-1.723385352780559,1.2294379365079546,3.377514608333775,5.269454966353227,3.72386555243291,4.65424767935579,8.945713578586188,5.195002482994202,5.498263878812653
116,1.7839424614693864,0.394554474626516,4.238436848764607,0.12830034289762382,-0.1835834834887404,-1.8659889868904518,0.3327423226889239,2.7340027919960925,3.8658931051216037,2.023784910784145,2.5933917400199054,6.396915589521131,2.8903762778819546,3.418115495931839
117,0.21592118297470708,-0.973553744860548,2.2427462970319865,-0.2618628667820657,-0.7424203211990621,-1.8708905719379243,-0.6209840922451579,1.7318109623835007,2.1381532936989074,0.1440351761809394,0.29949815208900127,3.2836786118466903,0.3677254920126994,1.0512156245101008
118,-1.3011379072414107,-2.17758638599668,0.10201202212336098,-0.6099446883138221,-1.2056506862798102,-1.7418007009362417,-1.5455026875851965,0.48303794045144416,0.26921578468241636,-1.7310836317832206,-2.003529574241137,-0.07207357348285097,-2.130738810895571,-1.3725662585919611
119,-2.628186866808374,-3.1112850693420055,-1.964244865674913,-0.8840749942909144,-1.5282777659112676,-1.494344538186894,-2.353789388537782,-0.8663069461009978,-1.5479586508195198,-3.4183822758611426,-4.090951002224857,-3.326660506975324,-4.36816212165444,-3.618374602548355
120,-3.651001955944463,-3.7034000166487995,-3.752012529342269,-1.0619003639375852,-1.6844561717373236,-1.1543795960828955,-2.968064198349985,-2.1562392927237264,-3.132583921330871,-4.756590432810677,-5.762914152041895,-6.154949144263224,-6.139049357086232,-5.473020763557597
121,-4.291495574308993,-3.923316064825511,-5.095716918732584,-1.1325425047225153,-1.6693843455644162,-0.7552006239484678,-3.3291780997481877,-3.2345810246419533,-4.336278987088697,-5.6245281847380815,-6.86716691670741,-8.287818381048242,-7.291495452705483,-6.768984252617597
122,-4.514511511300986,-3.781489622444279,-5.8857385133457445,-1.0971039466992787,-1.4983217028456715,-0.3340007784289826,-3.4040394785130954,-3.9774058590999166,-5.058883422756878,-5.954325978267007,-7.315842068223188,-9.541983811245462,-7.742891748268601,-7.402690323891014
123,-4.329442658049585,-3.325001246650312,-6.078460417118585,-0.9677417607441923,-1.2030771000033234,0.0719770122618128,-3.18996786223483,-4.305186615051835,-5.257954707271941,-5.738008609911179,-7.094165392356066,-9.838453233321605,-7.4871774830354045,-7.34474178316894
124,-3.786669350504771,-2.629147255995608,-5.697832415252854,-0.7655064984844768,-0.8266462423499791,0.4291572714500602,-2.715257287300432,-4.192358697147345,-4.950891253196906,-5.026636017961895,-6.260015850343446,-9.207469915252844,-6.592807630113089,-6.640870562058842
125,-2.9694614918305775,-1.786442196120129,-4.828593470994462,-0.5172860676146189,-0.4168852379614544,0.7108170467169929,-2.035762233953533,-3.6690403275231445,-4.2096183994930065,-3.9221963746202304,-4.934513912396671,-7.779671059421637,-5.191838725884776,-5.403642678348715
126,-1.9825336783773901,-0.8946291585994831,-3.602401442021182,-0.25228693195620294,-0.020171105404129898,0.8994149236326331,-1.2279044614822376,-2.8148623846628467,-3.148773921086927,-2.5634325947032983,-3.2850459142938297,-5.765071950424711,-3.4617157682357207,-3.796211406670587
127,-0.9388185414966292,-0.045281288855120796,-2.179016589036153,0.0014818380611963011,0.3240837903408921,0.9878419732074679,-0.3790428316625281,-1.7460644854134277,-1.9091899254562108,-1.1076070390870982,-1.5031604590308032,-3.4231102079682914,-1.6023010503344557,-2.0104794993586586
