,AF3,F7,F3,FC5,T7,P7,O1,O2,P8,T8,FC6,F4,F8,AF4
0,0.2043181967588924,-0.20426254650530795,-0.34471827431452196,-0.14776225231693838,-0.5811950926804099,-0.02134038283304219,0.10995831176396949,0.20670591898696763,0.24130602355868774,-0.23928980927860713,-0.18200222939106103,-0.1542316846091656,-0.1592726470727142,-0.469642250653668
1,1.2400113232371255,1.3969186958551603,-0.011538582634323247,-0.14346606373671766,-0.057298952604955565,-0.5924185777907534,-1.618253676464206,0.11810396120369718,1.2470598410338154,0.699946617872487,1.5906173352596684,1.3012710784592423,1.9966931849887686,2.934078667059015
2,2.1539122210597315,2.889616528373734,0.3066887701735356,-0.10332293320697233,0.4599343233438595,-1.0972573314460219,-3.210694733111543,0.0257753454476702,2.2250478712875212,1.6467628669012226,3.2764365984149713,2.673796367070007,4.043250548542382,6.112037921745774
3,2.840801705524034,4.145608769957625,0.594736082436911,-0.0007837410452515339,0.9617548650892939,-1.460299598361808,-4.498704411109163,-0.04204818350665758,3.1652131512308177,2.593814170638866,4.787916829122711,3.8738512060450048,5.8503481396211665,8.81178885574213
4,3.2200471002564837,5.055774736834965,0.8403865846376494,0.17791773274233902,1.4372823378114685,-1.623916612139526,-5.343796041112812,-0.062148433117255444,4.044537088433802,3.5154495647472594,6.041272108227274,4.823592869839842,7.298506480020973,10.824201406199082
5,3.2452463800312032,5.54054853017604,1.0354534251146,0.4303133356616908,1.871521660112454,-1.5565755144246138,-5.653719768617766,-0.01990029826874569,4.824653703329335,4.365293059349548,6.960078666881363,5.462188865043136,8.287084494433843,12.00208716721441
6,2.9095970549445216,5.557575072284403,1.1758918696391052,0.7368992408072883,2.244629362861782,-1.2573445903479572,-5.3934130535286355,0.0883327934868718,5.453383893411265,5.078696215570018,7.479983484221357,5.749521026051451,8.742033662254483,12.271997382313252
7,2.2463768513484714,5.105805739764019,1.261036686735117,1.0631675497149615,2.532677785165669,-0.7561725972822225,-4.589517015636025,0.2543032274852268,5.870133718515621,5.5799276232741875,7.554256294128601,5.668094739682297,8.622515210262824,11.638256916490453
8,1.3246097203799625,4.225673203576717,1.2922477958447753,1.3642317238446355,2.709874730324754,-0.11001062748657632,-3.3278979002337343,0.4586194583738417,6.0143868192104915,5.79310927504286,7.159617239485413,5.223292951797454,7.925753581268213,10.179315709555427
9,0.24064181647997746,2.9954075425538536,1.2714207599959062,1.5914127166530299,2.7519234978124167,0.6045678846401497,-1.7444330890249145,0.6730602286450693,5.835931167316426,5.655203229788518,6.301529609941802,4.442318184506934,6.6895554028483595,8.037406846638353
10,-0.893133907700755,1.523941932114303,1.199868280329202,1.6998424072650637,2.63999627970783,1.301138364922394,-0.01010254789703973,0.864204843813916,5.3050951053564726,5.1289063681441736,5.018017775969318,3.3722477753795395,4.992034364134591,5.403164546040536
11,-1.960865158245033,-0.05883971054381113,1.0779873219346023,1.6559602967873144,2.364671724134948,1.8942107500075493,1.6879210253781154,0.9979505265201084,4.421192590351232,4.213201253003876,3.3810838409407857,2.0775730094610334,2.948241880701139,2.497202035786505
12,-2.8555470750805743,-1.6135659247833882,0.9059116720228223,1.4437577257463179,1.9291676811583967,2.309597946911138,3.167039080026533,1.0443636043148605,3.2176081854001595,2.949564232071268,1.4949669210598042,0.6374247971922868,0.7036076065195349,-0.44932499007393983
13,-3.4896346364500794,-3.0035220813331613,0.6850642291226876,1.0687689475715272,1.3512805020552225,2.4930824374870753,4.269504062738223,0.9822504311088045,1.76244860721399,1.4224216984252107,-0.5091885424398837,-0.8575360527471391,-1.5756565700024165,-3.2133793171503497
14,-3.802903147377531,-4.106459456544138,0.42024200464873435,0.5591045156936892,0.6636084852594377,2.416406816481477,4.879922807465019,0.8028450115177654,0.15436323866337487,-0.2467084558812746,-2.482244634074791,-2.308790327187881,-3.7147435126782757,-5.596536652157569
15,-3.766954834034932,-4.825136925727271,0.12166338783362253,-0.036768522476504056,-0.08813417011940247,2.0800261362594212,4.938021760499833,0.5120936154207709,-1.4861219794900424,-1.910977862052541,-4.269041852034062,-3.614528798442831,-5.54426616083335,-7.438379488516564
16,-3.3862425078078986,-5.095796104945216,-0.1936665118403916,-0.655329018017876,-0.8486451587334137,1.5125022528800562,4.445244585278403,0.1311655612264048,-3.0287225496755257,-3.4145091298069126,-5.722411931203919,-4.675412483417082,-6.9150303123663335,-8.626280942343813
17,-2.69589764485026,-4.893932646645076,-0.5018381143998031,-1.225758209113182,-1.5580753020591478,0.7668285792097327,3.4644444043695817,-0.30497911743096423,-4.3473965776986425,-4.611105306369795,-6.717801497822327,-5.401613194571487,-7.712239127879536,-9.10139848187607
18,-1.7569545507847983,-4.2369016078058115,-0.7735089565484861,-1.6791375759142246,-2.1580284893263055,-0.08570005842615046,2.112706166648181,-0.7508999266391958,-5.334360088699817,-5.382769407767308,-7.166820889091627,-5.72087578237777,-7.8676495057036515,-8.860902246042151
19,-0.6497290114359784,-3.183078610907538,-0.9769765961469856,-1.9578231543931164,-2.597804199152142,-0.9632427742377969,0.5481041854692865,-1.1555587770856064,-5.912223864680093,-5.65535549507184,-7.02798573092057,-5.586927423277769,-7.368195318661204,-7.956555732948499
20,0.5338510012220384,-1.827501713807365,-1.0825011547175287,-2.023656665457742,-2.840096196325155,-1.781871102839144,-1.0481230830010453,-1.4682566155670342,-6.042616175884558,-5.409001973703051,-6.313114755280502,-4.987179658717011,-6.259779436337652,-6.4898012017029485
21,1.698218029850666,-0.2941589291448977,-1.0672152139293105,-1.8637992807009904,-2.8653979575318766,-2.4638320951391153,-2.491993389992788,-1.644947180518412,-5.730153804957527,-4.681699729946856,-5.088285268780591,-3.948435577639621,-4.645335447515245,-4.603546711716162
22,2.7518015718585174,1.2746303132251784,-0.9197745951320734,-1.4932888805970295,-2.6745097828705062,-2.944834491793841,-3.617528014185246,-1.654168634470974,-5.0212817188160415,-3.5653224014458273,-3.4688809996354757,-2.539308562642677,-2.6768497252770316,-2.4709583201222824
23,3.6138138311110586,2.730980784367901,-0.6438852336305514,-0.9538804258280172,-2.288776862068821,-3.1797543650175495,-4.295524948993257,-1.4818375108401214,-3.998213950709273,-2.194543468403772,-1.6090092269848002,-0.8683134270832471,-0.5417507088249248,-0.28175027314835716
24,4.219795821230568,3.935295049175126,-0.259990166624809,-0.30926075264124003,-1.7479794460305098,-3.1463618392158637,-4.448268382279686,-1.1342452810035808,-2.7688677081240614,-0.7301114003087504,0.3136924224404482,0.9229122454946235,1.5551798294295553,1.7732716648694355
25,4.52565082792473,4.769907924862762,0.1953154667069561,0.36274830340719844,-1.1061033509700247,-2.846874805824155,-4.0585180284648725,-0.6387827922400988,-1.4541962966044992,0.6612168379452288,2.116204948593444,2.6711242817089103,3.412550169796596,3.5183614970081125
26,4.509999386751288,5.151103845953776,0.6722117028623504,0.9799522743750284,-0.4254945954550751,-2.307329611910426,-3.171734547793842,-0.042173376268868495,-0.17462263545901857,1.8273051427017593,3.629151818292653,4.206846612463302,4.853456460385432,4.808358059864067
27,4.1747963844639155,5.038132219296633,1.1126242018212014,1.4661909532875934,0.2298964560319691,-1.5749136894992328,-1.8912287003204538,0.5937114735886826,0.9626860218733584,2.6490008180249838,4.7144679989798295,5.372036170753503,5.744444283394724,5.5420988570992105
28,3.54426406913272,4.438077264810531,1.456629847006529,1.7609912555452814,0.8013761163042734,-0.7135320711422791,-0.3666979700106669,1.1980887986611297,1.8741773301357993,3.0537813583310705,5.279638699649449,6.037966704039645,6.00999372213642,5.672245520646446
29,2.6623134103482085,3.4058494141040114,1.6494915635189513,1.8271923621308692,1.2416759986165087,0.20201427047355414,1.222644143154577,1.6989352913999356,2.506804973767557,3.022977210293615,5.2868642595555935,6.12104332317638,5.640676257879324,5.210261791522402
30,1.5887394031552649,2.0391105365898654,1.648452494417186,1.6555695569788973,1.5197344774722523,1.0927686894128414,2.688512153494981,2.031286747665938,2.840896980929856,2.5918313822903065,4.756148183185669,5.594378053214307,4.693895924826449,4.225709607139241
31,0.3945673757848383,0.46855336033270223,1.4284836405699204,1.265906496174558,1.62357166363967,1.8827307700922191,3.8552874045326604,2.1452520490622478,2.8890197970093094,1.8426908360243976,3.7620571893557715,4.493401985925517,3.287056871449652,2.8396172572424714
32,-0.8430200815869021,-1.1554603946511774,0.9863414768554243,0.7044459697500514,1.5609615828224281,2.5057385243301527,4.580571478576527,2.012809379768772,2.691362380010876,0.8925594920718731,2.424658338845357,2.9145016746629913,1.583958649312391,1.212352646868829
33,-2.045746771940186,-2.678426761953167,0.34251028457495397,0.03811713694349537,1.3578505589426046,2.91150278315479,4.772151269076792,1.6325287460342388,2.308534770339757,-0.12305750431235653,0.8957994345225454,1.0065466567517358,-0.2239302236434601,-0.4728888804344597
34,-3.138927483674682,-3.9576282371347635,-0.45916474174515415,-0.6536693947140357,1.0547147711398903,3.070210837248459,4.399333678470483,1.0315375360444559,1.812878086353627,-1.0677105658640809,-0.6576128914118499,-1.043901968806664,-1.9390494861567418,-2.029298605851459
35,-4.055510312303447,-4.876642163214296,-1.3541332831487147,-1.288593912952183,0.7012733381652742,2.9752127625827205,3.4972229560600305,0.26430838235865145,1.2794191691808956,-1.8206273364774246,-2.0714146582657524,-3.0320741740609694,-3.3795898823071577,-3.2863003875887515
36,-4.739341499399685,-5.356777942668018,-2.261879889884254,-1.7911729561619203,0.35016041294490624,2.6434633837766857,2.1633210149117654,-0.5918165622444338,0.7774986252524444,-2.2903556174579793,-3.2011080286763587,-4.756901188729847,-4.399034339734999,-4.107815068471847
37,-5.147636879443379,-5.364166976114517,-3.0923910999037316,-2.101501276810922,0.05029334536731385,2.1136076604949228,0.5467393390886125,-1.4440739944548926,0.3638935504915554,-2.4239266046182175,-3.9361334965893846,-6.042746262852839,-4.901163821045406,-4.406852286660009
38,-5.252730988281993,-4.911760821043794,-3.7538720655022058,-2.181969936275224,-0.1592666930153074,1.4418478880533385,-1.1687923678577419,-2.1940329331066173,0.07798648817801954,-2.2107365783141026,-4.210086563397307,-6.758352120336305,-4.848893953493117,-4.154720343243139
39,-5.043216277795653,-4.056120727105158,-4.161145407815487,-2.0212128321518756,-0.2541977700502585,0.6959874166742098,-2.786167221398747,-2.748657934006916,-0.06075987093473325,-1.681096629862336,-4.005979207291008,-6.830755583223059,-4.266099382556758,-3.383749364049695
40,-4.524576002202365,-2.8895279340867197,-4.244101963695755,-1.6348899909541394,-0.22791042871928766,-0.051727470348372113,-4.1178979058276415,-3.031454206383376,-0.05303896631762607,-0.9000959364546198,-3.3562227904860555,-6.252573788522176,-3.2324628073317996,-2.18318150812524
41,-3.719358992089781,-1.5285191058819727,-3.9555314975364007,-1.0633102031662471,-0.09223628447347147,-0.7321816737406619,-5.00813297123539,-2.992367277255938,0.08210779354249578,0.04203438237943121,-2.3375851810878934,-5.081918979524935,-1.872236747320439,-0.6886979394863466
42,-2.666857804198511,-0.10037061619403237,-3.2776419678405087,-0.3662776640508795,0.12431914607569391,-1.286521180151008,-5.351046610978625,-2.6151674190752203,0.31074059659225356,1.0415515059739684,-1.061883019447183,-3.4351219347297914,-0.3385136983097565,0.9331826043447466
43,-1.4221598580703525,1.270740146593004,-2.2265886008359765,0.3841302669771396,0.38057580567156657,-1.6720121650843431,-5.103372870761772,-1.9212701964977228,0.5886253669581386,1.993248229123913,0.3364407417400966,-1.4733080902291364,1.2049266912578864,2.5039857530593133
44,-0.05437562057422181,2.476203130566498,-0.8543955736035956,1.1119222249389442,0.6284420923271113,-1.86594929440783,-4.28955375643145,-0.9693145463200747,0.8664855585289288,2.8014926317555204,1.7144624519980194,0.615435777785846,2.6019395629588216,3.853215180285569
45,1.35616345167153,3.43264349339063,0.7522188651461813,1.7456542497441616,0.8197007891633628,-1.8671785023049492,-2.9988675363012662,0.149697806023664,1.0954171124523264,3.389154445194541,2.935169289691145,2.6361225808467372,3.7203623971022908,4.837010055877598
46,2.7218847353832043,4.08780715062314,2.4763958051450685,2.225987310613812,0.9129171717536685,-1.695108051684251,-1.3748852898359913,1.3213583159671671,1.232026579863465,3.703723247304854,3.8806809611587383,4.406819477330478,4.464615930363488,5.353391553161221
47,3.9531457595053294,4.4222455237769935,4.17906084443357,2.5114871272232704,0.8795282712866668,-1.3864043846135854,0.40145660410006373,2.4200297394152135,1.2429059466446852,3.7203499100249804,4.463073538420922,5.776300754474827,4.783351427160835,5.352416895447678
48,4.964414463057358,4.446972243571808,5.709857572051754,2.5820652110608844,0.7082615821040321,-0.9898568090305653,2.1331021815707123,3.322921256026212,1.1081133223818755,3.441919493968713,4.631861982610889,6.637593715124392,4.671608868820085,4.840202030565296
49,5.681044635292356,4.197793791178073,6.920335080400213,2.4397774193776933,0.40724080911094385,-0.5601079136771155,3.6298528640814354,3.9244241700179576,0.8233851001621293,2.89654725629994,4.377547027654316,6.936181542063005,4.167633786230024,3.8765143455966338
50,6.0460114973482595,3.727408504142805,7.678263974894331,2.10703624829188,0.0034398452096689046,-0.151058736547612,4.730288246496756,4.148952299702589,0.40087111380801793,2.133065560501448,3.7310164801958914,6.672291425772288,3.3451101548885194,2.566384183587687
51,6.025817294079966,3.0965783645635545,7.881669990628241,1.6226135624590947,-0.4604933843605069,0.19024243972502708,5.319989569724668,3.960636243826166,-0.1317234849019762,1.2151523661541246,2.7589861573489673,5.8973755304050695,2.3020418440727624,1.0468615558739347
52,5.6147403369460145,2.365692722322256,7.471038437558856,1.03607349470454,-0.9316505742072807,0.4285272698507461,5.343902632206067,3.3685538107799977,-0.7335754958653855,0.21476802624980024,1.5560469811819444,4.705518315510904,1.1478206389534367,-0.5294129069794887
53,4.836712813118223,1.5878770780763884,6.438198295208399,0.40144910794344907,-1.3537924858575223,0.5435467694873616,4.811428215301408,2.426706051583421,-1.3545834398570697,-0.7944624546715485,0.2342211797682935,3.221019009860984,-0.009861748791510933,-2.0118054180820284
54,3.7443668890225994,0.8044869081663568,4.830649915649193,-0.22896160775133478,-1.6748375557990993,0.5313701395354333,3.7937554777411417,1.2286012429365187,-1.9402633215954153,-1.743348895893009,-1.0888150203382887,1.583755131924189,-1.0766714583128327,-3.268330836668625
55,2.4151444602148167,0.04341319617468725,2.750530032332757,-0.8098648272841925,-1.8538537416212484,0.4037539762470622,2.413932651970002,-0.10300097080034054,-2.4372088128185165,-2.5722387939535927,-2.3015485899289705,-0.06590313135993352,-1.9805263402147655,-4.1993700075044025
56,0.9447607962021854,-0.6798310394256788,0.34796339116841235,-1.3066667123943756,-1.8665559383610169,0.18582845841775306,0.8310672785113871,-1.4300003323813402,-2.7985321821764884,-3.2347672136100925,-3.309201578444098,-1.6009045773148156,-2.676799432034433,-4.746895639857832
57,-0.5613210985690753,-1.3587140673621283,-2.190831984674995,-1.6972304788482235,-1.7085246947589163,-0.0874799513221676,-0.7792541341632382,-2.614848465463559,-2.9886825632216767,-3.700043880143561,-4.041935095484475,-2.9185837847031935,-3.1494228823221726,-4.898237753395579
58,-1.997467888122638,-1.9908099179656045,-4.659709975666396,-1.9716568815310174,-1.3957011692631027,-0.3757794711468434,-2.245826846399354,-3.5364744526407264,-2.9870980549866064,-3.9532311680791365,-4.459866945850738,-3.947937292322703,-3.408048263350265,-4.684134981863176
59,-3.2674108713607297,-2.5724991359235783,-6.8515248680329375,-2.1303754068765355,-0.9621229354132115,-0.6377791150707285,-3.4213878710459253,-4.104268880533597,-2.7902789517704734,-3.9946319724881967,-4.554492340015417,-4.652599409549641,-3.481955241274494,-4.171552249345968
60,-4.292628797218144,-3.0943485974812828,-8.577923574006759,-2.181095130805906,-0.45527368123413425,-0.8356249453802941,-4.198537152958116,-4.268376714790567,-2.4120487657194842,-3.8375511339137685,-4.346549242443511,-5.029572082530895,-3.411827426866345,-3.452395784893338
61,-5.01859597785473,-3.5381349343876756,-9.6878999493295,-2.1353143872050353,0.07024340903716533,-0.9386316345748181,-4.520204544533951,-4.024996536193883,-1.8819714320245708,-3.50529575024947,-3.880798899303241,-5.104272209256678,-3.240767123060267,-2.629735792568082
62,-5.418173021805985,-3.8761764341455116,-10.083038259402954,-2.0051034885892047,0.5597855901968946,-0.9261399115442831,-4.3835763122155855,-3.4160009517833227,-1.242094885562953,-3.0277266222581947,-3.2185413976609847,-4.922850733116687,-3.0059659912375607,-1.8034010785260455
63,-5.4917858388219605,-4.0732304693716355,-9.727653270774653,-1.8007598581866633,0.9655147047717729,-0.7893357578373918,-3.83723811369067,-2.522909178196562,-0.542375286110181,-2.437769494699583,-2.428920732553377,-4.542978712137702,-2.732289067929878,-1.056822469854497
64,-5.264471910725133,-4.090767750094469,-8.652557211665759,-1.529720187792868,1.2520930722343881,-0.5319629076141509,-2.972146361308733,-1.4559721407835549,0.16471269075217382,-1.768255078911861,-1.5801768953170225,-4.024381337082394,-2.428698348116565,-0.4467867484209913
65,-4.7803096598633035,-3.8930235197074614,-6.95190052231845,-1.196844331001993,1.4005129325712875,-0.16994378111137992,-1.9078053863396507,-0.339780698236143,0.8297684317094919,-1.0493950026115215,-0.7319675015762873,-3.420342411443311,-2.0879923803154665,0.002645962228678119
66,-4.095116329252323,-3.453910803670368,-4.773356835521978,-0.8059090737045651,1.4096170865540412,0.2700022133861656,-0.7756125039134062,0.7027098952227396,1.4115999413975366,-0.30712343487895616,0.07028946969824239,-2.771216366987517,-1.6898332165966508,0.3013601700973548
67,-3.268536606963769,-2.763703981835554,-2.302739221288775,-0.3619120434751855,1.2951873807378704,0.7525898547233618,0.2983388984103116,1.5656060143346744,1.8812571004158987,0.4375602225176722,0.7983929650730857,-2.100693252837083,-1.2065383241413508,0.48946661033700184
68,-2.356705301402742,-1.8343826017822298,0.2551741560294761,0.12637551849183085,1.0868032837934598,1.2368464580077179,1.2086880333405563,2.1728690992184485,2.2244183124412067,1.1682271655710776,1.4413809236270132,-1.4151925043549012,-0.6106977521708026,0.6292084100416915
69,-1.4065443494014849,-0.702667068847259,2.6973602422704808,0.6442274787319769,0.8229681333750819,1.6794069100689737,1.8824565253804253,2.486742106759608,2.441768932654118,1.8717454955515225,2.00274777006635,-0.7063540864280428,0.11660631500721345,0.793612426079476
70,-0.4524717084087161,0.5699358003347664,4.842394195888564,1.169719209117858,0.5452276705692712,2.037987739712232,2.2854907181990036,2.510682778213712,2.547267417788973,2.5363443462126667,2.495415823930177,0.043799968016502065,0.9783074202404455,1.0534245195320466
71,0.48409672866877673,1.900363404739687,6.547125949502688,1.6738284945591344,0.2921317555089076,2.2748113631040328,2.4230497414235117,2.2864629702392647,2.56449552528286,3.149379336592225,2.935347737177499,0.8557978271532983,1.9558330193158353,1.4640931984484364
72,1.3925208841150414,3.190338154501369,7.718327119734419,2.1220502441514077,0.09389700838662751,2.359769830348539,2.334758010998658,1.8859410942556143,2.521586178332416,3.695234482967086,3.334884152947121,1.7447507268618394,3.0065253829649037,2.054569686879901
73,2.2684881649920015,4.33520686399802,8.3181035726873,2.4774189592694036,-0.03148687023616816,2.2731380047179206,2.084954592373891,1.3987922098435457,2.4454638171717082,4.153800203080196,3.696921387844906,2.7126159372732865,4.064559342316939,2.8194669368051746
74,3.1081967742298136,5.234290391937802,8.362668059036684,2.704566455712185,-0.08018655416461248,2.0076633597423323,1.7501049827969766,0.9180603046777073,2.3562709153631465,4.4998951749895815,4.0109018197930455,3.741809816769267,5.045405236895943,3.7156880160222387
75,3.9022482503615676,5.801504741152344,7.914903991244438,2.7742322708100042,-0.062265636317912564,1.5698730861683357,1.4053003240818722,0.5256871592506281,2.2628650728061723,4.703864132740164,4.251304880583261,4.791155220620423,5.853373548359084,4.6640574302528774
76,4.630401422530637,5.974935669717883,7.071925068404639,2.667531792117473,0.0006665929035941365,0.9804554118700983,1.1119147973724928,0.28013417543728214,2.160151759432535,4.733413444196372,4.3789569630160265,5.794909604707904,6.3913467334348315,5.555861264257186
77,5.258259142587182,5.724159017631005,5.949454701484909,2.379296574809104,0.07950180614434771,0.27360045981774284,0.9082349729169986,0.20786614514832477,2.0287849318259337,4.556573146485946,4.345087535848445,6.665311451195471,6.571521852468548,6.263621533043505
78,5.736728356190429,5.054380970009101,4.665238393659376,1.919931056311018,0.14274184663448003,-0.504765158681081,0.8043671468816613,0.29987334588979775,1.8374518065154424,4.145523229506588,4.097698018986353,7.298731032319564,6.325888316866254,6.65496954388354
79,6.004735157629017,4.006879415194636,3.3238098221642978,1.3154539026210483,0.1618943500307359,-1.299841415197066,0.7820533657392759,0.5136671327712264,1.5476011478402862,3.480911936198092,3.5895172228385963,7.5851396716867034,5.615247810086516,6.608180139438192
80,5.995229049162622,2.655696776941446,2.0047352606044466,0.6056684314757866,0.11634915638704899,-2.0518070247314264,0.799286122196314,0.7804066779461648,1.120124957940211,2.556235125477553,2.786618238380605,7.420240502226722,4.435818595609356,6.027791797543826
81,5.6440239928516585,1.1009987027162693,0.7559704233927218,-0.15931455658260457,-0.0029817574450917983,-2.7004345305892703,0.798910462159103,1.0161083291417696,0.52320590042277,1.3818343748922701,1.6766768535031515,6.719252967384749,2.822798304063482,4.858751873304451
82,4.900549362027628,-0.5400933761286564,-0.40677677269937423,-0.9237451249858581,-0.19178787054559188,-3.190124024888422,0.7198330914123912,1.1353404416273352,-0.2596708768874037,-0.011911924947683384,0.27585298768731303,5.431032241407709,0.8506150352725472,3.0976599867132615
83,3.739176242352591,-2.1441183613855648,-1.4946891474401913,-1.6314871805264333,-0.43251441124047085,-3.4749153986147077,0.5090923862650568,1.065474106304052,-1.222652515382004,-1.5726086903582956,-1.3666432455042266,3.5509601872951095,-1.3700919169086847,0.7998995046867466
84,2.169505279103115,-3.5921497194130843,-2.5354455945272174,-2.231200333984432,-0.6965248052533121,-3.5229872023866586,0.1329256355990304,0.7594767351003942,-2.3325022556933317,-3.2254625345012644,-3.167093274951905,1.130908527417231,-3.6984933764501187,-1.9182788653433809
85,0.24391406161404375,-4.779784965351577,-3.5595846224758083,-2.6808447796648838,-0.9479683046428783,-3.320156623396325,-0.4148864991129448,0.20540968912018223,-3.5265981540515434,-4.874860577758331,-5.009500892422125,-1.7154004025347824,-5.972186393649408,-4.8833351689169024
86,-1.939188502235221,-5.625294337676614,-4.586015243253722,-2.951034741845208,-1.1488133719745697,-2.871963921995731,-1.1087340509552193,-0.5687948048505397,-4.714646950416983,-6.408211609116484,-6.751808891104154,-4.813078836028388,-8.017921909487741,-7.873918175030392
87,-4.237553997543862,-6.075257823400057,-5.609304249142546,-3.026950390714701,-1.26434444486152,-2.204050512867991,-1.8917130191596758,-1.4960957376145472,-5.784430821360909,-7.702226323923016,-8.236034099005023,-7.9337866754886734,-9.663907660455108,-10.636042371625246
88,-6.473267406826683,-6.107354516811663,-6.591199424987162,-2.908722000570662,-1.2683521680795744,-1.3607094481960704,-2.681059946302761,-2.476737731548919,-6.611432870561754,-8.631604471768869,-9.30181932949713,-10.810771185861064,-10.753080411458246,-12.90325833626247
89,-8.446670617838635,-5.7303064280725104,-7.458277676224492,-2.610393088663692,-1.147285124483239,-0.40168110348311314,-3.3778628824987553,-3.3896185439024733,-7.071669602306493,-9.079805746214888,-9.802431562034682,-13.160675824455044,-11.156631530670397,-14.420557028502353
90,-9.954995450501581,-4.9812815281209515,-8.106709159697548,-2.1577288480564447,-0.9027704474827961,0.602539214441981,-3.879808367129192,-4.107286839250165,-7.0565535911009345,-8.951232882694908,-9.621788862396636,-14.710621742729886,-10.78692042550668,-14.970189081839544
91,-10.813924224098148,-3.9212953018564565,-8.414028870348051,-1.585246748546626,-0.5521330907033399,1.5764500843076885,-4.095277242071343,-4.512703545937564,-6.488184911513637,-8.183793354498523,-8.690743057707005,-15.228163944251415,-9.608746658930084,-14.397085568115248
92,-10.879732166999206,-2.6292892729552197,-8.256661187546838,-0.9328964037581557,-0.12681770366623635,2.4458082372322365,-3.9568849224611746,-4.51560805728584,-5.333194646805258,-6.7604860731972645,-7.000648296121364,-14.5509923602685,-7.647816526233982,-12.631225588495385
93,-10.069363666537786,-1.1955939467273597,-7.530916122395514,-0.24280023849600452,0.3310966134680431,3.143827377165191,-3.4325992849579943,-4.066313324318117,-3.6131985425018067,-4.71844566800751,-4.612263422298822,-12.612813722693462,-4.995188808296785,-9.70419730589245
94,-8.37580721706756,0.28459154703345435,-6.174427730800798,0.4436101480789668,0.7738406971646024,3.6167563330823946,-2.532854214774744,-3.165020508347701,-1.4101054182203614,-2.1538378280636143,-1.6583059458360878,-9.461821817054924,-1.8065778066951939,-5.757412000133661
95,-5.8764817015968065,1.7172219884135818,-4.184667942821217,1.0878484335560292,1.1537168652235488,3.828357432989359,-1.3125722674631153,-1.8652673747543427,1.1350255351876533,0.7788043197588969,1.6614933224313855,-5.268612411490405,1.7043207591811655,-1.039991011207315
96,-2.733009742215852,3.0146357519976408,-1.6313223999574886,1.6559473310918202,1.4289303661745993,3.7629165706167007,0.13234778924095114,-0.27084199023473177,3.8302024461650537,3.8737502529180814,5.093222459476219,-0.32133270496044836,5.278815909391276,4.104753700461089
97,0.8183303414273376,4.099876273952449,1.3400352595550187,2.1194161594096608,1.5687397120399367,3.4265499086662747,1.6738180292062754,1.4736877533140984,6.447576244850991,6.887987571191756,8.348972058749018,4.992797668439836,8.632170709997252,9.264140340993274
98,4.485113904063353,4.91012988688511,4.514458000355654,2.455751291189484,1.557271218098543,2.846718379376914,3.164687335591917,3.1978633378498738,8.744259341364955,9.561242612221951,11.132860435135775,10.218839756731498,11.477371297936228,13.990778521320799
99,7.944783366059263,5.399383470127208,7.624447585383104,2.648720395884887,1.3955228811928748,2.07000660199249,4.45470918121228,4.7239694271105686,10.486933258399091,11.640532592471356,13.170491492864155,14.875915421870518,13.551776383084206,17.844242769762555
100,10.875716761705508,5.540415875470488,10.375723611793324,2.688629338422169,1.1013173166100985,1.15835287344208,5.407473203011701,5.887224726871493,11.477624254682699,12.906831033699453,14.238744311628311,18.50542232545698,14.644041303897842,20.435743073531437
101,12.990147223448352,5.326186489909528,12.47919777900934,2.572708258452035,0.707219776334356,0.1840233751881038,5.916267562885616,6.555092769240599,11.577638941212564,13.200818423207501,14.192429790748653,20.720521774100163,14.618304013493654,21.470968199585712
102,14.065318540991264,4.770592102018882,13.685338953059514,2.3056383131312086,0.2566844956325566,-0.7762922865755861,5.916930517366951,6.643328678091702,10.726624688071281,12.4444396635936,12.984405237032169,21.251142814945048,13.432578503739007,20.7860154303112
103,13.969266778891186,3.9084589498976814,13.816526090312514,1.9001112380368723,-0.20109495571098157,-1.647820617841765,5.396080860480245,6.1267352262201245,8.954088889282191,10.655179587850082,10.67625337033958,19.97886460567091,11.148680242825947,18.371707810713932
104,12.678061487489412,2.7945565481743,12.792994143183178,1.3772057377451916,-0.6169984722397622,-2.36398346974407,4.393654926921181,5.043225008149827,6.381463914490769,7.9506214433781235,7.437585747643679,16.95691721027212,7.93180353715169,14.382648538229951
105,10.282189877491154,1.5013968858572526,10.648607188073438,0.766310376780526,-0.9477376162494366,-2.8720884123605392,2.9993631311742375,3.4906010822695275,3.213874012904657,4.5419260538448745,3.5333303831218372,12.412112325431998,4.039010635119278,9.128982394658845
106,6.980932623787,0.11563519908835518,7.5338716865383235,0.10433818912182564,-1.1608432889850244,-3.1379007612758825,1.3434265636222298,1.61637152635971,-0.27797803994180487,0.7162389970282887,-0.7001499892976932,6.727598896911427,-0.20276214533203546,3.0508409759021036
107,3.0649248099569473,-1.2669841238141177,3.7051773423424654,-0.5659408616548949,-1.2382624670182731,-3.1486182384120776,-0.4173360570312326,-0.398216913827233,-3.7841028925710374,-3.190489455010957,-4.887795673945103,0.4076641283252517,-4.427213424270373,-3.3224148622994516
108,-1.11153658993137,-2.5480066494290696,-0.49898393826746357,-1.1984937192542602,-1.178124839195356,-2.913884274613162,-2.1164246271890126,-2.358021077607975,-6.986870292510248,-6.8274223590146335,-8.653899394863458,-5.971943230095055,-8.264554674252997,-9.424064174706302
109,-5.16564490554532,-3.633623494466718,-4.692351994447388,-1.747430678909443,-0.9944825569115542,-2.464654159031031,-3.5955636291361315,-4.075337850521779,-9.594385925353572,-9.865603586997555,-11.661114569287195,-11.822806628298492,-11.378794103331126,-14.707375966077
110,-8.724954992933094,-4.442438968048135,-8.48187598051522,-2.170949236639053,-0.7150942789123165,-1.8499535487107717,-4.721473532920959,-5.390179738847281,-11.371631313456435,-12.033144948099855,-13.645814920745543,-16.605136746009023,-13.5021376090526,-18.701939634522727
111,-11.465698503504628,-4.912911076583274,-11.51046854814567,-2.435402506989205,-0.37757866336346235,-1.131813686688651,-5.399542754490638,-6.187087344325106,-12.165575944104187,-13.144464537084453,-14.445552245778913,-19.88450251165786,-14.462445612689185,-21.062421997456607
112,-13.146229959762936,-5.009627749623682,-13.496337370118887,-2.518991780725122,-0.024466230399959193,-0.3788969378057305,-5.582843672543105,-6.406536715048428,-11.921166955570438,-13.119885939241566,-14.015289871754735,-21.377362769461172,-14.200451093162357,-21.60399218001772
113,-13.631771894223588,-4.727590647174408,-14.264045776145608,-2.414566291198244,0.30219282680858645,0.3404959740051679,-5.275539427116597,-6.049704069855682,-10.686230601354083,-11.993118589137866,-12.430475903077742,-20.980033677998225,-12.77465794506679,-20.320209351898953
114,-12.907584869636418,-4.093814252528481,-13.763451117753991,-2.131079756570732,0.5659650167322869,0.9652491765766323,-4.530445415539989,-5.176200683570691,-8.604725143741762,-9.905713378529112,-9.876673196641825,-18.777688020103252,-10.353343845364334,-17.381282765205075
115,-11.079012641866923,-3.1658089531097335,-12.074182252794534,-1.6933990889459258,0.740260562141586,1.4473018508935491,-3.441241801660519,-3.8952701268164764,-5.899267807066146,-7.089294944408231,-6.627152396360213,-15.032388461687077,-7.194685840312607,-13.113009719131158
116,-8.358383843418217,-2.026873048034262,-9.395142688822805,-1.1403649114439525,0.8111282137809885,1.7558927208434396,-2.130479076080055,-2.3517324789852982,-2.845210470129509,-3.83795964248805,-3.011343906113669,-10.151697114541337,-3.6174889851155454,-7.959052719191456
117,-5.040303097051436,-0.7785196903695445,-6.020417908592481,-0.5212352203321716,0.7782957151212593,1.8797110843336549,-0.7349910879559861,-0.7085647876741828,0.26042626876823227,-0.4744628535267942,0.621871940404717,-4.641748549299127,0.03387467715662025,-2.431215825391075
118,-1.4682478553460039,0.4692470406490439,-2.3046713696984775,0.10913111175128284,0.6543779516724165,1.8267573526615992,0.6094289613481689,0.8716510080782675,3.131273222370532,2.685473321708164,3.941523653117991,0.9494819464611997,3.4260706341702223,2.946240207793627
119,2.0035713423511976,1.6087754213188643,1.3775947471003136,0.69580986730175,0.4624287617220338,1.6220143833593967,1.7822476846812563,2.2441429490296128,5.521257291604475,5.366312025615766,6.668120694836839,6.091878320821018,6.270634238964881,7.691617960212832
120,5.048570343002793,2.5455035173672407,4.673834406177631,1.1894131073557226,0.23224036086732294,1.3033144949272144,2.6897180775731044,3.296220366117716,7.2481372112785385,7.359419204816648,8.59966360173596,10.328791019211701,8.35121278155594,11.413784840207509
121,7.401858572760123,3.2073320197439354,7.2912040004172995,1.5510840455591988,-0.004038631673661837,0.9160129271074955,3.2725688417495773,3.956912083318648,8.208447303615113,8.540492711923278,9.627447470132836,13.32216441245252,9.541376258120787,13.847878780896428
122,8.886076147423509,3.551510631149033,9.02580197652936,1.7562849369848568,-0.21631785815267457,0.5072101453631416,3.509265378914132,4.201162758356766,8.382607315317268,8.876221024650516,9.740435040513313,14.88226227039526,9.811454449523307,14.87515142144921
123,9.42613577358559,3.5682070381692608,9.780156862423613,1.7969285005809243,-0.38038806268706127,0.12028353202103537,3.4148298363712994,4.048512935879756,7.830281532623115,8.42016806643781,9.018471146329437,14.979115500924514,9.224282590292356,14.525471927316701
124,9.051439563282617,3.280334395061575,9.567321046445107,1.6816105404415833,-0.4806465088277336,-0.20960299500144514,3.0357354941791406,3.5568698800005176,6.677278305574199,7.299241912359354,7.6159676062401,13.735164673516037,7.921090410787741,12.963189605723988
125,7.885751670513592,2.739682383299487,8.501694858773426,1.4339391449020804,-0.5114100925899683,-0.4585233728794502,2.441809240007355,2.812520541187145,5.0962141785665915,5.693166498331385,5.73872946766256,11.40090792853599,6.099875622641028,10.459024440442462
126,6.126477400065349,2.0198661576498815,6.778397329299199,1.089195300390775,-0.4767307599681759,-0.6150962258173871,1.716344901023794,1.9178906527065898,3.283730553621512,3.810019503712038,3.6172046595281664,8.317388683314448,3.9893350749773684,7.352178546776892
127,4.016414479567162,1.207015216876927,4.644393260750888,0.6897715520371986,-0.38885737239418544,-0.6800770754949478,0.9457322310932376,0.9786920525524113,1.4372170230798686,1.8610863534783908,1.4795820991731559,4.8708147804478115,1.821721478621638,4.007774862714315
