,AF3,F7,F3,FC5,T7,P7,O1,O2,P8,T8,FC6,F4,F8,AF4
0,-0.45043755011851044,-0.5981280189555299,-0.38862072495165684,-0.39099879725358383,0.015657127382661257,-0.1256588316679522,-0.36911012651721203,-0.04453314438344674,0.20420251327606823,-0.06002705927567536,-0.1869007173189679,-0.74875113073067,-0.6946450820418697,-0.9094231431435775
1,-0.25412431824380405,-0.7588534563317172,1.0514592270770642,-1.4623191089208685,-0.6851126178872027,-1.0923147381006861,-0.38227424873390836,1.3316929694361184,3.367135450181619,0.6297962038897598,0.7108055218853874,1.1337432716653413,-1.5642663047285579,-0.49379986360614053
2,-0.12005704154905261,-0.8864266631259718,2.3877726220116138,-2.4005717172239818,-1.3125758185885807,-1.9523768605603318,-0.3671506795446145,2.6123872355501225,6.309187953136241,1.3476704270955475,1.555339764258161,2.897515164638948,-2.334454326376765,-0.10404501024736541
3,-0.09432465602987845,-0.9768618611580163,3.5216408290772874,-3.101140137749266,-1.8101564431138815,-2.6206452520727477,-0.28481080988930196,3.695055064140076,8.792007964177587,2.071725656252903,2.2618202714927698,4.4145071348511955,-2.9527971692264376,0.20809146060021524
4,-0.20204294457590458,-1.0314347118739313,4.372351322520363,-3.489739703324128,-2.1376166067598343,-3.035903322206021,-0.10804493043752729,4.492581361752532,10.612152082496415,2.7637739592954924,2.75571449515303,5.580715301684177,-3.38083842724015,0.40447035880063775
5,-0.44364889585203715,-1.0571429607923646,4.881923759199817,-3.5321720458709183,-2.2753459054461116,-3.1680431467016725,0.17219711339854418,4.940463892589671,11.620090693565995,3.369294958640224,2.980000328594746,6.322502179004518,-3.5983987889562687,0.4640593832909912
6,-0.794979447235244,-1.0657584317410667,5.018048299208394,-3.238213965532628,-2.2256283584914534,-3.0208116881954434,0.5434087288157667,5.002163344572564,11.734318483153904,3.8214355741766615,2.901035871691856,6.599792028140858,-3.605515097642755,0.3839824669017269
7,-1.2110279647552202,-1.0714983223647252,4.775252748241481,-2.6591276835856754,-2.0107819080197076,-2.629886424993695,0.9717806026122184,4.67215207652052,10.949137580774154,4.0488346789261485,2.5126122030896823,6.406314575596551,-3.4216363088552657,0.17827367494794236
8,-1.6327270137124212,-1.0876512530395388,4.174450932997238,-1.8792710700557695,-1.6685765945906714,-2.056695189784546,1.4061271372635915,3.9764491188641364,9.335375908378607,3.986371485015697,1.8377951854301158,5.767399699316503,-3.0821314227163787,-0.1251721665378569
9,-1.9956807600228361,-1.1227649547336611,3.2610603456930476,-1.0031904589387894,-1.245773576125823,-1.379008701673936,1.7849269362920883,2.9706342882201584,7.034034348331143,3.5873036257626603,0.9283026852925387,4.736016774849597,-2.632598502313903,-0.48875238215870404
10,-2.239527224691647,-1.1771812868472742,2.1018651518490032,-0.14025061339791828,-0.7909105390919408,-0.6797668346093542,2.045433571406415,1.7355193024923896,4.243531420072872,2.8348160365430526,-0.13869201278734966,3.387775690056231,-2.1218457356580847,-0.8696711640563106
11,-2.3165727767862867,-1.2407399128607446,0.7807709590557741,0.6108126282288522,-0.34753807016359206,-0.035793625130900654,2.1334945418462588,0.3708097665942457,1.2017757333500712,1.7508471970242736,-1.2662788041506585,1.8154839908508196,-1.594670862147322,-1.224184794852303
12,-2.198495256506541,-1.292335840653296,-0.6064139203380582,1.175093236597022,0.051027914066901894,0.4920085698305626,2.0126123111998706,-1.0127787874206686,-1.83527574139594,0.4002667349077319,-2.345802326078771,0.12364268586492645,-1.0856340866986627,-1.5111568356115244
13,-1.8802221715443517,-1.3017172848240905,-1.958006356598875,1.5105805931741945,0.38470045315511714,0.8656952405487564,1.6709004784758816,-2.3023802377946008,-4.616623730440158,-1.1109407715165505,-3.266637062797015,-1.576968321736029,-0.6148757102001919,-1.6947461867350369
14,-1.3805121469098889,-1.2335016383664037,-3.173052580548453,1.611919936898368,0.6470703304115928,1.0737249801660143,1.124896043789279,-3.3921600533053695,-6.918700503417233,-2.6439470940743273,-3.926994240127019,-3.1746541931053827,-0.18669330676675722,-1.746270622948977
15,-0.7392503762685346,-1.0529524237066634,-4.158191193412814,1.508562842015544,0.8434843349967086,1.1305379039547518,0.41962019569335873,-4.192122873846376,-8.565235329716606,-4.041226425888218,-4.2447708885436155,-4.562263819044366,0.20887362013056154,-1.645448358438093
16,-0.011948661792721546,-0.732686750884709,-4.8343810756766015,1.2578623792845438,0.9873257193294961,1.0725196480240191,-0.3752357349732428,-4.6358499087511325,-9.442640846587173,-5.14497961280293,-4.167292088623464,-5.642887757749248,0.5917169326832921,-1.3812974706738101
17,0.737655639958517,-0.25924121416124596,-5.143046638269519,0.9343875641206844,1.0953309416849293,0.9510457682422463,-1.1726438778827397,-4.68652120286698,-9.509437860708656,-5.81742771121885,-3.678762587899728,-6.3358285816749325,0.9853295614583975,-0.9529549667366857
18,1.4457452535035344,0.3616403381930138,-5.051172104888084,0.6172145275317465,1.1828671413993928,0.8236196394423329,-1.8783081718923194,-4.3406748289328325,-8.7987811987882,-5.960102725678993,-2.8043645532115073,-6.58267614025898,1.409564101034049,-0.37056956068866975
19,2.0560775257605965,1.1020046740290907,-4.5548973895191445,0.3771461069774624,1.260013442805766,0.7442988366597155,-2.402334833693543,-3.6292942061733773,-7.413804263846992,-5.529237820400878,-1.6102222790126777,-6.353075282739742,1.8737488520131949,0.34374882953073976
20,2.526029986125393,1.9116767425574008,-3.6812320735540767,0.2657156692863198,1.3290695731760318,0.7546562019545009,-2.6711311443619703,-2.6159890892040867,-5.516199387835585,-4.544786500030104,-0.19887926085011964,-5.649541120511466,2.3714020623756733,1.1551353765005974
21,2.830218091623433,2.7215147017662744,-2.487604201045109,0.30748504392391723,1.3838156121890288,0.8764548200085346,-2.6380471073497898,-1.3922391296830339,-3.309121193963699,-3.0914211903020434,1.2995518949593419,-4.51051682312749,2.8775621107539324,2.015718997889269
22,2.961297045678617,3.4497295060891533,-1.0590905023240198,0.49661619257852796,1.4105302631283616,1.1070388338824944,-2.291318043211865,-0.06990061835474744,-1.0160767946128895,-1.3109620130284545,2.739863101732666,-3.0108386376880145,3.34936636552455,2.8654013601567065
23,2.928045170301854,4.010603700672201,0.49667007730233365,0.7980627519880337,1.3904950094054114,1.4181574091340032,-1.6580863790602953,1.2285638782328194,1.1420966918069297,0.6130854146155135,3.976639959557439,-1.2589126728117792,3.730017296093298,3.6341381011832867
24,2.751281957232172,4.324570548316511,2.056704941929101,1.1530815184869594,1.3035065207442702,1.7585559510393831,-0.8036791306150787,2.3814013730792927,2.96980704647578,2.477027723371983,4.879965042229547,0.6097774297400907,3.9557439052004324,4.246041869170963
25,2.4585228446505454,4.328387903533932,3.4917241680637865,1.488192378275192,1.1318109826809306,2.0602105541290556,0.17413526957246986,3.279446792006821,4.316428891951877,4.081722596491782,5.350121009695676,2.4427580703886274,3.9648821340904874,4.625355820510251
26,2.078454557764701,3.9840917172570514,4.676389949886661,1.7262854929254074,0.8638620779515046,2.247590124833195,1.1555493538930195,3.8373947527050056,5.090972072417466,5.257218976774148,5.329494583596579,4.083641813053864,3.7078325479061474,4.704001939573984
27,1.6362953312766004,3.2855409662074258,5.500129156295499,1.7983290843847268,0.4973729602314536,2.248866242943722,2.0127687660005957,4.003221613379283,5.269967330586541,5.883901630441654,4.810138376345526,5.387054758100721,3.1564597485117547,4.430049584090701
28,1.150886420584324,2.261645741110763,5.8776233558264055,1.6540901757474415,0.041259215758069824,2.0076290043295857,2.6261386223858563,3.764589777628212,4.897559564016604,5.907190988989564,3.8359206473016796,6.23384136714342,2.311504884593395,3.7761376201496857
29,0.6339864898431281,0.9757644515085873,5.7580016273400725,1.2704417016206553,-0.4837687198027459,1.4934806979796913,2.900371450074793,3.151305095219684,4.077702672510418,5.343741372213952,2.4988275037380347,6.544717329117806,1.2067921393403092,2.746676040111839
30,0.09177936085724793,-0.47878658320646,5.131731525214823,0.6561649081987176,-1.0460327805500231,0.7099153905413977,2.778740485340606,2.2332829112924832,2.9593303929562262,4.278283680825991,0.9296957416208944,6.2905274698211,-0.09060570788132555,1.3825979859174609
31,-0.4718553917643715,-1.986705728565557,4.034281903745418,-0.14738293543614006,-1.6050426296108637,-0.30184019946562524,2.253206202470838,1.113964820055921,1.7162971387743229,2.8515888058735825,-0.7156481410026341,5.497519560087575,-1.4845686255357222,-0.23743579628574163
32,-1.0511333117714488,-3.4213453669359013,2.54583367103452,-1.069839803949404,-2.1147565192298114,-1.4638795062332592,1.3688215252814757,-0.08033902913666623,0.5246009050136091,1.2412843652595487,-2.2732792964542026,4.246554389673219,-2.8582530414032057,-2.000148872061854
33,-1.6342567082372992,-4.656893090689418,0.7866360831014994,-2.019227884730009,-2.527632285873509,-2.667802957690391,0.22139088187472072,-1.2141864129244455,-0.46019832228390073,-0.36174699526002607,-3.589132809653539,2.665887680846422,-4.085733411557121,-3.765339530566547
34,-2.2004584943549177,-5.58079419607279,-1.0919756075735925,-2.8922747811290717,-2.7990981138078483,-3.7855953455577973,-1.0518130569012292,-2.158374787718185,-1.122434867330214,-1.7780698537442374,-4.535907862105843,0.9179950675681245,-5.045680799304731,-5.377786060072681
35,-2.7190489262002404,-6.105086488950123,-2.9204043287027237,-3.5864299129980557,-2.892047680662471,-4.684081945187672,-2.2875331074984926,-2.805192982097992,-1.4001200558943308,-2.862078374068511,-5.026903795253927,-0.8182436166844941,-5.635466395907971,-6.682347386741208
36,-3.1509329145082376,-6.175434407039281,-4.526464339955525,-4.012137514645864,-2.7809608910529504,-5.241287369281799,-3.316546552378998,-3.0816804220689153,-1.2912407106290134,-3.519031308408752,-5.025135261193749,-2.3679557327481815,-5.783937321845082,-7.540659481145092
37,-3.452573053206665,-5.776897183007628,-5.752465650510327,-4.1038978796289,-2.4552668322216276,-5.36264730454113,-3.9857895542281496,-2.9591423973264273,-0.8517674407606168,-3.714540626152677,-4.54664980494174,-3.5807502886699827,-5.4611928158669345,-7.847431125739834
38,-3.581872374590952,-4.935822158354994,-6.471953001022834,-3.828793709402243,-1.9216041200395217,-4.994911104691563,-4.179688776018197,-2.45754225516971,-0.18570785541340074,-3.475455793687074,-3.657695208489764,-4.348575274489008,-4.683998490328921,-7.544216210257865
39,-3.5050408680150773,-3.7176795731585757,-6.6042111767524245,-3.1914592659035055,-1.2047022482008158,-4.135760029990424,-3.837728439273703,-1.6439858691106428,0.5713438163181825,-2.882362887989942,-2.466160020197694,-4.618515462473052,-3.5159841227416737,-6.62872430287177
40,-3.2032636465766453,-2.2210921866579034,-6.1247376362524735,-2.2348857658009136,-0.34670727057966644,-2.83764106610086,-2.965638077859463,-0.625256069446812,1.272789065674983,-2.055126777666008,-1.1084254870837666,-4.398689529674562,-2.0624063392117336,-5.158208077406719
41,-2.677943627649541,-0.56870107174834,-5.070198508301961,-1.0369333737535449,0.5951020377142138,-1.2050201945130354,-1.638338773193308,0.46485966209667084,1.7827914217496161,-1.133854506340023,0.2666859332211496,-3.7562889497089977,-0.459929643708391,-3.2461676005359044
42,-1.9534556617910344,1.104196331332875,-3.536908872129973,0.297097244708184,1.5521276938712927,0.6149044953713534,0.006162917219283158,1.4819887659146271,1.9961368887013589,-0.2582094638240743,1.5148746445718535,-2.807847612459167,1.1375023089688983,-1.0524433137279894
43,-1.076705257933288,2.6621155345591805,-1.6725758378721423,1.6450426315883633,2.449579377106096,2.4471351452394123,1.781534097519853,2.289337236328322,1.8534090965421177,0.45190722762819735,2.5122128231567276,-1.7029031671420123,2.5751419056533615,1.232373353523809
44,-0.1132866330174858,3.981765915626418,0.33815303160595883,2.8804613668805112,3.2125638828311396,4.1078007454810646,3.4749252480959423,2.7753036211873483,1.3494099055971833,0.9116590199299748,3.1680687507475747,-0.6031642073978759,3.714386087580786,3.4065120892234835
45,0.8593977304652766,4.9631743599206875,2.292981143587592,3.885855381778347,3.772662556418578,5.424868856405018,4.873201398064865,2.868258958435966,0.5337538290430535,1.0806518939107985,3.4337281618143565,0.3400098862608811,4.448232842985815,5.278306935456686
46,1.7611600605954487,5.538504987276587,3.9940352088951414,4.565075891802404,4.074423354857697,6.258146434565018,5.790264876384149,2.5465205021751407,-0.4963052698297997,0.9654575478999657,3.305912579868448,1.0066946776300993,4.713419718930863,6.686640007937348
47,2.5188933831759184,5.67773619606233,5.270175104608533,4.853538659849736,4.081136527156064,6.516096252070095,6.091871071964315,1.8421245172162166,-1.6096654873126925,0.615396549579605,2.825037253854721,1.3250584103193446,4.497775967250647,7.518058817276399
48,3.075782632326964,5.390637447320559,5.996819403764725,4.725101881174075,3.7792609140924407,6.167329398346985,5.71455281438756,0.8377766614209999,-2.65973976770113,0.11264259522991694,2.0686707022843627,1.2811656459288614,3.841855413211267,7.7184793473022175
49,3.3984096080539965,4.724828468181006,6.110739601816749,4.194819342605573,3.1809351705798705,5.245246143807384,4.675956195632843,-0.34276516186513123,-3.504757434013072,-0.44157514642379664,1.1411792747760068,0.920434386148596,2.834569587111234,7.298063166410862
50,3.4805925233778665,3.760083209240083,5.617803766861,3.3172364649245556,2.3241550289401975,3.8451180926557784,3.0749763930927343,-1.5497515803147568,-4.027161158839824,-0.9424904836957638,0.16091066144119395,0.3404239595716633,1.6032359556389413,6.3287162705783215
51,3.343293259712972,2.5994292924058,4.59247757212388,2.1803990334087624,1.2704219089010245,2.113834447741885,1.0814275978034193,-2.626079418268451,-4.1494394961832475,-1.2967941778008822,-0.7535399041150833,-0.32413205178214377,0.29911323885129015,4.934583438320802
52,3.0305376109848794,1.3579493023822526,3.1689156739490203,0.8962358487088218,0.09994759241964524,0.23345520080572033,-1.0836021034055225,-3.427133450830349,-3.8442819876132055,-1.435113097734481,-1.4964341891073498,-0.9220104661534598,-0.9199644393424958,3.2767795321534487
53,2.6019264676868628,0.1504688438276412,1.5245646627476868,-0.4116016448166156,-1.095204259017075,-1.5994968657231858,-3.1742793372939295,-3.839271507576896,-3.1377761161803828,-1.320493323833935,-1.9859865108964097,-1.309016378191838,-1.9078854524988995,1.5342936003773668
54,2.122868660058741,-0.9205203583540189,-0.14179614824347286,-1.621057890704691,-2.219389772845932,-3.196519189719251,-4.950049348546224,-3.79455606177938,-2.1053621421999362,-0.9520718720821942,-2.172371253662834,-1.3709975065083821,-2.5473875849486864,-0.1165660193532354
55,1.654049460928845,-1.7753345699466985,-1.6348678817001143,-2.6246206171009496,-3.182217377720186,-4.3986553488158675,-6.205272937058326,-3.2798289856622977,-0.8612776602629036,-0.36383394754892723,-2.0419540937382816,-1.0430255168714582,-2.764016595837931,-1.5217003224229033
56,1.2417960443758473,-2.3647429460218414,-2.787347345051927,-3.340402229888255,-3.9069859126445277,-5.094430582555133,-6.79463309559381,-2.3389762857987253,0.4568869425909162,0.3809920452066359,-1.6174949505070815,-0.3218905323281335,-2.535257494299567,-2.5654440901181585
57,0.9108845825419415,-2.6738576342816707,-3.480958677920442,-3.720075165425435,-4.337790565285355,-5.23200047159998,-6.651032155647356,-1.068126530093671,1.7062619703814053,1.198834089199907,-0.954506842658977,0.7300547027606812,-1.893717670128818,-3.181699776006451
58,0.6609724519957323,-2.721778378505429,-3.6612061715050572,-3.752755837272095,-4.444500706675462,-4.824038183808117,-5.79370410717155,0.39555777996516445,2.756837829010352,1.9965830385462393,-0.13434366898030245,1.990478105999806,-0.9239175439179006,-3.358886318550174
59,0.46729285261032305,-2.5570213847633063,-3.3438240903622503,-3.4644255925528067,-4.2250646349214405,-3.944799115508607,-4.325563015360628,1.8900282333160467,3.507176420625251,2.6828156217135053,0.7451092504572278,3.2915404821588146,0.24702104784268802,-3.138393079262569
60,0.2856020043136158,-2.2493039196360898,-2.61195692782303,-2.9130322247362272,-3.704923411907721,-2.7197878434741947,-2.42021452438849,3.2473731012865232,3.8956230699739316,3.1780450022344726,1.5800786685829358,4.441460687284196,1.4637910706234563,-2.6069997400734994
61,0.06071565520760927,-1.878746521444203,-1.604314252455959,-2.1799612715927426,-2.933673362372667,-1.3093834037581922,-0.30038250473506567,4.313334316235846,3.9056556395972293,3.4228746265460535,2.2717463836868803,5.250358061297022,2.5608236212032787,-1.8843909350664168
62,-0.26259295405914995,-1.5239218572305744,-0.4957500022156241,-1.3590278542128504,-1.9794524145653647,0.11146547296120458,1.7894276335954786,4.96493832470931,3.564895847560016,3.3833051005226453,2.736202686070108,5.556921480140888,3.3816989802179593,-1.1073941648758268
63,-0.7279535074606304,-1.2503633099012286,0.5272454202288096,-0.5444517387024349,-0.921789800239378,1.374881456755359,3.612528865310739,5.124168590785531,2.938247817568895,3.0528714626477127,2.9125772666333556,5.25229456968686,3.7978349176596478,-0.412856866201578
64,-1.3567974118157384,-1.1011104386946222,1.2929242068284512,0.18060546364929564,0.1561874912553211,2.340297203611706,4.968205584444968,4.766175830405765,2.116483459493891,2.451716462503009,2.768662643040616,4.297901974968389,3.724309396836584,0.07886921621144359
65,-2.1404785876271344,-1.090606373977093,1.6690036157522044,0.7534622966085495,1.1752765018230134,2.9107649311875163,5.71497965765973,3.9212622812159843,1.2022326358952957,1.6230838811394614,2.3036519762856136,2.7347212912277192,3.1309974166139947,0.27804693712239736
66,-3.0364611557652785,-1.2028050168756448,1.5823579314010132,1.1381263166523472,2.0666424544869284,3.0433522997085034,5.786246208966054,2.6706741404699277,0.2956511819959672,0.6279950180665057,1.547934744027191,0.6826161720961563,2.0477382342256143,0.13585987978259087
67,-3.9693888257115097,-1.3937619731091968,1.0309095994583741,1.3275852906045642,2.7765934975995146,2.752435544833173,5.19655113958967,1.1369737999327012,-0.5180291339243465,-0.4609935760197744,0.5601824351969924,-1.6703705878007729,0.5629242252100678,-0.35000971759837796
68,-4.83720586400912,-1.5983636898268319,0.08592772659255764,1.342034062373403,3.2693704639987087,2.1056388629736875,4.037972056887025,-0.5296571464114591,-1.1773100992820222,-1.5660863532294749,-0.5778292013129516,-4.087585124927572,-1.184374805306699,-1.1349008445054112
69,-5.521825133216681,-1.7402850136288306,-1.1158228015862621,1.2234553110684765,3.527925152668051,1.2131218625253664,2.4672734628855153,-2.167473657810739,-1.6485750353651418,-2.609920951732439,-1.7680964395041499,-6.30989722640947,-3.017951294101967,-2.1316422489665023
70,-5.903215778551313,-1.7438299210308992,-2.3892960779038814,1.027464845759049,3.5529166826445504,0.21175995343028164,0.6855923343752633,-3.61975137078575,-1.92543769866086,-3.520222975195225,-2.9043679836638914,-8.085285983184413,-4.742277369036538,-3.219376775281822
71,-5.875283307101585,-1.5460552201339126,-3.5256791569038968,0.8136859295280089,3.36034279461143,-0.753610138030114,-1.0867460209961262,-4.750168564406918,-2.024008086009793,-4.2333556821143,-3.8806631119660686,-9.19832740309224,-6.162778339621258,-4.255805221477415
72,-5.3615981165493904,-1.1075322505343626,-4.321098002127249,0.6360862277043001,2.978321117822517,-1.5493725908719473,-2.6371639279525807,-5.45552645098109,-1.975449689637814,-4.696929571298288,-4.599807435746793,-9.496038714891112,-7.106489549812982,-5.091677824029355
73,-4.328937643892923,-0.4202719033360886,-4.605752269104627,0.5346743903021209,2.4435407946944774,-2.070232690989871,-3.78625583441794,-5.674729158275569,-1.8175473033436909,-4.871783947124831,-4.981501170980453,-8.90696926679425,-7.44097593264788,-5.586227452130429
74,-2.7967608181919585,0.48829988766112314,-4.269548060056645,0.5297187630854308,1.797829185839784,-2.2520533106601475,-4.408673110235277,-5.393377586974519,-1.5869866987935817,-4.7336712820049955,-4.969448111632815,-7.451234946000297,-7.089550350884968,-5.622193894442373
75,-0.8411241596841657,1.5559254326319136,-3.280654809481237,0.6192542828362549,1.0851454564917327,-2.0788592732433226,-4.447025471887873,-4.643771259426079,-1.3136986848483798,-4.27487374593204,-4.5370729546326105,-5.240270127604263,-6.041174588248075,-5.119126466307525
76,1.4078559971970572,2.6906881637103917,-1.6942609559663204,0.7801447205259177,0.34915405833277063,-1.5832540098681906,-3.917222225008641,-3.5005283551594997,-1.0180406065935446,-3.505794139589292,-3.6913598976320015,-2.466288303398377,-4.353936392260538,-4.043774412494932
77,3.775150677225753,3.7802271683460322,0.3499583416328579,0.972440774348613,-0.3686207310595304,-0.8403904908732315,-2.9047271497179974,-2.072404059230362,-0.7109187769211337,-2.456342125131303,-2.4743800808829253,0.617345765986201,-2.151622357086107,-2.41658302763473
78,6.055929870951983,4.703940155958532,2.641678544034468,1.1462984969397514,-1.030175010576512,0.04350447859995041,-1.5523129772240907,-0.4911935209980921,-0.39634003343395385,-1.1767384000813421,-0.9621608916075736,3.7225686544489274,0.3864073679942321,-0.3136014924300265
79,8.035230440490452,5.346752461029264,4.923579238559163,1.250366327510243,-1.6021185945761927,0.9463529257155503,-0.040941881251215395,1.1011664438300106,-0.07543618692328352,0.26276365875586005,0.7393000550181411,6.556848563891077,3.041155334643418,2.1365396873138107
80,9.510143357887626,5.612838600218261,6.921985343073464,1.240362018494809,-2.056658936602523,1.7470430392792233,1.4337605944371175,2.5660477731744975,0.2492007597713465,1.7737514657893483,2.5008601999046594,8.853732921958327,5.574240746500678,4.760532525739318
81,10.312074461211953,5.4376875607691195,8.380679408722969,1.0865663335760198,-2.372592611553761,2.3415399301056437,2.686435709248798,3.780857593497382,0.5699903832295802,3.253522806416145,4.179620769803189,10.400257513875689,7.750516049204574,7.352728395238593
82,10.326507802120682,4.7970967846829105,9.093573637449808,0.779152243600507,-2.5363207583731975,2.656155254450487,3.5651643392815164,4.649854624813159,0.8725014463387891,4.591126351105091,5.630322885407629,11.058180142151777,9.360826884472136,9.691082830261294
83,9.507888427833365,3.7120327535314273,8.932003589260642,0.3306107212187015,-2.542795307211612,2.6562895027844124,3.969959765080068,5.112070773117905,1.1357073240763804,5.675432601386631,6.71792262227003,10.776777081168058,10.242654960315912,11.555551634568028
84,7.887727816571884,2.248759124132074,7.863041843471782,-0.2250313415451725,-2.3962168179570598,2.3496191444424688,3.8642646374290677,5.145644478283648,1.3343394028206625,6.404730589220096,7.330283631510495,9.595969058256308,10.296564809212335,12.747514137157934
85,5.574763964634594,0.514147629664909,5.956346690755702,-0.8360480195686274,-2.1102661607161157,1.7834745340074498,3.278037420828134,4.7682246102287165,1.4428699491391987,6.696988966463216,7.389769308083091,7.639693924562156,9.496762276500036,13.108619392597008
86,2.7468922404186307,-1.3534051704459071,3.3785125895630417,-1.4393383912885953,-1.707671478408793,1.0369403705291855,2.3021018115575864,4.033486408641966,1.4403122261671344,6.499638445676947,6.86247479485254,5.10057535285397,7.894634525184841,12.537385354962161
87,-0.3644807569598853,-3.196578610786887,0.3754867423221629,-1.9683513642048123,-1.2189860650193423,0.2089082448266273,1.0745764497315433,3.0241851223225162,1.3148494923530152,5.797591787745925,5.76394379416918,2.2179164282777935,5.614831966913756,11.001952268387251
88,-3.4961266548553755,-4.8540052025563405,-2.754847659483198,-2.3615358243570728,-0.6805667216667528,-0.5961668701412528,-0.2387428141656803,1.8425300132312594,1.0673282755212419,4.6182666626668984,4.160481553780879,-0.7482409150558573,2.8442090336188666,8.54761294962783
89,-6.3784682065413945,-6.1759339502442785,-5.6965460680924505,-2.5701949343589923,-0.131870091363912,-1.282771981198816,-1.4673498383622656,0.5989596688750322,0.7128703294485919,3.032634048038984,2.1655943289508746,-3.543886403428316,-0.18531225642307725,5.2981147524992735
90,-8.7620929954735,-7.039076203524188,-8.151716086530717,-2.564719210692081,0.38770200568030005,-1.777062428993804,-2.459167180226426,-0.5993993715791943,0.28022787733484,1.1517576571490642,-0.0683838560534878,-5.945562650871159,-3.218238463799745,1.4502307881581162
91,-10.44239505063015,-7.3590760680972975,-9.874359416924493,-2.3383975341471173,0.8420981637782874,-2.0360422693952667,-3.1006312003715646,-1.6592483956051944,-0.19105233082605702,-0.8811473991503203,-2.3628470560513075,-7.779966010033382,-5.999169289476718,-2.738315233064298
92,-11.27961131169538,-7.099264574688704,-10.697742553562696,-1.9083340389632588,1.2017067978235263,-2.0519574173240622,-3.3309105678925053,-2.5093801684747485,-0.6551800826100918,-2.902521490274806,-4.528508181484163,-8.936695144286375,-8.296216760050273,-6.966880365896706
93,-11.212041322708481,-6.27473579667688,-10.551972168438954,-1.3133919463120658,1.4458975245784567,-1.8513716419991524,-3.1482849734094165,-3.105763152466703,-1.065623742600157,-4.743006173397849,-6.382494638931901,-9.373185341341564,-9.92183017372534,-10.914639237610599
94,-10.261041808839934,-4.951285898926585,-9.46976947301822,-0.609489030758771,1.564718856601321,-1.4891918840575495,-2.6078664989798708,-3.432969700102603,-1.3806870951662373,-6.243243941599732,-7.7652273425585046,-9.111928642529792,-10.749018492998712,-14.266309891494897
95,-8.527369320712095,-3.2393227449899444,-7.580012271962958,0.13707539749491465,1.5595403510190526,-1.0386698324588974,-1.811145437949601,-3.5020052948480505,-1.5683508051100137,-7.269283044594879,-8.555379564275785,-8.23107896003884,-10.721522001688083,-16.738813643422386
96,-6.179470350882744,-1.2834108577893926,-5.090219417408561,0.8573291515163454,1.442541480221205,-0.5790105586312106,-0.8890784473474014,-3.345121118469134,-1.6097689571801568,-7.7259697490020365,-8.681421634996285,-6.850329529791454,-9.857176777176006,-18.106620456820277
97,-3.435244880156389,0.751411991223137,-2.2605575954321933,1.48732759574436,1.2350822512338524,-0.18256707546076265,0.018594054974758578,-3.0086144434527444,-1.5010782115982593,-7.566910831093553,-8.128615208376996,-5.114408566012054,-8.244437446823092,-18.223496193619372
98,-0.5395079107792087,2.69508724793115,0.6270474180590592,1.9748499989333494,0.9651266805584061,0.0963663848680043,0.7845732619766741,-2.5448653265993566,-1.2534436370359794,-6.799922026949308,-6.940774043623992,-3.1766019993148222,-6.032684151310495,-17.038508344639144
99,2.260241987601133,4.388158100873292,3.3006481072631804,2.2842920171400984,0.664011710081403,0.22943474709728107,1.3125162295310149,-2.0048852162507895,-0.8914859239173256,-5.487309888192365,-5.216608102541643,-1.184385973550729,-3.4174746349341394,-14.604482363012078
100,4.737098730507146,5.696010962638244,5.526930172731545,2.3992606937669287,0.3629427828984215,0.21760398691093497,1.5500738629751074,-1.4324668794922069,-0.450391190163849,-3.7408337117676034,-3.100972517839939,0.7313826164185131,-0.6222786375689261,-11.077642720573044
101,6.704702968837689,6.520398752459297,7.133500084648287,2.322738124844027,0.0896381608970179,0.0896068708088494,1.4946055271406005,-0.8606664827072681,0.02790201446396338,-1.7117242887539317,-0.7718163349108083,2.463073240052294,2.12155996165059,-6.707909781876558
102,8.032042550266405,6.8072476078450554,8.022566991926956,2.0750297171267555,-0.13447110259243933,-0.10418924307678298,1.1909163741250348,-0.3108876024620138,0.4990033377474377,0.4233478477227053,1.5759654732188315,3.928850106292676,4.5948387485730855,-1.8202106976372554
103,8.651958106857952,6.550159899867126,8.175048773910806,1.6899949423623744,-0.29614971150064995,-0.30140333669031777,0.721634634251201,0.20563967157933144,0.9204219511057966,2.479010159343244,3.7482612355826204,5.072021157056974,6.608784872733971,3.211882259775381
104,8.562959899103245,5.789459414477675,7.6454259550366395,1.2102328560546174,-0.3911577309173934,-0.4391117146401283,0.19198797818636318,0.6845971903706336,1.2555561926997238,4.2789513106567485,5.569354119932458,5.858379244103373,8.02011535697244,7.997962987791855
105,7.824678768468604,4.607040324547148,6.5488082011080735,0.6819473862830487,-0.42387326231418937,-0.46525064965392104,-0.28843042261692997,1.124415958190921,1.4769566065055,5.672860272120966,6.897693752431829,6.272831760609568,8.741675362152222,12.165096986749367
106,6.547893398493317,3.1176525832282174,5.042527093886906,0.15015906974466595,-0.4058295717829003,-0.34806750901458083,-0.6239185646812366,1.5221896151935674,1.568573812117847,6.5507308688556405,7.638265986293749,6.316416853821108,8.747856996266036,15.391234980040872
107,4.88054837187754,1.457558414818453,3.3050373682113303,-0.3452137821127932,-0.35340431816926693,-0.08208164615491093,-0.7480453657073445,1.8705621627719575,1.5268112426049072,6.852982664457136,7.750341319668651,6.004398429627223,8.074467696608675,17.43430831808726
108,2.9914655489256186,-0.22829824126761547,1.5149620889151487,-0.7720800604104129,-0.2850106067794785,0.31038721656984775,-0.63379996874116,2.156254780230028,1.3603325394020902,6.575306679464912,7.2498691916921,5.365619517777135,6.813211490272276,18.15395382011113
109,1.0535331681663587,-1.7993777409818148,-0.16722213797599783,-1.1076041757663884,-0.21820176211010817,0.7823193950459489,-0.29706350680385396,2.360553715298643,1.0887022861206546,5.767737592956417,6.20635070787292,4.442783112812639,5.101415538496034,17.523560950777124
110,-0.771963346804931,-3.131690579957366,-1.613014096893061,-1.33844448022856,-0.16710579562688196,1.2691562340624758,0.20693259374632783,2.4616898243009144,0.7400482117464116,4.528105582270044,4.734595224532425,3.2929279168559686,3.108033400462861,15.631357027070024
111,-2.34849267975787,-4.127956415447294,-2.7342161895512684,-1.4600696062823664,-0.14055086917914247,1.6988038863776187,0.79336986762712,2.438670128125192,0.34801571160462696,2.99065253484342,2.9822860910776536,1.9871658736932696,1.0172588974221461,12.670423747061733
112,-3.5739328833161434,-4.7249617010085085,-3.4856079127297486,-1.4755049556540303,-0.14113552741491017,2.0028347344425934,1.362076288256597,2.275837852723644,-0.05165925011417835,1.3111367461516135,1.1146994271342159,0.6088062164930244,-0.9887228557074025,8.918733385103604
113,-4.386197323009974,-4.897581388068639,-3.8625626990665713,-1.3938593381066449,-0.16534986417364647,2.127097982353708,1.8138359747877262,1.967287747225591,-0.4246068032801699,-0.34986296110406584,-0.7018009661217871,-0.7506937740663127,-2.746247093376433,4.711367295012351
114,-4.764732047782954,-4.659229338535442,-3.894748967708423,-1.2289036275574243,-0.20468656513632077,2.040101663035114,2.0661448391232873,1.5202705923467907,-0.7409640091666092,-1.8435413023981981,-2.3157566497939057,-1.9980047388735893,-4.12439861307748,0.40790887840881757
115,-4.728164729463444,-4.058802902313084,-3.637340335889078,-0.9978475358441893,-0.24752088797511118,1.7379342767927355,2.0659722487278676,0.9568790902269084,-0.9778953732255481,-3.0474853440428586,-3.6044287983866914,-3.045902793357409,-5.035606199272807,-3.641510702880537
116,-4.328685532587971,-3.1744797972273164,-3.1611907181566488,-0.7203259994918815,-0.28141517197553023,1.2450761417331615,1.7976560240198467,0.31358517252775286,-1.1212620945273524,-3.876702004326156,-4.484021506400114,-3.821913816663135,-5.44158493827622,-7.127956006891964
117,-3.6439562350473174,-2.1050001653584527,-2.543258091145326,-0.41750203154051563,-0.29544113763337604,0.6111029938534921,1.2848926700119878,-0.3614540859515823,-1.1663111822360097,-4.289906973898972,-4.915327107292601,-4.276277333752974,-5.354077183851321,-9.810001384283094
118,-2.7674815870191933,-0.95930576822052,-1.8582614220555818,-0.11114543721662189,-0.282125515173043,-0.09610216812702632,0.5867393386118289,-1.0130462608076245,-1.1173767877536498,-4.2905537320313165,-4.904359658897117,-4.387850608248242,-4.830408784419736,-11.532108405190003
119,-1.7984406764025007,0.15441677240654492,-1.172204547658741,0.17743528507953638,-0.23870835947105393,-0.7995299187388761,-0.2115377204501425,-1.58497812301872,-0.9867076788116727,-3.9227722760248187,-4.4981527652015245,-4.166835617189276,-3.9644748713452516,-12.233540721408126
120,-0.8319627173528835,1.139164289961542,-0.5380582596473977,0.42865831440758206,-0.16753905017030762,-1.4232260974363156,-1.0111904650384074,-2.0265764207298482,-0.7926315020191105,-3.2630318022790195,-3.7764760838811435,-3.6537121283458966,-2.8743125811593258,-11.94740575059193
121,0.04926450086537137,1.9179383024020211,0.006403210714117558,0.6260797550480278,-0.07559279884487677,-1.9020072999221094,-1.7142497132633159,-2.298888951105903,-0.5573190567519762,-2.4088392770585494,-2.8406851213631126,-2.914392323428906,-1.6878205140128006,-10.790516691247161
122,0.7813432980448243,2.440057741128936,0.4388410406398337,0.7577987300265314,0.02676003544437576,-2.1893820673833413,-2.237145623132132,-2.379590728371262,-0.30441718746997504,-1.4660707741657018,-1.8011971932296635,-2.032246025430448,-0.5283810182881117,-8.94572745667388
123,1.3230089569941113,2.6843572646923266,0.7510462438558326,0.8176352704869908,0.1274838596777077,-2.2626699607281906,-2.521717662588461,-2.2658874522226617,-0.056788386722722524,-0.5365808558704801,-0.7651517799197836,-1.0981544857983911,0.4979012834638657,-6.639100372947619
124,1.6567946429504887,2.659043390232431,0.9465500668012318,0.805845104437922,0.2147941123606618,-2.124755563340506,-2.542130912761984,-1.9749687922530093,0.16545492464452713,0.29243954103046915,0.17432985136569523,-0.2000407693459404,1.3119073372154553,-4.1146564334515965
125,1.787644138513866,2.3983860764415357,1.0376285741035647,0.7291811112409349,0.2789384977920293,-1.8024148169220446,-2.30689870957014,-1.5419158318377062,0.3464884397487238,0.9562405353115169,0.9461866099367895,0.5866442037071681,1.86718540766993,-1.6095142507071434
126,1.7393639800987546,1.9567936056347202,1.0421425062987042,0.6002053563192156,0.31356492496655136,-1.3416347196370184,-1.855979889635036,-1.0153382786345113,0.475802637751403,1.4167774205990138,1.5060905252242063,1.2062135460368508,2.151213590234286,0.6680277426077444
127,1.5495106528799438,1.4011035058167909,0.9805735669873634,0.43587650781949977,0.3164819302844845,-0.8007443004349791,-1.2536515588677901,-0.45135028822150136,0.5486749258351642,1.6633191336338502,1.8375542401996154,1.6269506993845673,2.1824559513921087,2.555420012629037
