,AF3,F7,F3,FC5,T7,P7,O1,O2,P8,T8,FC6,F4,F8,AF4
0,0.5177365230062827,0.3060697061504635,0.18829821036345065,0.17923641705580437,0.3785410725134626,1.2923323111478522,0.5572286815100224,0.44095412758010505,1.5754796739243253,1.102474351579804,0.29792502008270955,0.47084147446009317,0.29160680485393886,0.481496868973912
1,-0.4995350084834055,0.7948568059283421,0.7963316825426159,0.24121069253267607,0.744200315205135,1.7927127193301482,1.2505739529676463,1.5725710817522855,4.262085121699595,3.1162537409308517,2.3766347683026217,2.6444782139329885,2.4727596644707943,1.49954511444913
2,-1.412467057487785,1.2446600923032334,1.3702852102878569,0.2936242255277605,1.0236744815182508,2.1243866377209852,1.7568915690179392,2.529363825835795,6.587297922241501,4.859818690230473,4.219632812960649,4.630792474880552,4.454693778093651,2.461525052690056
3,-2.1288126072106452,1.6105301093947135,1.864470387547887,0.33324871404173156,1.1614048286748944,2.262335839726188,2.0015294494530154,3.1959673246336333,8.33932650719161,6.159603735328588,5.652343958253271,6.259071083661857,6.058900263162471,3.3108219801090266
4,-2.57818636278538,1.8552961595744226,2.238904370529737,0.3599239361147394,1.1234609253268506,2.2005156795592637,1.9487595343784054,3.4945462991611613,9.367212584002012,6.895156161589035,6.553118329458602,7.395699831316341,7.151535740323578,3.998471483621071
5,-2.7191629223963587,1.9541783811345876,2.463161988259369,0.37682692417801744,0.9031627973206211,1.9521647826116975,1.6068122817912043,3.3945131782173967,9.599256219250528,7.012953706846122,6.865485602450769,7.956897628185801,7.656515511729941,4.486286654465336
6,-2.543639614444124,1.8976977633990737,2.5191944755983853,0.38978068744343675,0.5223201981066098,1.5479761097675104,1.026482924206579,2.9157335210113664,9.05055318459872,6.530701558582338,6.601052784735522,7.915133522727664,7.560560174732307,4.748477870451974
7,-2.077979971382066,1.692495327386655,2.402814636809417,0.4056838621682977,0.027914569417373608,1.0323128194512512,0.29347522157285727,2.1248365995808824,7.8185994069282,5.531688097108738,5.8329875647047995,7.298720582668242,6.9099152108150745,4.771784092082182
8,-1.3807081435532282,1.3599997275732436,2.12372036543484,0.4303522356727354,-0.5151980790609225,0.4579211769692856,-0.4844408208784697,1.1252351853615463,6.067846917613815,4.150325299954717,4.681456409961632,6.1850390037146905,5.799722736888779,4.554423191318334
9,-0.5368116684325316,0.9332190434813192,1.7041210217028573,0.46622888879128815,-1.0343347694811433,-0.12019380066482244,-1.1936064418039922,0.042357273649280824,4.005835534998699,2.5513507376767497,3.293583785519049,4.688704816711267,4.358091489714958,4.104384941138011
10,0.35097989654855205,0.45221852163488463,1.1762162878110651,0.5105043629125738,-1.460118701170774,-0.6509436538780441,-1.7316087143606087,-0.993728340492633,1.8547729745240373,0.906101414349518,1.8212777147038384,2.9466383912113345,2.727614018809325,3.4376871892384364
11,1.1732518547457826,-0.04097010886438761,0.5789220210452055,0.5541665390430717,-1.7368848221497881,-1.092589700424757,-2.0227989801935244,-1.8657538668681388,-0.1770081681364905,-0.630368173306373,0.4004996554258261,1.1022999433576361,1.0473099134682402,2.577167518373374
12,1.826296144414912,-0.5072116402379876,-0.04568827416474938,0.5823652769559954,-1.8307053300173424,-1.4167476145496347,-2.0298051508249184,-2.484245771808089,-1.919490763347536,-1.9378182827183084,-0.8648017251543746,-0.7086994751048712,-0.5623002634286366,1.5521897333162478
13,2.2245702342078606,-0.9141952911063544,-0.6557715999579643,0.576244336363929,-1.7338155361443022,-1.6104764944429988,-1.7592036210993334,-2.7979575914783914,-3.2579715543144014,-2.9423475071175207,-1.9117702236461065,-2.369816919210102,-2.00900881492972,0.39933782559941444
14,2.311784715915198,-1.2389287803530564,-1.2125757505000583,0.5160991564733897,-1.4648424751688516,-1.676227862898987,-1.2603791486689109,-2.7983586384959054,-4.140660504851895,-3.6195254768173526,-2.7196991946418776,-3.7905205956618904,-3.232676464141765,-0.8361892599922012
15,2.0691637245109264,-1.4685866640219347,-1.6825691261467384,0.38541850597239924,-1.06493813323181,-1.629721032204731,-0.6176488184251022,-2.517735849201632,-4.576543418170379,-3.989234306611782,-3.303482536196945,-4.90868424328,-4.203135964306543,-2.099099972726581
16,1.519602810997011,-1.599807499742301,-2.0388112701982233,0.17512491735645616,-0.5905773534387991,-1.4960951312804855,0.0632036686333531,-2.021466928392789,-4.624742970397689,-4.103741756196963,-3.7012333168570235,-5.688980608362664,-4.913504219380899,-3.3232871264245234
17,0.726843285374828,-1.6367981753364016,-2.2616869650477223,-0.1127991009719243,-0.10429105991856572,-1.3049283797540492,0.6719217711677132,-1.3959153685565735,-4.377872979967585,-4.031639210712861,-3.9588563370604675,-6.118476151264398,-5.370927041360187,-4.432736114813506
18,-0.2106348302646275,-1.588774994018179,-2.3392222908606204,-0.4630892203148196,0.33510908623854413,-1.0848795770806845,1.1116329591049303,-0.7340317110494354,-3.9426254973775343,-3.840878836429175,-4.114841801114666,-6.20099695690571,-5.5871205378516615,-5.344762544456117
19,-1.1705965642693572,-1.467324433385812,-2.2672210093281375,-0.8469931617713603,0.6812359695988686,-0.8587729507699892,1.3147180255283528,-0.12102037104803827,-3.4209657143264365,-3.584140845806614,-4.188411761620253,-5.951854754358942,-5.570937569106498,-5.975889899571835
20,-2.0217894934169434,-1.2842031913764094,-2.0494026718863405,-1.2243822073820438,0.9064169368967958,-0.6399062756937933,1.2541097256413545,0.37768500406343686,-2.8948656481185044,-3.289176245129113,-4.173431876549378,-5.394201216701693,-5.324614999512122,-6.2501393734734965
21,-2.6406953449536346,-1.049940266561402,-1.6976062527852838,-1.548092613659628,1.0046624056902136,-0.430216745838826,0.9481204220128904,0.7243667861167706,-2.416621365320176,-2.9557323495606314,-4.039336582543915,-4.557697159571304,-4.844467173152607,-6.108913798408716
22,-2.9281485811839714,-0.7733913196034194,-1.2319750086713717,-1.7700058595278048,0.9909716017072141,-0.2207014223505523,0.45789544035871826,0.9118550956735207,-2.0056741707344887,-2.5593801923146837,-3.7389196377585536,-3.4794717370187014,-4.125759999486174,-5.5211368915560115
23,-2.8235550875895754,-0.46217341760682246,-0.6808991519063889,-1.8480315736398816,0.8972280249983655,0.005823660934927735,-0.12224765791059013,0.961084716039775,-1.6517137449726578,-2.0612582139025672,-3.2214664104203,-2.2066603345566285,-3.170529312734304,-4.491977093576905
24,-2.314650442037299,-0.12372303088665473,-0.08040614506282076,-1.752935831404372,0.7654680992299091,0.269905775569871,-0.6801787082212539,0.9140799605750012,-1.3228692796236285,-1.4216512573694728,-2.448600890756573,-0.7992976958619339,-1.9963870151527674,-3.0684343969051566
25,-1.4412617542345794,0.2333898255770442,0.5273083728939509,-1.4739082649545354,0.6396959308897793,0.5892375454717923,-1.1046336983378044,0.8237869800748869,-0.9771198869273656,-0.6146231850785988,-1.4095977495278618,0.667879867050302,-0.6440349422300481,-1.340341344274476
26,-0.29232118356157055,0.5982731027114543,1.096404646995627,-1.021903347935034,0.5576119321067945,0.9720339287987311,-1.3042230907190413,0.7426322510954007,-0.5747343259305167,0.3592687363280391,-0.13289305765892376,2.1060450836995135,0.818647459921617,0.564094666374237
27,1.0036855072656266,0.9569579555026352,1.5809665615532744,-0.4301065002591826,0.54360122959682,1.4112245066857134,-1.223642474877709,0.7118235963877062,-0.08957520979744256,1.4648046027637147,1.3088700670333107,3.4161703582751892,2.297478013790814,2.4882838729030508
28,2.2937110056427876,1.292256886269873,1.9393441475293596,0.24869062216058396,0.6041004146811948,1.880726525200449,-0.8543346467455517,0.7532165211479902,0.48258136364690646,2.6302981053191203,2.8018076865986825,4.496371752415701,3.67840800751519,4.261971247328518
29,3.418663042267568,1.5842753665686131,2.1387594348706727,0.9475483985670605,0.7260696893408346,2.334883384663779,-0.23769573159506832,0.8650871317360378,1.120033872886764,3.752864265026675,4.201891669208749,5.2520932702875225,4.839024017647762,5.719050917353449
30,4.23301831910743,1.8115071919274426,2.1595034184591424,1.5929842689862204,0.8788063645591697,2.7117402805829656,0.5398994126960186,1.0224688116494625,1.7761162952410419,4.710239722522823,5.352813290900867,5.607806046728401,5.663582844526896,6.716257065256583
31,4.622955983438673,1.9523802436381417,1.9980181489035085,2.1137191952941587,1.0188214483016822,2.9402214662876935,1.3596423005925928,1.181935296899134,2.385070039936256,5.377500419651244,6.107977149817281,5.518405815308374,6.059267349246134,7.150253921047861
32,4.520658798767081,1.9871014198395853,1.6682647894900646,2.4493969479873994,1.097039334504635,2.950553141718874,2.0885265041251926,1.2899700441161888,2.8720279010530807,5.6461473808647265,6.35314818676796,4.97832095105638,5.970975900277482,6.970776125152879
33,3.912987614594933,1.8996628695773339,1.201009875722263,2.5581178586100903,1.0672353791443463,2.686562318729981,2.6004072718041096,1.2934666566650381,3.1656382048351293,5.442549410232002,6.026017958000081,4.026531292559938,5.392059816242059,6.187962979823135
34,2.8435293249773506,1.6798947387778866,0.640978909362559,2.4218043976148236,0.8944418299290059,2.1179201659138225,2.7964946763508185,1.1505507142696316,3.2113416843722504,4.742715665861465,5.1293345248994955,2.746221658973836,4.368986484622685,4.872802762257935
35,1.4079213972671054,1.3254593213114885,0.04217189904734148,2.048724109431836,0.5620487826480776,1.2501278275121799,2.621931430769013,0.8398549181708941,2.98305034842131,3.580828069277372,3.735190647376836,1.2585701993348983,2.99883018332441,3.150527203398217
36,-0.2567749770054154,0.843660739542423,-0.5380566824853831,1.4728841931766345,0.076498652381072,0.1301593616001796,2.075713722511162,0.36662462436548515,2.491043980880875,2.0498310346794977,1.9794225407753254,-0.2889313474918411,1.4196130524429673,1.1877221840329775
37,-1.9871739517743259,0.25288993095170914,-1.0453420872201824,0.7504209606989322,-0.5312046970755022,-1.1537974395875792,1.212285622552912,-0.23546153512903079,1.7843372306622007,0.2935313452184813,0.04660601507411422,-1.738364124002071,-0.20535825270539973,-0.8252886229475466
38,-3.6112013904570994,-0.4165491378158731,-1.4341982297313327,-0.04652223355352873,-1.2075187216584466,-2.479188038343513,0.1344931185226707,-0.9071833241892668,0.9465633195540851,-1.5090632930224228,-1.8524009885842432,-2.939525146840913,-1.7070739342828212,-2.6946763745441773
39,-4.966168563922278,-1.1225514260359297,-1.672658576721589,-0.8376526260389879,-1.8817773052494216,-3.7021280122936466,-1.0210089707644507,-1.571051508362147,0.08547880891832267,-3.1652340254243208,-3.507259261203736,-3.76797168090339,-2.9316238459257047,-4.243585076820662
40,-5.915297708013899,-1.812601698598104,-1.7450984746324354,-1.5431832471304165,-2.474383531965834,-4.675126465825943,-2.103586315909277,-2.1419200411340205,-0.6826478724844046,-4.492990801918873,-4.7354998736718,-4.140551128075492,-3.7593351003640443,-5.330532009937974
41,-6.361052955987763,-2.4267274730485613,-1.6529783771328923,-2.092313860518902,-2.9067652274497213,-5.267070591870412,-2.9705586142387186,-2.5393466979742096,-1.25145587388585,-5.345050396403181,-5.406531149290909,-4.026288468565161,-4.119605405025781,-5.863734661658639
42,-6.254110263990399,-2.902136268509614,-1.4135795747316975,-2.430642965305136,-3.1118073696046147,-5.382489693984194,-3.507815043552369,-2.699808519168345,-1.5426926879545084,-5.628905893414404,-5.458890017037394,-3.4510897335754613,-3.9994221471651605,-5.809907098425022
43,-5.5973326076091565,-3.179393987263723,-1.0570915069419338,-2.525772307083592,-3.0433723263646644,-4.977048461819655,-3.6459678076231063,-2.586873134295752,-1.5209503255386045,-5.320017726222729,-4.908308189249423,-2.495512714965811,-3.444454266187313,-5.196727707310455
44,-4.444630511322873,-3.2096628369415368,-0.6226001049217426,-2.370568680147543,-2.6836003710350673,-4.0666727507362594,-3.369683102400067,-2.197722808691199,-1.2020629959741718,-4.466080597705037,-3.845475839949355,-1.2857399006968295,-2.5526222093324313,-4.108866783976912
45,-2.8950401697633277,-2.9621704617006004,-0.1535939883688845,-1.9837774661326202,-2.0469398448229295,-2.728623576350302,-2.7189649420448774,-1.564978915105271,-0.6532379775590565,-3.181563902574002,-2.4238210877458886,0.021254060179763674,-1.4610392916022394,-2.678102642699862
46,-1.0827268866222155,-2.430813281450969,0.30644362807113434,-1.4079290829830162,-1.1802564075895543,-1.0940557269491575,-1.7824489377714243,-0.7534900090598061,0.015630513813645074,-1.6331091643335889,-0.838976314754501,1.2566191687121477,-0.32804661379347977,-1.0686028187014964
47,0.8360768550873063,-1.6386924251534505,0.7179194022554855,-0.704737936227546,-0.15886568394000639,0.6670854795933381,-0.683969592731159,0.14749229025686067,0.6684510213545667,-0.017695485680535,0.6973002746388305,2.2603856842360424,0.6873549125680938,0.5411172115625046
48,2.697954641997569,-0.6394994615165157,1.0482138249770683,0.051548187181075886,0.9211370141440351,2.3667923759352614,0.43539518238396563,1.035642658452798,1.1647672801919067,1.4634445532891707,1.9852612062052415,2.901543193559056,1.4460828537605714,1.977727102515312
49,4.3476020969568046,0.48497713624601935,1.273834914321434,0.7821562127429292,1.953381284132842,3.8224606200184192,1.437053007590215,1.8087891269010143,1.3834274792443941,2.63152559612603,2.8636133549626863,3.0949406163682713,1.8469836770218366,3.09208562307231
50,5.652054867272665,1.6314100620187204,1.381619639231171,1.4122855785665462,2.8333002670747383,4.8798160813815015,2.203548102224566,2.378179043269418,1.2441471019582768,3.3537700367861483,3.2307354214049653,2.812809218173249,1.8400036661619514,3.7756608018557642
51,6.512424546195922,2.6850998632111964,1.369026074042434,1.8791446630840734,3.47029049475225,5.432140067060314,2.653597282374949,2.6799480874302573,0.723276918125281,3.560502794334713,3.0578150255325984,2.0892927893816067,1.4328183713508817,3.972473236450018
52,6.871935307048603,3.5326729418886678,1.2435924933336442,2.138605436952006,3.798420179590148,5.4332013996430835,2.751616043968238,2.683238223102778,-0.1390130709680254,3.253384036607279,2.392114330253515,1.0171830711600602,0.6900009369668694,3.685055274470505
53,6.719436767868134,4.075745971065622,1.021657341891289,2.1697035205118955,3.7843133149239,4.902222911739094,2.5106865125317706,2.3939004700127544,-1.2415451367062276,2.5036731853762446,1.349889314403117,-0.26297721930152385,-0.2752722628028821,2.9735259838314834
54,6.088086236502528,4.2437272410884646,0.7264527140417558,1.9764611009137834,3.4311795085077836,3.9203266810554487,1.9888369566350128,1.853340482315834,-2.4347430663912104,1.4408686037609462,0.09988639601667147,-1.580260595876963,-1.3160273849333044,1.9476686063788713
55,5.049481475571988,4.003935119884781,0.3857152173030974,1.5868345257472565,2.7784443179859672,2.6190544370205484,1.2793722557777192,1.1327298768428415,-3.541277129902498,0.2334540729564434,-1.1603678403766302,-2.755123811614083,-2.2709887852081474,0.7527797544129567
56,3.704096511398161,3.367502776693583,0.02900195751980059,1.0489448066693783,1.8970019994407303,1.162596520640827,0.4967221607943729,0.3234240949630991,-4.381715348026607,-0.9354064921536961,-2.2322655682799946,-3.6228427244165684,-2.986278244205316,-0.44908361773671446
57,2.169334351812922,2.3900642650098534,-0.31505670096294985,0.4250866660872426,0.880686167626378,-0.27383765652536923,-0.24020694457433003,-0.4750819334397371,-4.801369800431716,-1.8937128098821698,-2.944022728493237,-4.055551243654493,-3.336479931039645,-1.500141789338818
58,0.5667823732298236,1.1669002508042525,-0.6213086425595916,-0.21571925120282315,-0.16494788242027936,-1.5266010957027725,-0.8249223531805701,-1.168026895837629,-4.694333267787232,-2.504351796704613,-3.1749670308251114,-3.9799108522644433,-3.2422616266090603,-2.2674931236336198
59,-0.989706558958279,-0.17703717785337753,-0.8701769860132267,-0.8057025345666452,-1.135084842957779,-2.4641422072314585,-1.178224228685421,-1.6773716999024182,-4.021105917067803,-2.683427209630492,-2.872874762669595,-3.3879431692280564,-2.6821568009553354,-2.6605182484388497
60,-2.403681740662659,-1.5011031359175198,-1.0490743845721149,-1.285878754732012,-1.9377571164054197,-3.002788026479301,-1.2590896614227889,-1.9513364332165244,-2.817136500055916,-2.4107615952404116,-2.061966471769379,-2.339419141451434,-1.6968569229192083,-2.642672285843432
61,-3.6024776188447807,-2.6652597391761255,-1.15296627645318,-1.6122585320088263,-2.5040638690034753,-3.1157342637311456,-1.070089036562354,-1.970265721246996,-1.1909020798042163,-1.7312926981399461,-0.8404330606603966,-0.9552972590129157,-0.38533577498837973,-2.235940161606372
62,-4.53979901276428,-3.5466561188526957,-1.1840010217383763,-1.760032190100311,-2.7952356116183714,-2.8341345583781146,-0.6565662481865782,-1.7481024394592628,0.6883631969049416,-0.7473801647494497,0.6322322692331559,0.5971094506471334,1.1068043290592096,-1.517183029291412
63,-5.194567507663955,-4.054348174444088,-1.1502337630061645,-1.7252997135585573,-2.8057138560288926,-2.2402754261630706,-0.0996373477248282,-1.3293376232033158,2.6117104864558165,0.3967157479624517,2.156455712680867,2.1254386802713583,2.605348661749399,-0.6067042053160794
64,-5.566634815509711,-4.140205627438767,-1.0635950976279105,-1.524229499146381,-2.561956425906936,-1.4539282585726416,0.49609194174866444,-0.7819068978852254,4.357454896062978,1.53588544955992,3.5195594348635413,3.437351737328271,3.9295751619326427,0.34952787333917645
65,-5.670418172727139,-3.8045217523100834,-0.9373817958925097,-1.1898530082687337,-2.117251958271074,-0.6139249170055292,1.0184315685992553,-0.1870468746273481,5.720382879621294,2.5077472555202496,4.52488931123819,4.366097452779605,4.915592709086776,1.2015976999208677
66,-5.527800560968428,-3.0955352235560434,-0.7836546586955031,-0.7669967775101325,-1.5433537322548407,0.14233915798543278,1.364916428029463,0.37245863264069856,6.539112444733621,3.1754484161955583,5.0191520148614615,4.793135057288181,5.437833260269792,1.8182309991947132
67,-5.161715329341754,-2.102898871342272,-0.6109940276090193,-0.3060807133066546,-0.9201507137983864,0.6985162431754035,1.4590269587852378,0.8239787601969344,6.7177274329508885,3.446530960480424,4.914207848820333,4.664680613646316,5.425800279758551,2.106930966782142
68,-4.591675914601765,-0.9459672804605783,-0.42306287379455343,0.14335808784340281,-0.3248274090485754,0.9752625352254585,1.262898446546791,1.1150068461510858,6.238561610703108,3.2852704146442515,4.2002677715768275,3.9997708894789494,4.873754695809262,2.0285711160997058
69,-3.8321276875975405,0.24150033522205466,-0.2183440483308828,0.5385421619468777,0.17800619053428282,0.9403673911475028,0.7845236865821283,1.2199554941774884,5.16423717778694,2.7168149732492046,2.94857296094133,2.888523695089147,3.8419276114055982,1.6040600377540375
70,-2.893942616476267,1.3281244540245476,0.008750283444475754,0.847962889664231,0.5439092878950706,0.6117914169865509,0.07820034238054224,1.1427787740781181,3.628609475448602,1.8226071751949129,1.3030463095334228,1.4805840658299048,2.4489702243009766,0.9117952321478442
71,-1.7887369876924668,2.200880869545284,0.2654361039722029,1.053968085268088,0.7529788756566131,0.053420117277142264,-0.7620526589967838,0.9150417470004721,1.8179155632831443,0.7278072839298286,-0.5380899373531849,-0.03489066981868609,0.8565392847301236,0.07597628322407797
72,-0.5350781735603575,2.7781108810336557,0.5570922187128163,1.1531689654858948,0.8105216289719172,-0.6355970515505521,-1.6153273651944113,0.5897510049536929,-0.05509041633124713,-0.4174160875521581,-2.348341070129203,-1.4551265803325748,-0.7519881770406452,-0.7527384070342908
73,0.8348295048382552,3.0178704065987625,0.8833420322155769,1.1547419700530743,0.7440932407086757,-1.336162822917014,-2.35114976844919,0.23192275328542358,-1.7801633307648068,-1.459977365119878,-3.903129074788347,-2.5920165869131075,-2.195825642305382,-1.4214855943771685
74,2.2696333289414787,2.9206388505945515,1.2344501936534193,1.0770258634405276,0.5974813793905146,-1.926857452842283,-2.8488029511296764,-0.0926097564000313,-3.1774454872982862,-2.2661073513242256,-5.010027020316712,-3.2988424681588575,-3.320784433835359,-1.8007128961179582
75,3.696099811414654,2.526268608990597,1.5888895630119553,0.9430796788869878,0.4226248709273515,-2.301313891105525,-3.015792530419648,-0.32834877901482196,-4.120126512713762,-2.7404698256637263,-5.534843468467719,-3.4915726491898735,-4.0196126830045245,-1.806926968144122
76,5.020409530928388,1.9059189926461133,1.9128708671051788,0.7760268701252894,0.270724613774523,-2.38294871693058,-2.802659544714956,-0.4394270332350545,-4.548699350823235,-2.8393605087325895,-5.419866882040259,-3.1615180491651715,-4.245737387020852,-1.4188811677381181
77,6.134098361569746,1.1504398526607964,2.1623919082578396,0.5950322084613814,0.18387741483734557,-2.135147461111868,-2.2118393658820654,-0.4155046697137354,-4.47499382046338,-2.576058487438954,-4.691616983158676,-2.377268651475467,-4.0183506945947,-0.684264855148022
78,6.924449514936106,0.35712962382363866,2.2879665701165193,0.4126279890856176,0.18844758827156616,-1.5657298251318514,-1.2991233363174721,-0.273264330017165,-3.9757753540334786,-2.017560615408892,-3.4568918156907418,-1.275329464787438,-3.41798280028752,0.2846652645050714
79,7.288270418892754,-0.38308369645336754,2.2416889176694657,0.23384024709337387,0.2911054422088195,-0.7253630302221686,-0.167375989704141,-0.05321655387593455,-3.177277212156575,-1.2732132107979803,-1.8875562985069432,-0.0405244262246476,-2.57308112666582,1.3263579803775007
80,7.147217199514303,-0.9962119040599371,1.9857638086465765,0.05720870973136055,0.47805124052849346,0.2995751225166332,1.0466764719300123,0.18769119674424492,-2.233347311313996,-0.47697662988798933,-0.19615890401759212,1.121199907500275,-1.6394741009072757,2.2542032570310746
81,6.462308941953512,-1.4322104211910152,1.5012006952637862,-0.12258598559654335,0.7174678399400545,1.3984724139272124,2.190727719021332,0.38645498444055476,-1.300747588993502,0.23396694165622586,1.3941580368024968,2.0137090732276355,-0.7757260729950346,2.8862246104538904
82,5.245122471953805,-1.6677922449968385,0.7951238109333367,-0.311101838323503,0.964773315389942,2.4505897918636217,3.1176266441077387,0.4856568740737701,-0.5154318115081022,0.7409797794658117,2.681096283659511,2.4808063254005126,-0.11809438822108495,3.075658957172438
83,3.5634349942627797,-1.7051655463005164,-0.09482815624005735,-0.5103455387446314,1.1698441498206402,3.3398603457610183,3.7055937955378537,0.44440891352690165,0.026676593714835606,0.9627550624514098,3.5113835376834963,2.4309930501000108,0.24105296629877257,2.73749800936885
84,1.539767957141559,-1.5674605246555704,-1.1002321556213688,-0.7156879391621643,1.2851062487770277,3.9684803139564613,3.8750374772642293,0.24673464193606454,0.2817137918949136,0.8682197469428745,3.8015536614704364,1.8530026874956693,0.2679532818571865,1.866504707588118
85,-0.6577157155415982,-1.2920700687769735,-2.1263959744730854,-0.9142422887474576,1.2732811596817255,4.267674622994243,3.599600830868445,-0.09406837007120414,0.2612252565185035,0.4815571396874304,3.54828359959798,0.8195572814830769,-0.007110327207381244,0.543410714140378
86,-2.831352221275504,-0.923327896721296,-3.061576643183452,-1.08519651507628,1.113640273960309,4.204483249399716,2.909915761779346,-0.5358957899807419,0.026732468109562355,-0.12142593446682609,2.8268243089653575,-0.5214695343535747,-0.49465524570431835,-1.072225451563695
87,-4.775413807051442,-0.5058689927180522,-3.79002745397999,-1.2022220160126411,0.805848730201458,3.7839881421095347,1.8895839675617754,-1.0131702770194988,-0.3232489871331725,-0.8250235913887022,1.7778676368933954,-1.9674056452501196,-1.0605559194642844,-2.7619407850230466
88,-6.300171602668778,-0.07969198381110376,-4.207281559697396,-1.2376727786856518,0.37084005733739667,3.0470067883158998,0.6639978161886888,-1.4463017237600075,-0.6714206669961383,-1.4916436085883213,0.5849362978547814,-3.2898141078321284,-1.548200098616794,-4.278459666428871
89,-7.255343245748543,0.32255124696611986,-4.235561506198855,-1.1679111238953894,-0.1513994793082084,2.063840999411462,-0.616397876463769,-1.7538757981206277,-0.9021489571636905,-1.983359435967121,-0.5542020185297012,-4.268023055955677,-1.80489742061479,-5.381653246495437
90,-7.549580063451135,0.6760666164142631,-3.8369842751882777,-0.9788195491712289,-0.706805959733661,0.9251188823304307,-1.7960528566709637,-1.8657301830530608,-0.9209739336701782,-2.1837403103217707,-1.4577279724453753,-4.722237729513939,-1.7084560642440665,-5.875013986223106
91,-7.163054602321048,0.9627482470645242,-3.022370713848992,-0.6704393685356633,-1.23424314545144,-0.26894686550918334,-2.7347062950670176,-1.73491342658553,-0.6703044208440097,-2.016685007975644,-1.9870098139696157,-4.541324659427645,-1.1897339687638058,-5.6370627424743605
92,-6.151091739561796,1.1691706020202526,-1.8539725142217878,-0.25974938792278124,-1.6735236624547765,-1.4194657951300247,-3.3254470136517744,-1.3466566686378945,-0.13912155774770343,-1.4594582307784816,-2.066832585648995,-3.701101356107023,-0.24751887147689258,-4.642748661366937
93,-4.638031425914648,1.2846776984430288,-0.4412432889384134,0.21913959159349597,-1.9733015371283282,-2.4386160306792313,-3.5080192570691757,-0.7229032297881229,0.6345270190085773,-0.5480064072975583,-1.695681961132824,-2.2703406711634315,1.0467803107085238,-2.9713348114291436
94,-2.8019343906450307,1.3003590346362606,1.0702113441045882,0.7176860156363583,-2.0977340663328077,-3.2571597128744,-3.2756430709346698,0.07842576251498594,1.5683912288113402,0.6262256371431969,-0.9447010741774073,-0.40350096390980744,2.5556118694008325,-0.799270152060823
95,-0.8521176159849716,1.2093658500248352,2.515322684176728,1.1783345913289887,-2.03101459092566,-3.8290310626542934,-2.674532081821818,0.969491858533086,2.547360007282426,1.927516149699842,0.05432570641474309,1.6788549973708191,4.0922073850869145,1.6211865012466091
96,0.9973933335268551,1.0085847370862246,3.7297906842216855,1.5419845294487537,-1.7792045674807384,-4.132740626112227,-1.796302106342694,1.8432102882638857,3.4395378513989665,3.1935130831726215,1.129964705541522,3.7191875043967135,5.445631569574018,3.994665482507872
97,2.5547684556634374,0.7012546585823533,4.571136340718436,1.7564506495784966,-1.369188597700331,-4.169790225117573,-0.7644361539298226,2.5871306016903817,4.114720740277994,4.25679572508865,2.097801415697423,5.457508925568592,6.410380327887053,6.022070711616519
98,3.6738381556451594,0.2997860078246612,4.93762533133346,1.7846250505348906,-0.8449796789555,-3.9606972058514054,0.2832225748189411,3.0986327083355825,4.46267503046105,4.967326207129952,2.788713392450938,6.666414381736789,6.816240371618896,7.441009842805255
99,4.270839185417175,-0.17211277607820258,4.78233034729329,1.6110173322354446,-0.2619574836230459,-3.5395263081434365,1.2134466012600158,3.2993166801940985,4.408718916742485,5.21269966945132,3.07453059048116,7.181688234075262,6.554056397928559,8.061485385338226
100,4.332181933919281,-0.678841352497841,4.120233845558565,1.245537972454454,0.3201168319823694,-2.94797557642903,1.9153864276791233,3.146538989664895,3.9245384977794227,4.9334783968430385,2.8873483315988304,6.924254559014167,5.593631147568543,7.791783891456009
101,3.9123409171506114,-1.174432702937881,3.027233016768614,0.7237702473211282,0.8443326367993749,-2.2300329274213273,2.314642518319623,2.640415488352117,3.032873604852086,4.13163858004072,2.2297721650456115,5.910535093715249,3.9911155366211757,6.650964504386544
102,3.1224571164476185,-1.6063770082385151,1.631053688442706,0.10349682844595091,1.2631409540197458,-1.4280138013325494,2.3817398774298026,1.8252218792622128,1.8055753379392525,2.8711405142887236,1.1747525540712205,4.249968322315128,1.884756100752109,4.766319579977414
103,2.1116136890380592,-1.9214457305287433,0.09523903576852845,-0.5421727988569969,1.54332189182025,-0.5804408695574675,2.133950122027288,0.7848907132330515,0.355435876795036,1.270700372688948,-0.14480030546844527,2.1302684506377263,-0.5204740870163843,2.3563509711730695
104,1.0437846491841076,-2.072767674140058,-1.4016232538422835,-1.1341835971795189,1.6688405834086268,0.27820135434872717,1.63040966676748,-0.3668773096304062,-1.1770089357145839,-0.5101566890090694,-1.554968804778487,-0.20730885815256136,-2.9772748203526267,-0.2981537571873345
105,0.07399983786832624,-2.0270797361778605,-2.6885868296690147,-1.5981161838079552,1.6413488914900467,1.11622496331001,0.9614804129377632,-1.50061560921149,-2.639908421033496,-2.2898717905550945,-2.865506968928939,-2.4991159886747534,-5.226125587255545,-2.8907471031771763
106,-0.6727518790801943,-1.7709320333240313,-3.623827282085495,-1.874436052913377,1.4784365020693786,1.9027248895760789,0.23413497214433895,-2.4873521654794297,-3.887637393693913,-3.886033347720308,-3.8966508508277444,-4.492338212564627,-7.027031649128593,-5.128484881495388
107,-1.1169231978556888,-1.3146999897932115,-4.111984166309342,-1.9268886182629044,1.2100495286366917,2.6056738096230148,-0.4443077439956571,-3.2149437340897866,-4.797293949328202,-5.136331538724179,-4.50423411690738,-5.975824528605454,-8.18867973656859,-6.768261828390531
108,-1.2321553272942285,-0.6935379471953763,-4.115043762615433,-1.7477638193898526,0.8737262049668101,3.190977362108407,-0.9816023392659133,-3.6022724745936983,-5.282228951641714,-5.916769476709995,-4.599592636296043,-6.804547304796298,-8.591203165109333,-7.645523231601842
109,-1.0446782975580169,0.035141684477729675,-3.655391178146508,-1.3592043772322837,0.5094108307736099,3.6231176668705194,-1.312887769904903,-3.609375350413353,-5.301114905189754,-6.155023259409966,-4.161537309610147,-6.914730850639072,-8.199699181622078,-7.691784830233691
110,-0.6249862993491725,0.7975335646492931,-2.8108013910378498,-0.8103221117906437,0.1545880332664126,3.8676341406007895,-1.4082079329231334,-3.242132748824689,-4.861633958312527,-5.837486842528702,-3.2388379987015146,-6.328068409595629,-7.066950590075634,-6.939078215879026
111,-0.07355753735780515,1.5119670435370525,-1.7022944601723178,-0.17052580550858557,-0.1596532911898527,3.895231571598648,-1.2743893588879571,-2.5509001071567434,-4.018508642460341,-5.0093357070456195,-1.9430261383542666,-5.144981762140636,-5.3252850429387495,-5.511317057401645
112,0.49681115510524354,2.098955972289117,-0.47677070030699376,0.4799545908171059,-0.4112261155930143,3.686865672890794,-0.9513466932072298,-1.6233178500615908,-2.8662478937970604,-3.7677974570125476,-0.43269166416085225,-3.528345131521583,-3.1689450117010067,-3.6043685863800827
113,0.9791426618870795,2.4913513217161807,0.7129839112291235,1.0609403787325036,-0.5881610005448049,3.238836198992946,-0.5037425624799196,-0.5723533276514506,-1.5275717044617687,-2.249624443824293,1.108375739939895,-1.6802914603328065,-0.8295382198997856,-1.45805885942461
114,1.2881217874890774,2.6431291864388617,1.7280682470025401,1.5029743805876417,-0.6882983238798713,2.566792047734562,-0.009578479364588048,0.4787100478856245,-0.1389565305551559,-0.6144309453990615,2.4960330386586853,0.18450732015538945,1.4520626448959906,0.6757493119619242
115,1.3714413548600268,2.5355344388980385,2.460327361606136,1.7562545824532063,-0.7178078364402102,1.7076522804441174,0.4523510462802977,1.4122135070825843,1.1649347779081418,0.9739863820149722,3.5700949757176326,1.865423709255229,3.453687699809333,2.564585568386843
116,1.2153189172409342,2.1796857022487757,2.844169468245861,1.7965967514623897,-0.6889095500076432,0.7187537743736098,0.814178044679907,2.1307741379804956,2.266050684530954,2.366030672853774,4.214736733061704,3.1988970113037363,4.996207160443282,4.022232729905971
117,0.8438473513766038,1.615263693686558,2.8620279966791893,1.6276709047647255,-0.6172262909502796,-0.32600924409157117,1.0281614877111516,2.568656208090374,3.0751928535639808,3.442166104871224,4.372241117468473,4.075153114341487,5.961375193142325,4.927822178389912
118,0.3127973976232454,0.9054709355996954,2.543120055586726,1.2793336511449254,-0.5191887566471526,-1.3427734853985855,1.0721823790423934,2.69839273257186,3.540257571282389,4.124405782833849,4.048351614882967,4.446891022704503,6.301297180978321,5.235220481489397
119,-0.3007399333696843,0.12898192470315367,1.9561065369825186,0.8024603824652192,-0.40984562921031914,-2.2462625017682836,0.9509959967839487,2.5319187676079498,3.649573215739251,4.382184625112427,3.30873548167496,4.329389898870808,6.038817167504908,4.972194633106225
120,-0.9109934423884408,-0.6299781024169779,1.1970708346870833,0.2611777025304493,-0.30131851556637756,-2.959189411985309,0.6933858287768413,2.116304137859931,3.4301035333858128,4.232150120806294,2.267356327304159,3.792678585115045,5.259337552275625,4.230247262551934
121,-1.4363912077447747,-1.292041599722198,0.37479445892268876,-0.2762674078266893,-0.20200645044264004,-3.421203586190385,0.3459726204681834,1.5249644214166787,2.9409951364393936,3.7322358300270375,1.0687111634075082,2.9474371850927006,4.095670397777222,3.147203350415981
122,-1.8107909858086366,-1.7921726233437565,-0.40445040621014794,-0.7466366924683695,-0.11651350908889962,-3.596103069228158,-0.035121097147910056,0.8458626941059204,2.2635854821877714,2.9711492980938106,-0.13326934583647596,1.9270309081447357,2.708338056169085,1.8854561982477784
123,-1.991595462792592,-2.0869574022283492,-1.0504670481521623,-1.099551219931667,-0.04616732901165175,-3.476260234219822,-0.3933229302396522,0.16859450967896344,1.4894554399601754,2.054989710232111,-1.1964507454502513,0.8684233806657715,1.2641913214077805,0.6091491152374771
124,-1.9638829920344008,-2.158812508358612,-1.4993301389914877,-1.3030604627885802,0.010072204480909466,-3.0835964292397624,-0.6799601465596642,-0.4276809605179711,0.7083299432771364,1.0930189676898323,-2.008736545590052,-0.10534591552155073,-0.0837500225503305,-0.5365433188427937
125,-1.7403439059618173,-2.016677916276881,-1.7190950987128297,-1.346326236781955,0.05454285401752563,-2.466928537068793,-0.8607123658031213,-0.8837451586577582,-0.0024436560525065076,0.18459320360925177,-2.5007776764183043,-0.89887558099723,-1.212698251335029,-1.441420272375317
126,-1.357430250443478,-1.6932711873541897,-1.7106282334636453,-1.2392715102857133,0.0898662654893888,-1.6960214704428782,-0.9193598228417336,-1.1660518817272074,-0.5854726303132579,-0.5910731198176867,-2.6515759532576677,-1.4527995364019988,-2.040915939121098,-2.0398174217598295
127,-0.868619625405042,-1.2394540148827922,-1.5038885528817045,-1.0094814568594623,0.1181638046571232,-0.8531424443008472,-0.8584971707568875,-1.268159159393668,-1.0071701456058284,-1.1812224865961978,-2.4866112300044048,-1.7462697428357965,-2.53206455994184,-2.313074712142745
