,AF3,F7,F3,FC5,T7,P7,O1,O2,P8,T8,FC6,F4,F8,AF4
0,-0.16834559381987796,-0.12634929307528964,-0.4173450581378494,-0.02286165108935564,0.09672498850964964,0.33767026857676224,0.3029292571379966,0.029967239821144177,0.23184751711203497,0.17936267541101777,0.39548922439952755,-0.30380954853332015,0.2116253178972942,0.20390146588710864
1,-3.8242854115378244,-1.8661004670661028,-3.553632836453068,-1.5141165547556679,-0.9787124645140789,-0.6518081952619006,-2.003966589172644,-0.7579824186946897,-0.12190319113700093,0.11692014819651926,-2.2768300039395113,-3.9970029591673897,-2.6293934022832643,-2.8852506548939494
2,-6.987052972331206,-3.4316930074526883,-6.267855460039484,-2.868966913993248,-1.9889434508573602,-1.5469304579146137,-4.021312790939132,-1.4078131461140762,-0.5053222085259218,-0.020144715504992083,-4.684594377701079,-7.212546948372694,-5.170307121410313,-5.553561238803727
3,-9.263944068457086,-4.675212922266628,-8.242338539018782,-3.962204739944012,-2.8608923663495616,-2.2539085954103344,-5.510357390958362,-1.8216242711893387,-0.9157249492681909,-0.24653346238936952,-6.578391951832291,-9.577791290380535,-7.148206669716851,-7.4504892585504265
4,-10.376991354945078,-5.483944800560692,-9.252357161159553,-4.694873772487733,-3.52868994554391,-2.6987725676200705,-6.301201949809017,-1.9361979358848138,-1.336480900801706,-0.5537865230174498,-7.769682838444951,-10.826581373255706,-8.364909934282029,-8.330716485745569
5,-10.196971186055649,-5.7916796684006195,-9.192699420054355,-5.003752951046334,-3.9384812444526154,-2.835327985747536,-6.313398726273842,-1.731579932723329,-1.735977755974285,-0.9086344719075431,-8.150773063659434,-10.830452167586119,-8.707730589518295,-8.084241293115559
6,-8.757814569470346,-5.584578898679693,-8.088638344393337,-4.867153055124821,-4.053147512858883,-2.6504708599977653,-5.5648531089922715,-1.233520362501853,-2.0700088409341038,-1.256173450372344,-7.704771647513216,-9.611910723574704,-8.160100510756763,-6.748176222723389
7,-6.249783733428266,-4.901023642622887,-6.0901215858967905,-4.306457072108152,-3.8565094322263134,-2.1662291337248725,-4.167996554384164,-0.509485725032689,-2.287443792469432,-1.5276300802113512,-6.504616419696785,-7.338389522592449,-6.801030883115925,-4.499030476928184
8,-2.992628278303434,-3.8256061467754385,-3.4502477496571067,-3.3832694441666074,-3.356449228364037,-1.4381722713506733,-2.3138847585626903,0.34112694145577616,-2.338425292575243,-1.6516799308628016,-4.701669249487612,-4.298048963111367,-4.793761212579076,-1.6269204681891636
9,0.6074115313463396,-2.4781178469780527,-0.49117621059587196,-2.1924908253641027,-2.586341091086585,-0.5501595775855378,-0.24645370466095506,1.201120566751503,-2.183817575082043,-1.5676127009057579,-2.505672460473753,-0.8609965026091909,-2.365227790121906,1.504431456882663
10,4.110793101366156,-0.9989760475703583,2.4377703435146665,-0.8520597222813285,-1.604247292995215,0.39423049970493274,1.769574588200985,1.9519166901657803,-1.8043047006058945,-1.2382066736294124,-0.15885521668981817,2.5686536231560884,0.22097303971213328,4.5062115944556504
11,7.100836474513783,0.4670635017556398,5.0041188060372,0.509541530958789,-0.48953306247959666,1.2828612587578159,3.482865022793187,2.489911814513947,-1.2074602347107468,-0.6600644922147691,2.092432611271913,5.6033793824273985,2.694764361868516,7.014831646191187
12,9.235399786788781,1.7868885654268933,6.932546131646746,1.7666694001023928,0.6631393070450302,2.0077007328697114,4.687243544720098,2.7404756464047244,-0.4313115394480674,0.130589902800759,4.025052344656079,7.9188436737929875,4.809288677881974,8.737277639631245
13,10.287371717362298,2.852774542245185,8.03630271637112,2.8093308896127533,1.7520980400562007,2.4776200052250936,5.2469791110366595,2.667679817340078,0.4566104757625936,1.0580586478525438,5.462186388799252,9.290563387163862,6.366691339429284,9.485604249645478
14,10.16895953237862,3.5922969563009035,8.235945807507909,3.554009616959804,2.6785018973329384,2.6298159582058838,5.112394510677967,2.278491163479853,1.3650661819690086,2.013792895917924,6.289737742463305,9.61626637738899,7.237146238613201,9.19636426731496
15,8.937074908530999,3.9733642608019446,7.563408047872971,3.951299507668512,3.3566731912389747,2.4383813665729486,4.3239469319148895,1.6209695095971453,2.1892854222061255,2.868993242058425,6.464500194831955,8.9216252597216,7.3692088216593685,7.932974461010093
16,6.779762452313637,4.004001393387976,6.151486919798384,3.9894999160835756,3.7236644127621252,1.9187801485122291,3.004471191882799,0.7768613352981306,2.82429697778507,3.491673533363655,6.013684864532131,7.349383401873587,6.7907190503865005,5.871441133030593
17,3.986206263265168,3.7272315397078843,4.210833364467941,3.693806899420679,3.7467801503680422,1.1274171641750015,1.3408588684705176,-0.1502379652183872,3.179566399848096,3.765851933984111,5.026484808573086,5.134137931179149,5.600678341954571,3.2721557436624327
18,0.9050252052536055,3.212056590820109,1.99816186933094,3.1212817555610255,3.42795626105107,0.156081863969216,-0.44215607812451857,-1.049375195467896,3.1927650699765464,3.6100560538989193,3.6393079755258273,2.5669053933170143,3.9536300423122763,0.44230100990743193
19,-2.102977263066455,2.542028369257241,-0.21952994406827223,2.3523164147332376,2.804259924681676,-0.878280818901436,-2.112413395618475,-1.817262380334709,2.8405037903570327,2.9922835759823263,2.0169888374533462,-0.04518773831086806,2.0389309446843487,-2.3054738471147003
20,-4.710908726004503,1.8031575792272219,-2.199600536636711,1.4797662160888534,1.9442677614038752,-1.8473601532114146,-3.4607539886168555,-2.371681415888804,2.14422602284149,1.9389562783317513,0.33261503604502307,-2.4183369934948473,0.05779390027546032,-4.692192960701262
21,-6.664478532033403,1.072889936154267,-3.7525423480512243,0.5972144125607272,0.9406328371518026,-2.62717734913433,-4.327363855448241,-2.6614111137349807,1.170117180453445,0.5361864736535087,-1.2514529287004699,-4.325295997169198,-1.798948419230307,-6.504215779807454
22,-7.808378587998116,0.4116012736967634,-4.761261402518045,-0.21207699595302956,-0.10031763739426039,-3.113704541604188,-4.620609379945567,-2.671380889465656,0.022748396146892964,-1.077267755562407,-2.599199212634816,-5.618284986334165,-3.3697462303319003,-7.61351293426013
23,-8.09746492477102,-0.14241865918825775,-5.188792632541241,-0.8841054405897113,-1.070686279177088,-3.2363510993039735,-4.326076599615714,-2.422500057198682,-1.1668951893253003,-2.7247953988917617,-3.611708353112895,-6.239172482433801,-4.535959209871181,-7.984559511062902
24,-7.592209164751915,-0.5741231837081241,-5.074192036267867,-1.3798640115371166,-1.8732919661689678,-2.967487855272098,-3.5049596161998724,-1.9664197768387455,-2.2574954454359437,-4.21276435393175,-4.232374996625396,-6.216526689946228,-5.229148104437299,-7.667973603265974
25,-6.440213833762497,-0.8892487903305619,-4.518108330445292,-1.6872718403753075,-2.4325832129761067,-2.3266743431803616,-2.2824570246694273,-1.3762306580041739,-3.115440374221878,-5.354747893925408,-4.446711051990149,-5.65107810180221,-5.431925178351391,-6.783020370120837
26,-4.847515805949544,-1.1090065334514805,-3.660983654537046,-1.819257297866234,-2.702805685818589,-1.378951773981457,-0.8282077340474372,-0.7346696212842261,-3.632339014205779,-5.9959199421503,-4.277606741284627,-4.692732323576021,-5.173127080053968,-5.492643849559215
27,-3.0446547796183827,-1.2630533253166842,-2.657753359321463,-1.8085014122077454,-2.672421642147802,-0.22736543209202237,0.6681692673315108,-0.12172166069951532,-3.7395648247755884,-6.034261115150035,-3.7773983712641725,-3.513292775833258,-4.518731617987324,-3.975547461628501
28,-1.2528987017522641,-1.3820244778757125,-1.6531892414188711,-1.6998021453038406,-2.36428141889368,0.9993330193656281,2.022817248505939,0.3964861542777538,-3.417775007846412,-5.4355674714461015,-3.018318703745649,-2.2793695095435105,-3.560304849886664,-2.399915388435757
29,0.3444204256956814,-1.4908510207041779,-0.7616459531709344,-1.541317170365486,-1.8316099013866762,2.1621986613948034,3.081054014229795,0.775884954514854,-2.700045834388063,-4.240047503460329,-2.0828522615006224,-1.1295527393529292,-2.4028132670095035,-0.9026871972118605
30,1.6216773498678685,-1.6038472049086092,-0.054017251282888604,-1.3760497557928193,-1.150416134302442,3.1287953070650563,3.735372622833624,0.9986728504337312,-1.6681492846012531,-2.559421606850209,-1.0552326607571019,-0.1589212525722012,-1.1533979813456814,0.42297187766433153
31,2.5197202554821874,-1.7221892534497436,0.4466365995372875,-1.2348533456152533,-0.40938709253587935,3.788930476967462,3.935901817905652,1.073126271257265,-0.44244342638129003,-0.564739594710055,-0.014881409944962225,0.5874668864828727,0.08774236474430215,1.5309709263723834
32,3.043402179918052,-1.8339840064612731,0.7608343232301511,-1.1319645214502987,0.3013733213012395,4.067440317207345,3.6924046743380368,1.0293237614112567,0.8332776236060415,1.5335836647616952,0.9679082531899672,1.1120369267660597,1.2337728272201107,2.4169821959859847
33,3.2494241853388557,-1.9167163059137937,0.9412508504880966,-1.063670695895441,0.9012891813068332,3.932478848196546,3.068159949957655,0.9117250212999299,2.0099494042163064,3.5109336901651433,1.8342014670163551,1.4545243651356048,2.214916600681116,3.106553208896389
34,3.2274395890189593,-1.9415275328173116,1.0566813247097802,-1.0102345652338112,1.3285607999218805,3.398396572426979,2.1672044797476335,0.7699981799415029,2.9520002836110466,5.155562723226675,2.5370750845277215,1.6767080749836114,2.979842233801917,3.6396342824536894
35,3.078194940480818,-1.8785563365861953,1.1745581993750063,-0.9407009766423323,1.5466080269529328,2.523024952523118,1.1172573484083783,0.6496921152296128,3.5542359467339426,6.2940029062051055,3.041384566942181,1.8452114222184643,3.4954342421795337,4.054880591409961
36,2.8926374063549183,-1.7024848799171712,1.3452364176937959,-0.8197752926820112,1.5470114859022621,1.399912553331791,0.05108876894900827,0.5842879485591376,3.7546477907229945,6.811516501933299,3.3233251108574784,2.0155741163885748,3.745698777399934,4.376836095424967
37,2.7354189817305192,-1.3974760863673286,1.5907680544910643,-0.6156484048323256,1.3487441725452975,0.1466840382541448,-0.9109069658978279,0.5898569957812938,3.5415144873764395,6.664971367077047,3.3702895898152185,2.22029529609923,3.7304251112366993,4.608313928338467
38,2.635202633571047,-0.9608373773381546,1.8999608133568808,-0.3074968344483119,0.9939841176365617,-1.1088703842292937,-1.674599274036397,0.6630610086456966,2.953932362542311,5.886571804704588,3.181238323902691,2.4626285563018926,3.463960037496375,4.729124059921206
39,2.582832574679417,-0.4049696479486359,2.2303305662629858,0.10857273364251405,0.5412373142082338,-2.243173444695799,-2.180885364762386,0.7826427951636232,2.075769730002598,4.578109193544517,2.7674779025411356,2.7167610908530104,2.974139738324011,4.700995923548372
40,2.537019188655446,0.2425839376325294,2.5163295515894064,0.6161432314658459,0.056820892647406446,-3.1499657957037006,-2.4086767119032646,0.9139741071994638,1.0238878792625614,2.896656395503969,2.1534791074680912,2.933848500945539,2.3011520720677785,4.477351851881567
41,2.4359503048165503,0.9409263074901595,2.682170453139917,1.178309359626707,-0.394080384478243,-3.7506810174153737,-2.3723945562638558,1.015750880663903,-0.06778762229966204,1.033752270878409,1.3772112231162414,3.052407606956457,1.4959471030712843,4.015724991425494
42,2.2123668177690727,1.6391610742829197,2.656843574743537,1.7408731523555032,-0.7555831397489653,-4.001083335194398,-2.11505310272585,1.04762804327038,-1.0662117909641886,-0.8090380244045391,0.48946411026170195,3.010943589919108,0.6178157990435376,3.2902231790983967
43,1.8092469269308926,2.280897575001782,2.388641837723522,2.2385860460015885,-0.9874772499348783,-3.893696714978552,-1.6985352030442529,0.9775069268289122,-1.856761321287753,-2.4448609257141833,-0.4482328014458224,2.760480324589515,-0.2690884407103506,2.3015566409286166
44,1.1933539053098556,2.8094180685960057,1.8566879961516178,2.603651473388347,-1.069089221733428,-3.456096916775139,-1.192867780484772,0.7873274332517537,-2.35797982195732,-3.723311307634643,-1.3672375312618925,2.27486721267965,-1.100248615138434,1.0827128608689038
45,0.36445310400778963,3.173012483712746,1.0775445518536515,2.77534613093299,-1.0003172607051802,-2.7456181882189767,-0.6661897787049171,0.4765335659465129,-2.531493829099344,-4.546365870884569,-2.196808741821108,1.5572741165124835,-1.8159684854839182,-0.30076007542881383
46,-0.6411386379341724,3.3300256700134985,0.10585907188231515,2.709414898429708,-0.799929336008776,-1.841391032061887,-0.17673652167247442,0.06280252457151783,-2.3857275003038447,-4.876606718740796,-2.870053918521498,0.6420300735765158,-2.366654055642887,-1.7558943276606336
47,-1.7530147515199828,3.253221684971877,-0.9710061840099208,2.3858730867605584,-0.5015866001887305,-0.8348428242002898,0.2323605401432184,-0.41992927492937593,-1.9729279055458306,-4.736985831670095,-3.3301434918869006,-0.4082382387012514,-2.7174629868273548,-3.1719602916899703
48,-2.8745408903396346,2.9331291502399415,-2.0434635104948877,1.8140165112209103,-0.1483333357463926,0.18015507926349994,0.5352308710417648,-0.9257197101456641,-1.3799924612723056,-4.202616094542217,-3.536020328728526,-1.509496733459761,-2.8516029134405696,-4.433024878875392
49,-3.8947383852826323,2.380083089239515,-2.9936609352493093,1.03377701567408,0.21355656956149388,1.1164116922788954,0.7226675509978305,-1.4024473112810558,-0.714511024512669,-3.386195328271719,-3.4668646648464354,-2.5660269689647452,-2.7717214600957596,-5.431415995454518
50,-4.702326976512453,1.624726970767979,-3.7108180050451325,0.11302860541422546,0.5404842750631282,1.900950609842035,0.7994487232986508,-1.7983554880042074,-0.08814612327165199,-2.419510214821232,-3.1247254474306705,-3.4815082579306376,-2.4991115804163706,-6.080084573736995
51,-5.199900182551653,0.7168004186070882,-4.105731011660578,-0.8590091124380812,0.7964253587977848,2.4803814538131497,0.7804564820070734,-2.068444520645413,0.40014452562540154,-1.4339083989244394,-2.5349636142544796,-4.169953035616741,-2.0707972553294987,-6.322165942999037
52,-5.316339851451463,-0.2778660560829445,-4.122462488960715,-1.7815757479211893,0.9563091927771606,2.823841837233383,0.6864895729972565,-2.179933534826217,0.6785550323648155,-0.5426109277354528,-1.7444208380004473,-4.565159665000719,-1.5348947135587823,-6.136589511102241
53,-5.015946761721738,-1.2820854573392293,-3.745716783579246,-2.554210018666162,1.007658890767779,2.9235247797939157,0.5405214494856049,-2.116179820438772,0.7124679710047291,0.17272212459936165,-0.8174829567771981,-4.627655365127144,-0.9448967926298454,-5.539254580539108
54,-4.303291210320388,-2.213530427460578,-3.0030654184039483,-3.0891162183380936,0.9505604458712849,2.7930372075311776,0.3648993741933701,-1.8786509307208659,0.5087241828298835,0.6695692372386073,0.16957775329339736,-4.348486425582185,-0.353660385011089,-4.579961533605315
55,-3.223385654476274,-2.9919822336318043,-1.9619150251011699,-3.32241644900956,0.7962571256112753,2.464002622049808,0.17967885434403813,-1.4867739309590369,0.11367680060285484,0.9456678364987998,1.1354350300152227,-3.7496200091905534,0.19212233528544997,-3.3358572287650903
56,-1.8573689206375068,-3.546977260059935,-0.7217992235838891,-3.2227475377678143,0.5647997837757306,1.9814255523836644,0.0020067404936116293,-0.9757188966524657,-0.39448285628596924,1.0340937677144497,2.0010636267552564,-2.881108003394804,0.6563043164762715,-1.9025462737970296
57,-0.3143983769101502,-3.8250780730989087,0.5968669027658152,-2.795983819875608,0.2822180228477735,1.3983839389547883,-0.15374142703304713,-0.3923965640347696,-0.9178247181341119,0.9935800090838753,2.6969173894622354,-1.815494898646334,1.016051529711923,-0.3841988598230947
58,1.2791764573990534,-3.7959388851819194,1.8660659162581184,-2.085367562396995,-0.02237637234990305,0.7706128503026585,-0.27547054247200303,0.20984989923182365,-1.3533312583120864,0.8959400211741044,3.16924197443933,-0.6402065730539438,1.262776107341022,1.1160467193072157
59,2.7920631702536607,-3.4563839676670796,2.963839634136915,-1.1669393181990788,-0.31945715305476474,0.15148904526470305,-0.3529255841670516,0.7772188452203057,-1.6079758916449722,0.8126997552317148,3.38489984126644,0.5511763084767098,1.401252322922514,2.5042975564440315
60,4.10034119790227,-2.831883574747214,3.786748150809741,-0.14079725736071214,-0.5813663493436029,-0.41217590080077254,-0.3776225184650636,1.2613529269075425,-1.6121832061071069,0.8029361533988307,3.3342031172030016,1.667784356555161,1.447139537170985,3.701977054389051
61,5.0985753302498065,-1.9750833799285286,4.259793045974855,0.8807131498544574,-0.7841836248840384,-0.8832619317720746,-0.34332490518047876,1.6244252960605285,-1.3299827460641283,0.9039353872602957,3.0314206451863352,2.6295173057616985,1.4232966576949089,4.649389950003338
62,5.708683064910035,-0.961385885741724,4.342864120960804,1.7863547152714114,-0.9092376915975934,-1.236261243614703,-0.24705987066367,1.8427605065981891,-0.764705058473613,1.125725901336741,2.512848868269108,3.3734767423372993,1.3553878346188795,5.3068232529960655
63,5.885829664433401,0.11805199483371483,4.033243061265925,2.4791648171790928,-0.9443395880171155,-1.4580031826786188,-0.0904858665386161,1.908543612578883,0.04032139347570684,1.449919863427225,1.8325999064873544,3.858181017828117,1.267352492576683,5.653584268586247
64,5.620996909914856,1.1652042839626098,3.364186901540167,2.8877311090620106,-0.8847841368014927,-1.5472989962056776,0.11872155627930095,1.8294550219442018,1.0060185238021617,1.83270644530743,1.0565356855096284,4.065263891786969,1.1773417578697722,5.685636413649082
65,4.9402501155692775,2.084986700327149,2.400056902019618,2.9741461695682427,-0.7340904115344465,-1.5136912650597607,0.36588117464259073,1.6263875362862523,2.0261749552195187,2.2113528545848533,0.2550260382150773,3.9986880422883657,1.0946974448048654,5.412615675814251
66,3.9010684462086065,2.7949001758612195,1.228804763437941,2.7376784866501014,-0.5043612671771925,-1.3755257772237235,0.629127431189735,1.3296961716300353,2.979433078861524,2.513227308100432,-0.5046083223746544,3.681827218105639,1.0184561547573607,4.854985007458276
67,2.5863673831024827,3.233420885333926,-0.04715577159412722,2.2137927813838485,-0.2160698992842202,-1.1575670556093343,0.880361516777078,0.9746438992642723,3.743343582186211,2.6661704351761983,-1.1650266993357432,3.1530379399619064,0.9376923870272053,4.041924824393433
68,1.0970001648806833,3.3661924045334812,-1.320594243672936,1.468787634362824,0.10293857657060389,-0.888363311082641,1.0874780812568599,0.5967956713997324,4.208992055798137,2.6089850820839238,-1.68428197664705,2.460504652801887,0.8337750649150384,3.0102960832628014
69,-0.4564362526400741,3.189328395857545,-2.488601316448739,0.5908996100572684,0.41938886847470214,-0.59754446896076,1.2177847401957214,0.22806236257382898,4.294624053348111,2.300855575583073,-2.03901509999141,1.6571669954342287,0.6843216329300553,1.8046912544178817
70,-1.96173783732283,2.729466583129208,-3.460387693197674,-0.3208322662922627,0.6974907386732435,-0.3132185065516531,1.2422872783165881,-0.10608098323350529,3.956739532892406,1.728624422106349,-2.22503908056318,0.7964185232764064,0.4683318642956172,0.47825953668943516
71,-3.312576334003141,2.0405909988162407,-4.163188024705392,-1.16840103362664,0.9026763398639359,-0.05962125228639378,1.1402975198496725,-0.3879418280640135,3.1973100652268776,0.9110436439892737,-2.2553072652026134,-0.07097268246322733,0.1717241488030154,-0.9062877530712669
72,-4.414934099560457,1.198014668148972,-4.5460280494611744,-1.8658081181239592,1.0058104883982164,0.14482899069724353,0.9036734172019922,-0.6075545268187521,2.0661026121896606,-0.10061619659023678,-2.155661099237553,-0.8985822101767055,-0.2076628568181738,-2.2762625613642307
73,-5.192304842409515,0.29023666677910265,-4.581422002983611,-2.3478360054494516,0.9873541288014765,0.28892431318079853,0.5399524249363469,-0.7615185368632302,0.6575655442406212,-1.225875140012934,-1.9591022807485223,-1.644869628699783,-0.656556770033097,-3.5499771396861215
74,-5.589650978743208,-0.5903900816161513,-4.265325306999143,-2.575672288895732,0.8408592056236066,0.3693720775540439,0.0737073426751067,-0.8512071407349313,-0.8976828105782347,-2.3621437905046765,-1.699572957298827,-2.2729927790226663,-1.1450309152105693,-4.6397735240787865
75,-5.576221307738404,-1.3571458096129356,-3.615830992526961,-2.5389557701267718,0.5751720102585045,0.39070728046023284,-0.45435852469033805,-0.8808859821390908,-2.4460771530407497,-3.395047453343916,-1.4063083518929727,-2.7505026130769936,-1.6280736247966672,-5.457457391690059
76,-5.1473621093685455,-1.9375797235980712,-2.6711366527838667,-2.2543540934783692,0.2148369748754829,0.36436536919605383,-0.9907680378954871,-0.856216477237744,-3.8277225223384077,-4.210974828758491,-1.099726511370522,-3.049526675864136,-2.050018387165121,-5.922042212417364
77,-4.325402317967899,-2.2804303258014884,-1.4872185368275042,-1.7612551422247191,-0.20158566457295998,0.3069522281945172,-1.474908848288898,-0.7834510264107872,-4.894566401386794,-4.710485966767596,-0.7895507065447211,-3.147892039125515,-2.3514324201471193,-5.96919327781248
78,-3.1595828529682635,-2.36019588266771,-0.13545745414747173,-1.115490475355445,-0.6252804780526167,0.23784911064974362,-1.8464052131981865,-0.6694031716288135,-5.527967648297509,-4.820985118672499,-0.4754631245187043,-3.031352898112308,-2.4776225608538183,-5.5612681349317805
79,-1.724869261919383,-2.1790030473829023,1.2997834601316762,-0.38216479473353987,-1.002688041557838,0.17639473832824484,-2.053336195991492,-0.5220521042329352,-5.653458594077099,-4.507028764824877,-0.15012821879396965,-2.6967323052209506,-2.3875860871160475,-4.69647875331285
80,-0.11937880728295687,-1.765715406270231,2.723864742943156,0.37136961890030945,-1.2821442847357558,0.1389776991700748,-2.0601747231017007,-0.3514647031396764,-5.250750352586937,-3.7768261119991235,0.19602007898979282,-2.1554358465539125,-2.0620639751430785,-3.4155351144455914
81,1.5398904859122864,-1.172491972546773,4.035259497911061,1.081555471120485,-1.4208028254851557,0.1364302907401512,-1.854232569031692,-0.17062233450534242,-4.357564153577957,-2.6838918324294756,0.569179842686515,-1.4365247675045323,-1.5093762381896818,-1.8042250379451281
82,3.1232900063163926,-0.469220369215008,5.130066112412141,1.6931661725651104,-1.3908833159110021,0.17212203769168816,-1.449487592901252,0.004261397474643818,-3.0666146789320954,-1.3233822228573189,0.9669111300013415,-0.5884101481148171,-0.7679365356067346,0.009245724679142909
83,4.496813342878249,0.2636064750545338,5.907982905791349,2.1621711331048803,-1.1843125434942743,0.241096171486425,-0.8869459490437176,0.1542569375522585,-1.5159170598203722,0.17669671345738783,1.374332681670517,0.3217175132766221,0.09526985268912663,1.8627216725722804
84,5.532297408592636,0.9429284561780651,6.279840661645269,2.457101075335865,-0.8149905978809184,0.33047434406410037,-0.23112915640808515,0.2592346763646957,0.12658216540735445,1.6685757043734362,1.7627329655013544,1.2113721491270157,0.9904507764619971,3.574172091866977
85,6.119039346917055,1.491408882874272,6.176434160141052,2.559322572952493,-0.31820915260441895,0.4211830421363221,0.43717661588147627,0.3003412353505531,1.682339275502274,3.0007201477331247,2.0911817646843027,1.9894126694070076,1.81464346375668,4.960331138938311
86,6.17595131311365,1.8453178244537878,5.557971905915167,2.4627247341852647,0.2528602025676107,0.4908495612995014,1.0311859118996198,0.2631756275927205,2.9832814158900907,4.034957289614671,2.3112319182562877,2.5655458772291206,2.464267447228563,5.85805857618954
87,5.663000017686609,1.9613556495898488,4.423043336854556,2.1732571003887386,0.8332571836199837,0.5175066306841498,1.470133804562336,0.14120123306907312,3.8920970246094884,4.66273605765211,2.3742319032767285,2.861796905843777,2.8491200312529195,6.145919281899843
88,4.590394933254306,1.82177897096582,2.8156761708116007,1.7085664349949399,1.3541493680095946,0.48357072036749504,1.6913928349573697,-0.06121855899615413,4.319233990299883,4.818521318155162,2.2402217547160914,2.8244931130707798,2.9059639782884497,5.763086847025215
89,3.023888438684467,1.437235925315555,0.8289198041145445,1.0977228472539633,1.7515163667712592,0.3794573097698678,1.6608531838910547,-0.3268310389744993,4.234384107861131,4.488556214568603,1.886963193029764,2.4349119388598495,2.609700137614059,4.722650299150148
90,1.08470639492622,0.8468228083142965,-1.3964791455217171,0.380779115265307,1.9743981160727824,0.20619541965777072,1.3798308454624018,-0.6251642352347073,3.6708132211154645,3.7136939101797504,1.3174514402731003,1.7166232410970854,1.9802378814960824,3.1168056195384977
91,-1.05692364616694,0.11506737185846988,-3.67930914826149,-0.39225406039461147,1.9915464970557042,-0.02348419567541129,0.8871579640472839,-0.9142887366150776,2.7217196776729433,2.585675251779075,0.5643313053294821,0.737784968907692,1.0836001927717522,1.112250475537011
92,-3.1949493966837843,-0.674161575130089,-5.811314164385501,-1.1634550117235067,1.795547184259856,-0.285896174311116,0.25575601312371016,-1.1448103230564692,1.5287886215307411,1.2370462329944865,-0.30998731364599313,-0.3927601376402103,0.026511679405382092,-1.0646902568841685
93,-5.106740805986116,-1.4264396453351735,-7.576158631029716,-1.8703623531375904,1.4038524179018803,-0.5490024764570481,-0.41619035063688564,-1.265860885298289,0.2641435292213256,-0.17423563371555217,-1.218084879368184,-1.535852685776629,-1.0553562877441975,-3.1522357645143457
94,-6.57675977954775,-2.0474765473390306,-8.77230720234557,-2.450707836371427,0.856619352689921,-0.7765774775434651,-1.0184823535849128,-1.2324630971456612,-0.8921594940641071,-1.483695887750703,-2.056928491517451,-2.53806632231884,-2.014301612700598,-4.884170990422311
95,-7.422092134540653,-2.4545487743542336,-9.237315586922602,-2.848216988902078,0.21170575947130563,-0.933369927201009,-1.444847730821274,-1.013303689062914,-1.776240731140332,-2.540390339575648,-2.720851263700166,-3.251624039123855,-2.7105697491498204,-6.024013180002915
96,-7.516645036844559,-2.5872641386048363,-8.870438090616508,-3.0188633737698227,-0.4624370176551405,-0.9905063839589595,-1.6093192845379662,-0.5977311918091005,-2.262905453639618,-3.2255324732269828,-3.116352426827828,-3.5555387305331916,-3.0326399331239546,-6.397804540628529
97,-6.81060117231171,-2.416180544556941,-7.650283133096448,-2.9367273376398093,-1.0949718735460445,-0.9303086597969832,-1.4605996802394066,-0.0007506028085365924,-2.2834319936558445,-3.4672569994677547,-3.176506259746557,-3.3748724067426514,-2.9148055201411838,-5.920819226234024
98,-5.34201876685213,-1.9479555906420785,-5.64456415459281,-2.5985187958784843,-1.6208815347273924,-0.7497555848693236,-0.9921304002988388,0.7350531774746173,-1.836049402233967,-3.249544372216593,-2.8726658129240175,-2.695017620279744,-2.3492415737355694,-4.613985072011993
99,-3.238278022424007,-1.2260819324335328,-3.0097997987128022,-2.0259060435118745,-1.988135456989617,-0.4620005154435119,-0.24610962075950193,1.5413750821814793,-0.9874374630076156,-2.6140803134513333,-2.2214287143894826,-1.5684222326543136,-1.390420819267097,-2.607013184516458
100,-0.7063161374574712,-0.32682892614454506,0.019967377304239982,-1.2650430112403848,-2.1629912865632672,-0.09563322751337508,0.6894777443024823,2.3300323574313446,0.13522077165608035,-1.6547506370373075,-1.2854680235873845,-0.11215609586198405,-0.15078421789101243,-0.12696190274972294
101,1.98789637423376,0.6493143760881441,3.154896230545601,-0.3830655389328655,-2.1329091951288093,0.3082963750918608,1.6907574100880285,3.002391075864731,1.360796206484547,-0.5054430202114324,-0.16772794905591576,1.5039752411343523,1.2121555858634523,2.5270014616257828
102,4.548622199127317,1.589722889099897,6.079467591903599,0.5382303502756075,-1.9069006057011428,0.701147523686315,2.6136977234017675,3.461383598185707,2.4973116283027945,0.677291718024554,1.0004996759711642,3.0776236604676472,2.515793357762076,5.019835611771277
103,6.684973799834689,2.383706627450583,8.487628039663624,1.4108803909640828,-1.5134612706430541,1.032828202407916,3.3136686902026598,3.6246296523628705,3.3585355826993726,1.7344904094654292,2.076129876109948,4.399904460390393,3.576871806049555,7.023317960193988
104,8.146521565736755,2.9366701509997246,10.118665207477433,2.150408378124154,-0.9965114059118182,1.2583928231038097,3.6661631942603594,3.436867194386166,3.7904527052746615,2.525321442199638,2.923208548046175,5.283690990432367,4.236981488630888,8.259513167972854
105,8.755155864174581,3.1823771425496936,10.789169646236523,2.6854184313242997,-0.4099564910435253,1.3442056851862425,3.5857236494804448,2.8798443158433567,3.6939089883249556,2.9452431812459556,3.4314980577646073,5.590146190492284,4.3854315786897295,8.538988356775375
106,8.428766390746297,3.091556417454353,10.416734360164277,2.9658484688007944,0.188420045302345,1.272816163698023,3.0402497433222373,1.9780480785284464,3.040169566436196,2.9393833034036128,3.531978769574237,5.249527682310272,3.9760769905399713,7.788282563717267
107,7.193273885387069,2.675586882566252,9.03197802455273,2.9687547934348815,0.7430156368885024,1.0458450723363875,2.0584194571360896,0.7991354990963057,1.8770457718146696,2.5093536115087756,3.2069132630876416,4.273023513339573,3.035497738633608,6.062509535665698
108,5.1810733315836215,1.9847118711092802,6.776944972374598,2.7008180946259137,1.2057782407521693,0.6844350055100225,0.7288736055162063,-0.5513716326320413,0.3245341297391258,1.7125816924284996,2.492894037945414,2.7536358560129726,1.6611590750372125,3.5409956050703526
109,2.615810928394814,1.101049058340528,3.8897404095949124,2.197213012575508,1.5403852814748502,0.2271402555087842,-0.809026833474436,-1.9407574568626518,-1.4396147821220067,0.6542561937200064,1.4763366363612331,0.855738442932154,0.009650102759218909,0.5062362296197856
110,-0.21465813231254077,0.12744827302639025,0.6771447214754008,1.5169984037874031,1.7249091431808385,-0.27452042326072473,-2.3818278786759195,-3.2239764226953596,-3.2025327970592694,-0.5269982887174873,0.28202386315358874,-1.2053688537222313,-1.7234238483238689,-2.6911602838031534
111,-2.993595279224225,-0.8261293998177469,-2.5213680588805802,0.7356802849321886,1.7528394145604962,-0.7623037312010273,-3.8038342965452125,-4.2608737783279516,-4.744014587678481,-1.677732872270748,-0.943635021305209,-3.191076468393022,-3.329068993507442,-5.676848730757169
112,-5.414265129214984,-1.6566930402321987,-5.373567032240394,-0.06400924894436053,1.632514838925276,-1.1784812716507131,-4.901207298661737,-4.933505864312372,-5.865620369578726,-2.6500055541700602,-2.052171246593274,-4.870346079237576,-4.612403726927721,-8.100395732863579
113,-7.217162571209759,-2.2807375562317316,-7.593157166427405,-0.8018504569026705,1.3851714770974852,-1.4731404058005837,-5.534946457284991,-5.161205744959739,-6.417071049509724,-3.320650039916003,-2.912590112694281,-6.049476486409119,-5.418124737804589,-9.679678470925127
114,-8.220625596444645,-2.6434903818723035,-8.972214382596517,-1.4091008184487197,1.0419266525646866,-1.6105826548289943,-5.619511928774227,-4.911285968265443,-6.316279905679091,-3.6068786167045133,-3.428065798856061,-6.596572067334794,-5.650368362543171,-10.235986221661873
115,-8.340864124729741,-2.723772056008129,-9.40325137357588,-1.8355650766632359,0.6400864284059224,-1.5739538456333835,-5.134446102306295,-4.203833126194065,-5.560266302401255,-3.4761587454293257,-3.547484555926108,-6.457362616453629,-5.284270252820331,-9.715136102338851
116,-7.5989854371298655,-2.534088995371482,-8.888282195742162,-2.0539758232747607,0.21918793252424254,-1.367456784886315,-4.127351749979496,-3.1098527314733753,-4.2254967121164775,-2.9491374263321517,-3.2703675449192113,-5.660352892434382,-4.3677907810006635,-8.191952253724148
117,-6.114469465410536,-2.116326153054611,-7.534082463772786,-2.061312413357489,-0.18282932735133392,-1.0158127294411474,-2.707826498690848,-1.7429516278702109,-2.457706260402599,-2.095394210402216,-2.6447528332765504,-4.310889496487027,-3.0138216835164853,-5.857858542930554
118,-4.086446534298919,-1.5340386933017653,-5.534738495936229,-1.8771297332004548,-0.5329795849407382,-0.5610147988686822,-1.0332521450860617,-0.24565681222400038,-0.4527422809858978,-1.0228292820434648,-1.7586828642904464,-2.575355164866151,-1.383986640051524,-2.9937207677743616
119,-1.7657620782288626,-0.8627529410110959,-3.144257531898907,-1.5393611307122863,-0.8058451949944063,-0.05680241367452962,0.7115071044364826,1.2277790467192293,1.5687881830388624,0.13762500782768794,-0.726846250934653,-0.658072819427631,0.33332260041941064,0.06792326322901895
120,0.5780594266662203,-0.17982539997493716,-0.6432312248192184,-1.0983466575910072,-0.985268973661547,0.4383787299508971,2.3376077488477396,2.5297607246895017,3.389478046762754,1.2496796758990492,0.3254757336984353,1.2255843456552056,1.9474333501958583,2.9857812048564676
121,2.690356047166179,0.4447194589511651,1.6958517811663387,-0.6099891307199101,-1.0650399204713275,0.8689390807532927,3.6756500072993807,3.536470207710119,4.821834887376402,2.1892267023904135,1.2787756464800095,2.876041874564859,3.2889732211411564,5.451927232550511
122,4.36097086915603,0.9552894015815679,3.6401142289730952,-0.12895334395389849,-1.0485839412089202,1.1891612940185725,4.5958409830415805,4.161504371583449,5.730199214612127,2.8593615573520723,2.0337560598593933,4.132746350605258,4.2294365891501755,7.227575754804335
123,5.446379470399292,1.315135826334482,5.0207736355447485,0.2972824613236149,-0.9477618340009114,1.3686915133740178,5.022281784762526,4.364360848939647,6.045112522890285,3.2009971163694946,2.5220466721835355,4.890926542897295,4.694372422668649,8.168110097292292
124,5.881918151705896,1.5079251222217978,5.747921214881114,0.6329056734476364,-0.780955542766215,1.3957689919817897,4.939684794615725,4.152871708849249,5.768538123701657,3.1978984049597505,2.71208479913512,5.110154248342461,4.6688563242804655,8.234667650612717
125,5.68320262410634,1.536728123266784,5.814374476905405,0.8564031737100481,-0.5706833781900937,1.2778075557681854,4.391955235828751,3.5795471802460948,4.969669863374408,2.8758090680656454,2.609807339196183,4.814209973814765,4.195047088121981,7.491556832433574
126,4.937328497514569,1.4209753469624875,5.288912829799625,0.9612331864522996,-0.3410182727864847,1.0393434612948165,3.4732285779028924,2.732614309956055,3.772371334764354,2.296174713597814,2.2545391834828195,4.0829585755778925,3.3627081594185353,6.090740634312721
127,3.785770294790084,1.192077724628744,4.300595600768956,0.9546668451463997,-0.11508549644848741,0.7177526087034962,2.3129720452312985,1.7232026826862996,2.3363849345228083,1.5456787460132515,1.71106667580165,3.0379339426254166,2.2944537657909962,4.246295815945995
