,AF3,F7,F3,FC5,T7,P7,O1,O2,P8,T8,FC6,F4,F8,AF4
0,-0.21184594441721585,-0.5028101251188459,0.17031919564278247,0.012929491443150788,-0.15675776796356689,-0.536415045818289,-0.6123413933286872,-0.4057165699427705,-0.3200436885382643,-0.20101005383162213,-0.18194485433995478,-0.24743296088128308,-0.5863504595876727,-0.22533120600217102
1,-7.0207301902028485,-5.2412125716817854,0.43808153425320034,-5.518700602098052,-2.3814840745320502,-1.4004486298897432,-2.362340184254697,-4.102729143530764,-3.053241823966812,-4.663683341683878,-6.864885301682569,-8.430734672260964,-7.714383050921537,-7.963546039037953
2,-13.238982573223023,-9.562926242949562,0.6865445011431074,-10.574930326904974,-4.414674727305424,-2.2045838062730496,-3.889902387955281,-7.406411801074926,-5.499724594912862,-8.651361741119082,-12.936608631469115,-15.832682658665078,-14.181442425459085,-15.029601057985865
3,-18.33282616920229,-13.084675514040422,0.9018769680746708,-14.709052894756882,-6.087792260558269,-2.922871797037125,-5.055875673606726,-10.004046415036283,-7.4251514843449336,-11.748603322220493,-17.83591714388172,-21.757619262913977,-19.377404886297867,-20.79398869031417
4,-21.877002562955234,-15.498964739886313,1.0703227237816877,-17.56576779994954,-7.2641076732017655,-3.5215955564787023,-5.749611085879902,-11.648892673892558,-8.644934366308693,-13.639358924463549,-21.124952335627324,-25.662776073166032,-22.822445792099767,-24.75772963073229
5,-23.59529875761381,-16.604599860413497,1.1792605850414541,-18.916128667157853,-7.8517280721791,-3.959908974727353,-5.90089449529602,-12.185969583080029,-9.043449470057187,-14.142130370272241,-22.533978672984805,-27.21477576428426,-24.216248284299443,-26.601615373695758
6,-23.38520500044029,-16.32597882792869,1.2184539525975202,-18.67875247919557,-7.812349693049852,-4.193813202194053,-5.489105291008514,-11.56916034068395,-8.586470345889023,-13.229225480177393,-21.98665016706717,-26.322519950183665,-23.466897296963005,-26.215384349427207
7,-21.32415053895356,-14.719011855020224,1.181350098133834,-16.925024665612714,-7.164742627823665,-4.182950101512842,-4.54825452736386,-9.867522115254154,-7.325332661679499,-11.027857003484717,-19.60305161133011,-23.142780617111057,-20.696378354633516,-23.703795829901537
8,-17.656868885677888,-11.96304954702482,1.0662604675983594,-13.867886972853055,-5.982509082516503,-3.8990313757865933,-3.16679807525183,-7.259718015381784,-5.3921715382748,-7.803056998981051,-15.680548547138697,-18.058087510544688,-16.222416977515106,-19.369332620617044
9,-12.765631721794167,-8.339834139074984,0.8772421555600393,-9.835722978083401,-4.38626911001645,-3.334262795278405,-1.4815780393032127,-4.016724714681385,-2.9865275434459373,-3.924633040231155,-10.655227015966194,-11.629850917680631,-10.519247190021268,-13.674071179158812
10,-7.12707887754513,-4.202033330806357,0.624513273850561,-5.2346084334379706,-2.53104655841452,-2.5079588353435116,0.3341136560622107,-0.47427587013168104,-0.35459376988779173,0.17761724649494146,-5.049086306796715,-4.532641283818103,-4.162410572825419,-7.185732842581055
11,-1.260890227084287,0.06485078222799981,0.32427313003352265,-0.5035315282960723,-0.5901787398865577,-1.469718329283464,2.087601319315984,3.0022747394645095,2.236746675741052,4.064763892214512,0.5901693778309941,2.522236263173291,2.23548149317919,-0.5147299028438636
12,4.323620470112639,4.0826658806565295,-0.0021406105480453884,3.932070965822169,1.2625131395453952,-0.2980327007146013,3.5875024297050415,6.057000422906622,4.528283679464881,7.339295117709303,5.749152082223203,8.86458178962744,8.09019050548857,5.750105688517535
13,9.176876297194672,7.5182173316675645,-0.3297475206401876,7.703066779044247,2.8703336928632335,0.9060479338992192,4.665822097018385,8.38207607275798,6.296087524183755,9.689118390040042,10.001334948386829,13.935324295071291,12.904812478584466,11.099587234631613
14,12.949017408490464,10.114106454579115,-0.631977287874642,10.5309135098679,4.109145993908909,2.02968231831675,5.19880831937289,9.751654840002287,7.375227204058397,10.919737035535874,13.04611217718244,17.340746667870576,16.315716993127,15.149660335674135
15,15.416553767408969,11.709612581940526,-0.8831037263522357,12.249943779633423,4.898903075351777,2.9620737667022534,5.123764258199778,10.046900447925287,7.676867457117736,10.970986861355028,14.730417783585915,18.885170962740528,18.12086951914115,17.669879586807486
16,16.493607335730157,12.249811970835783,-1.0608183802343714,12.815749423960701,5.2099989072964386,3.6093395089618276,4.449257634032126,9.269019284586406,7.196752968275405,9.916829415758627,15.051450064999454,18.5792682352495,18.28838962585996,18.592855675375947
17,16.227676920073577,11.7826724133078,-1.1486605049917944,12.29957036028336,5.063767939790014,3.9080355478217155,3.2568234000295266,7.538465691851157,6.0140851950952205,7.948958770092761,14.141623842312914,16.624311411762296,16.94578332003936,18.005174095958708
18,14.781751819313271,10.445349869875239,-1.1380089564828832,10.870321742384231,4.527162374491014,3.8350244958777218,1.693276317102684,5.080124126288443,4.280933149643075,5.347063983289385,12.239140697553482,13.375658728962112,14.352647291575762,16.1225525089927
19,12.406109467988772,8.442135457545996,-1.0293653413356447,8.767307387985525,3.7023417004083012,3.411858463212789,-0.045983627744256114,2.1960126217265197,2.2034562176327674,2.4402089468563486,9.649210450246727,9.291148611830389,10.861461044531442,13.253712748278117
20,9.404064725408153,6.017303705890431,-0.8327183536264848,6.267589720357346,2.712530478006146,2.70268367179932,-1.7409542709975399,-0.7713207952958249,0.017212707867540897,-0.4352691201456553,6.701769585773286,4.871612171573981,6.872143340991642,9.75839698626307
21,6.096207873003317,3.426420619826155,-0.5668744140248783,3.6523235186718446,1.6859557057505774,1.8057219155808582,-3.175387448937058,-3.4802535153085654,-2.0404465069691526,-2.9757880363212883,3.7114610704576223,0.6012112964866302,2.786264586998864,6.0050863353718515
22,2.7873087092952105,0.9094913932233846,-0.25776186099128395,1.176113675157425,0.7399009496415948,0.8394666759370791,-4.165751942249365,-5.631200389626995,-3.7575423288357683,-4.943538007843939,0.9447461095204671,-3.105213450144124,-1.0337756162071634,2.3333483169929985
23,-0.2607905482776926,-1.3312569228685354,0.06414995231166452,-0.9572893649828461,-0.03312190413310329,-0.07434313161672411,-4.586699261516617,-7.00212310088904,-4.970895597675205,-6.188802829521946,-1.4024835728396687,-5.942008367169089,-4.296509612669599,-0.9754745742402577
24,-2.848129604318343,-3.147023730732044,0.36704964206010815,-2.610741735374819,-0.5753774073209301,-0.8283101439361931,-4.3892004453061935,-7.473827849693505,-5.583005634009856,-6.659566366770208,-3.2152481587992225,-7.736047414893688,-6.801601162698042,-3.7170680637153923
25,-4.846526198573614,-4.450567221536785,0.6212369592710963,-3.7199603852707246,-0.8688976033347834,-1.3447070827615426,-3.6084067106931803,-7.041743905115163,-5.570407795943662,-6.398199969163119,-4.458067285862245,-8.452163112477171,-8.4476869597348,-5.77187907106328
26,-6.200680993116063,-5.216839626031459,0.80241364732873,-4.290586729191742,-0.9349377515964021,-1.5860510163692485,-2.3596870886532932,-5.812670734592001,-4.982640557294796,-5.526726186830288,-5.1636534950709745,-8.181618347766143,-9.228627974317243,-7.102642876186965
27,-6.9217028859704,-5.476967365777783,0.8943967805525039,-4.387440244818626,-0.8281077642675961,-1.5591891949200156,-0.8230230887474302,-3.987034908529922,-3.9321797174426947,-4.223520120550331,-5.414678552003903,-7.116589024397855,-9.220175485672925,-7.743644863041386
28,-7.0749040920071495,-5.307020966330088,0.890898447576857,-4.118119537446905,-0.6260903007979973,-1.312240201365877,0.7822655545053341,-1.829221198440111,-2.576891264085369,-2.695189082491637,-5.322120835024857,-5.515100080418509,-8.559858640265603,-7.784295108118254
29,-6.764029039976101,-4.813376360199016,0.7961292811204959,-3.613531113063268,-0.41643227235553554,-0.9249425234367621,2.2289217071245826,0.3697703535251961,-1.09754505707621,-1.1476873100460534,-5.003678141430788,-3.6616473386653117,-7.423241547928064,-7.349790742146481
30,-6.114101054749371,-4.116594273679262,0.6241381306464475,-3.0079933657279048,-0.2822725248707756,-0.4940839537489197,3.314668787695394,2.33200945328499,0.3264359080194107,0.23952304145942643,-4.565226314744068,-1.8288063198545303,-5.999623119988443,-6.581462330719097
31,-5.254849951317825,-3.335670635576366,0.39697216365113147,-2.4213172322076515,-0.2889934599250242,-0.1165140207519696,3.8916750693504683,3.8290403877756183,1.5396450940652628,1.3331842590463423,-4.087461254190035,-0.24452752816536036,-4.469852342825287,-5.618952883205853
32,-4.306296177692049,-2.5742764927910415,0.1419016247277002,-1.9447759444230897,-0.47364102203470104,0.12737259480845178,3.8880281114123663,4.70994084132099,2.4287546873517947,2.0578272722537663,-3.6188456770806967,0.931325169005474,-2.9883144786902065,-4.585779541082097
33,-3.367600060968424,-1.9102533072222037,-0.11192452625039112,-1.6322312307316853,-0.8385677924878235,0.18691715289318428,3.317865665809485,4.917291202963319,2.9337024252815316,2.39847772968662,-3.1749556430444614,1.6191300000568078,-1.6704188611716366,-3.5791885270735424
34,-2.5098165020667813,-1.3892039837708,-0.3369580483560256,-1.4969738106618,-1.3501742082039527,0.04908140513848915,2.278556910798046,4.489189624468846,3.050809233606557,2.394973005508065,-2.7434258107125635,1.8199139615527449,-0.5861833919404412,-2.66462234591141
35,-1.7727728201332194,-1.0225621854480704,-0.5104239011637808,-1.5141453011052257,-1.9429318715442017,-0.26025910735472035,0.9353531747509665,3.5475779241878733,2.8278511282218393,2.1294392744906356,-2.293028463248229,1.6050959695551643,0.24016107022928748,-1.874631645482921
36,-1.165921394403198,-0.7900648162025536,-0.6167936591872462,-1.6280026423260487,-2.528160601185119,-0.681659132334148,-0.5041067739396037,2.275179568869444,2.352275921086284,1.709235985987807,-1.78504197503182,1.097905130034605,0.8251860645138315,-1.2117038806555827
37,-0.6727028083730706,-0.6461224021027842,-0.6492678849414949,-1.762811532560709,-3.0063896243054495,-1.1330076175561414,-1.8214693883116426,0.8849731974738025,1.7346944542661986,1.2480647790369326,-1.1849720825512284,0.4496652775370427,1.2169758615200281,-0.6542377070371646
38,-0.25768753157268726,-0.5292054388934928,-0.610111940552541,-1.8358408429306103,-3.281646569529993,-1.524008763794847,-2.8206060489899634,-0.4129101450574832,1.090352583013769,0.8479497557549963,-0.4728474908665632,-0.18547765243351363,1.4829163796781024,-0.16473910058728664
39,0.12444642586223359,-0.3730669356825811,-0.5098429640207692,-1.7707879597115852,-3.2757482748334588,-1.7717177975532834,-3.3567529139776227,-1.4418031461833687,0.521431086633254,0.5844616052692547,0.34933853004051946,-0.6738980662020123,1.6961331204902297,0.30077514971301716
40,0.5191855276989449,-0.11842719612791279,-0.365414755178427,-1.5099936445625612,-2.9406488728819573,-1.8145137037002046,-3.3574352179330456,-2.082185846843167,0.10272565228361273,0.4969523637069116,1.2539923486520586,-0.920932280067671,1.9222148444397449,0.7832242172425681
41,0.9628550987429776,0.27632054260067723,-0.1976733175561122,-1.0239915923636527,-2.2671362410071505,-1.6222418920799215,-2.8321050007961333,-2.2852711142102744,-0.12740218724321395,0.5847892065543673,2.1885024031228135,-0.8822994562139788,2.2077981354978746,1.311813203312148
42,1.4748254685556241,0.8267483284851171,-0.028443031563970225,-0.3172625857550271,-1.2886299988421392,-1.2009822235953176,-1.869229938071068,-2.075036248128502,-0.16981580316785788,0.8097333692946899,3.079907734139405,-0.5674421164437695,2.572387070427994,1.8972723456083254
43,2.052245407614994,1.5175134101010666,0.12235941125274498,0.5704997700268559,-0.0794654266123997,-0.5918540603537621,-0.621539758207826,-1.5390904772401341,-0.06113971897952106,1.1038086733702508,3.843021157136373,-0.034853686123717885,3.0044359677634347,2.527822886917875
44,2.6680453642381057,2.301729615545829,0.23920262091542752,1.5677904024843803,1.252234349098486,0.13571653085966986,0.7180576389394999,-0.8104463649458866,0.13503502669024067,1.3813337571405773,4.390964863858356,0.619487872711641,3.4622433158262718,3.1684624362365317
45,3.2725970743183987,3.1048764006225387,0.31269419035550516,2.5789957654242976,2.576286510660748,0.8949516276521191,1.9460211888139995,-0.04351534237180006,0.340639745211727,1.5533223115009969,4.646789339112648,1.2786125841555729,3.8796287340986955,3.763823498835212
46,3.7989913997245295,3.832975463794868,0.34039921949661406,3.495515750326949,3.7553586034909494,1.5949612948685876,2.8786032362355876,0.6116953390049692,0.47725602811837964,1.5422280694653068,4.554707572395273,1.8234584958949909,4.175752505264089,4.244446241917999
47,4.171442080871746,4.384195579153378,0.3266430412620088,4.208990424629738,4.661214284919461,2.154066243905826,3.378595937757547,1.0331999359289674,0.47973369707313074,1.2950365520377236,4.0894966596850955,2.1514593514403817,4.267861737829577,4.5358600542517244
48,4.315883688064926,4.662537600739187,0.2813577660070758,4.625027997246659,5.190254751903989,2.511110575550954,3.374543626123691,1.145070627353561,0.30735822578501343,0.7929652204730911,3.262796278616178,2.192255325704354,4.085284246122373,4.569442755404785
49,4.171462025210237,4.591879721102443,0.21816293451820837,4.675727561011581,5.276382603085204,2.633111691021746,2.8698241081381943,0.9275442137249318,-0.04892408217753306,0.05648615271858371,2.1253538084653814,1.9184390424393316,3.5827117949537834,4.293685587284097
50,3.7013773408846835,4.128492196376119,0.15197456039158477,4.329395327431301,4.899535038887898,2.5182700905697395,1.94059118288629,0.41815940032540944,-0.5641128327831002,-0.855027832359896,0.7647011310990317,1.3499754251870002,2.7507759616140985,3.684300327422188
51,2.9014938114289945,3.270202578288027,0.09650156011717863,3.5961584174410532,4.0887661210630535,2.1941467180561234,0.7232364755512398,-0.2957603211053821,-1.1818204481246446,-1.8490790424895587,-0.7017417421140003,0.5518108581318076,1.6221557781042828,2.7516139942120725
52,1.8053090780667433,2.0607214542992067,0.06200465117604633,2.528654745370023,2.919437503960899,1.7115770021588195,-0.6064817273958621,-1.0917637942567702,-1.8215882581052163,-2.8106343260038744,-2.1376043058418834,-0.3748971282739246,0.2719656581135808,1.5439349302381167
53,0.48428096122713543,0.5882059001826443,0.053654994463718915,1.2175724260721017,1.5048212078267524,1.1355146699914136,-1.8593893269231743,-1.8316625406837836,-2.3898831498584054,-3.616325328496552,-3.401502842903503,-1.3066564188777643,-1.188088315415831,0.14603400253222787
54,-0.9569130127550899,-1.0221170299574205,0.07074112353246513,-0.21754077665378613,-0.01686674377359109,0.5344035340247582,-2.8600855457255623,-2.3827488548395563,-2.7933700415208915,-4.150577643634739,-4.362511634032018,-2.1146861351423376,-2.6214145390960777,-1.327484341823934
55,-2.389931678502184,-2.6206229486191788,0.10684538103015098,-1.6411633352911028,-1.4983912157898378,-0.030181880640620964,-3.471506777276255,-2.6378528784123465,-2.952768833587407,-4.32167618991012,-4.91542177607582,-2.6827937390347354,-3.882836977923063,-2.74343031581512
56,-3.6762071295133785,-4.049842756594541,0.15096354174002655,-2.916852173918864,-2.8003825559631403,-0.512010314603024,-3.61351212737593,-2.5315467721463243,-2.8154873404975786,-4.075678038116427,-4.993950098032499,-2.923656672292059,-4.837445387489415,-3.96470540527514
57,-4.682730375146199,-5.162877406607832,0.18939510237028995,-3.9226277681341886,-3.807050096311999,-0.8855241021412306,-3.2730790588808616,-2.0504047565244403,-2.365287498123129,-3.4062307487710792,-4.580183994425289,-2.7913115656800724,-5.37941634084071,-4.866633443242136
58,-5.298232902526224,-5.841319545063109,0.20811030218823362,-4.564788029923229,-4.438738566551368,-1.147298155698674,-2.5049195018032244,-1.2360360340782555,-1.6274994761660069,-2.3587479595728684,-3.708888315459927,-2.2881685898156707,-5.448037813534137,-5.352802093535752
59,-5.447643905381047,-6.010307370710917,0.19522471232620522,-4.788423891621155,-4.659750438085964,-1.3135251809923192,-1.4226551741919344,-0.1805250901571883,-0.6687485644065244,-1.0280120186858168,-2.4658367118956432,-1.465600808036006,-5.038381660994792,-5.368193092864617
60,-5.102831455515904,-5.648644535581054,0.14319645955345425,-4.583315515268665,-4.480483533675222,-1.4140599930545212,-0.18195205731162187,0.985152969634694,0.4092125394528139,0.4509346390341865,-0.9800140941672327,-0.4180142780775565,-4.204683125866793,-4.907634799252198
61,-4.288051791940348,-4.79252121846672,0.050406486190685655,-3.984472082751178,-3.9536970555072872,-1.484113381373062,1.04194517056926,2.1083131844659637,1.4812113535863867,1.9178624302471743,0.58970584238529,0.7288287328918236,-3.0554435026561726,-4.018180262429979
62,-3.0791770164555716,-3.532188991468908,-0.07812095648121932,-3.067263324758752,-3.165516473357714,-1.555082437711096,2.07913533785443,3.0351995205630433,2.414728944565953,3.206774062026674,2.07206828024236,1.833701362700594,-1.7404475086046265,-2.7948216686148117
63,-1.5965593278349008,-2.0018669798257838,-0.23097067754460665,-1.937785608251898,-2.2225056200214333,-1.6461743506730262,2.7890062850314195,3.6324566179633293,3.0883969723430758,4.16731994960514,3.303177559900187,2.7579382260663925,-0.4311106574116057,-1.3698786391590716
64,0.007783931238393973,-0.3640620137996078,-0.39153502404337287,-0.7197151691251421,-1.2366693307171577,-1.758390505554142,3.079921331380454,3.8066041347605717,3.410391389334735,4.685386660105938,4.146121269172701,3.3832517733651777,0.7033431437174438,0.10269677627891102
65,1.5672241141148913,1.2097570381261837,-0.5400025324668246,0.46065749394704464,-0.3105235102594861,-1.872091242002379,2.9219375788401867,3.518804853042816,3.333923896588604,4.699923316940758,4.508019330629207,3.627044498592931,1.5205997179432496,1.466109177479839
66,2.9197897762066884,2.5596887414525242,-0.6558775035224369,1.4893029376479807,0.4756616790245452,-1.9488009842410898,2.350776489956059,2.7926865189312746,2.8671731582247033,4.2133762605371325,4.352246805287453,3.4532676261456463,1.9272628636696614,2.5801373454722616
67,3.927291675546903,3.556512298920003,-0.720703951878015,2.2773629478112505,1.0726772789572188,-1.9372156259840396,1.4624435448255337,1.7137736580847962,2.0755907467232677,3.2938220749849445,3.7040901400205457,2.877458929900665,1.8947286933557654,3.3385754657461346
68,4.491901828503008,4.11692909692467,-0.7206424204561408,2.770493548642355,1.4660812489911048,-1.782642365163636,0.3991730843781257,0.4201399507073644,1.0755221295594377,2.067953646744819,2.6488550308114047,1.9653267021484246,1.4661958863086018,3.6823098206022156
69,4.568033148804136,4.212957675159197,-0.6485667713597504,2.953512105680883,1.67440188918271,-1.4384523926237813,-0.6714072749373937,-0.9149116849533165,0.0193789041272198,0.7053533340725401,1.322362029522553,0.8250382884950436,0.7532144875760165,3.6061881959810416
70,4.167886360149761,3.8742394337531025,-0.5054055489371401,2.849832770094897,1.7422814861239517,-0.8776698680560286,-1.5810068578814214,-2.106146697179323,-0.9260051835523773,-0.6041937662786679,-0.10526527079310011,-0.40587309765261004,-0.07838995725138112,3.1586466610468693
71,3.3597769609304384,3.1829061877230975,-0.3005404234620519,2.5158499237365675,1.7297687966187405,-0.1026443688516775,-2.1857922746578833,-2.9826721122198174,-1.6049351254009598,-1.677434204657254,-1.4507132956208602,-1.5774310618407608,-0.8318314157099808,2.434026898771708
72,2.2592542891322114,2.261611557852382,-0.05118286345940823,2.031085150006303,1.6995491523097945,0.8490934072751245,-2.3882503481869364,-3.413523352828517,-1.8985272408035616,-2.3647086474508145,-2.540966479205018,-2.545954735061079,-1.3090818344655948,1.5585241064377502
73,1.0139777899765379,1.2562262665728074,0.21923143471656772,1.485473384076879,1.7042081309081292,1.9042140381827632,-2.1525207887380944,-3.3287283222599586,-1.746335105379555,-2.573320273723701,-3.2362025922424347,-3.1923551118095865,-1.3430173669718308,0.6716209139847621
74,-0.21579717678104082,0.31543310083265713,0.4834748011774399,0.9655609240849117,1.775611672073648,2.9588815821203442,-1.5107902680904786,-2.732407224027377,-1.1600862768153937,-2.283477378253821,-3.4490398774604776,-3.4377253548102336,-0.8273697919781006,-0.09443769677706909
75,-1.2785794274825615,-0.43006902351013726,0.7135288303460496,0.5415662545872021,1.9181502775184127,3.889709954236817,-0.5595942396924779,-1.7054350165751408,-0.22668391517559996,-1.553967968592257,-3.157389135188436,-3.254206161249144,0.2601639338264182,-0.6341979785315508
76,-2.0519260430142845,-0.8859058630009291,0.8838188938591721,0.2571785303019263,2.106985183770079,4.569191035115794,0.5536482250055773,-0.3966405439018562,0.9008052654084496,-0.5161240932897228,-2.4088679721406354,-2.669594954480158,1.8456494293967756,-0.8846741508331273
77,-2.458752829952612,-1.0073068008964436,0.9743016865139343,0.12363055786368539,2.291643588582994,4.883579274335972,1.6520541883803872,0.9967528238974113,2.023545306280629,0.6436388674959086,-1.3157771471589825,-1.7648671845063686,3.760184635138323,-0.8346970864025235
78,-2.477232870221619,-0.8053266294487827,0.9730225902116488,0.11900784035584948,2.404460815319048,4.750662642648498,2.5555781496895134,2.256994633200966,2.92613689663729,1.7106241004379474,-0.04090622636603119,-0.664631539835124,5.755619947633767,-0.5263349970012354
79,-2.142705675227178,-0.3449446456443239,0.8778036918575051,0.19300338964927877,2.3725896814496843,4.134672210537816,3.108299835894499,3.178069666733555,3.4104385949282108,2.4743341840193698,1.2242375135771062,0.4785373507089896,7.533560794962139,-0.04793661133863486
80,-1.5411758427021875,0.26488567825290427,0.6968149189034926,0.27649802442190746,2.1317095308461136,3.0558361161308567,3.202570138943166,3.597534949467325,3.328802982495774,2.76188719436279,2.2859964909635093,1.5040682931915328,8.784423259126944,0.4803627796491224
81,-0.7952626505260741,0.8879741657025997,0.44791273615641997,0.2945645537991235,1.6392601878937778,1.5927529297694336,2.796301011141565,3.4229540978192587,2.611355283414744,2.467249527392706,2.976301292296855,2.265144425945264,9.231587097014708,0.9266046655534174
82,-0.04466212938452728,1.3821004836186164,0.15678728830360172,0.18089386568944288,0.8850493636760051,-0.12324160143085544,1.920697657557637,2.6486134928226153,1.282668548608181,1.5715950664581344,3.177612253228815,2.649319073210104,8.674589441202608,1.1694165395227623
83,0.5759084382016583,1.621622967871492,-0.14588214817393005,-0.108668559789588,-0.10256456139234771,-1.9213591917281805,0.6771865324029263,1.359606091370245,-0.5352823979535019,0.15129163813738156,2.8413393931686453,2.595079563821683,7.025035278353272,1.1193349581125354
84,0.9578626111365988,1.5181131369234335,-0.42792603714355204,-0.5857410256343741,-1.2560809535934214,-3.610765057397256,-0.7760479154480607,-0.2777098022129568,-2.6349216779214752,-1.6282009503217272,1.9968351479703133,2.101868518365878,4.329557748662546,0.7355562583812373
85,1.0356684615919314,1.0358359494032132,-0.6594067986501667,-1.224034241734718,-2.474208074856697,-5.003604215247229,-2.245916491892167,-2.0377450744161094,-4.748365946283599,-3.5321327398428597,0.7493466200849066,1.231889432696478,0.7756956821029737,0.03524685012578609
86,0.7968626180205592,0.19959063484194656,-0.8160997712012876,-1.960119512899626,-3.6326300215879894,-5.938544085014856,-3.5314089384763574,-3.6671020016785336,-6.582821300187271,-5.287476939359205,-0.7331003497576477,0.10313363577963773,-3.3212133232707868,-0.90634051495758
87,0.2835743884340055,-0.9064663669968813,-0.8822996898093849,-2.7005204969960923,-4.598848255373424,-6.301594281670934,-4.451717294788226,-4.920782097068006,-7.861077644316777,-6.620899572740939,-2.2422643718053035,-1.1256794371541377,-7.549393087955622,-1.9652488013065326
88,-0.4146386185014978,-2.149033337886985,-0.8526086860300097,-3.334286481778228,-5.249125580033197,-6.041315265116563,-4.8714088533439615,-5.597806139757621,-8.361246036543896,-7.2982778569029945,-3.558616450680166,-2.2763394330995204,-11.44684950378452,-2.9864459865937008
89,-1.1754151212755186,-3.3635211813333736,-0.7324936103469702,-3.7492650719288143,-5.485207337458086,-5.176303068713521,-4.719087964963228,-5.570951697117358,-7.949934898341292,-7.160010248273784,-4.482511011203244,-3.17566366433635,-14.556770876956843,-3.8070518595439307
90,-1.8632260725851701,-4.376952007768508,-0.5375561660293853,-3.8496072132061103,-5.248474926619432,-3.7939115675717323,-3.997036660815471,-4.806221897826491,-6.603996215821172,-6.146878473442138,-4.863044295366474,-3.6798185202522835,-16.484882668045326,-4.281521985841683
91,-2.3507789167063597,-5.032482469009355,-0.2916191099606713,-3.571744617821758,-4.529507546789784,-2.04037937575231,-2.780708957828386,-3.369235251910498,-4.417636821481704,-4.312534591610977,-4.620309556930089,-3.6949075587405447,-16.951003207995342,-4.3047569607691285
92,-2.538727020665473,-5.211882588288585,-0.02387530496841788,-2.8962508077415667,-3.3716446051127216,-0.10368501400748453,-1.208442388175014,-1.417699059329829,-1.5938131255300154,-1.8205982989777745,-3.757703108161664,-3.190792306082642,-15.82765540360288,-3.8294010415089628
93,-2.370611592967928,-4.852653721522477,0.234544897530628,-1.8536171142234923,-1.8679616582367078,1.8086038207143382,0.5368914173831564,0.8188284571805016,1.5789256374508425,1.073430082490957,-2.3624207402768413,-2.2061061253244825,-13.160269932440304,-2.8745385823526473
94,-1.8408773811808448,-3.9573605987270697,0.454171963572672,-0.5229396483553551,-0.151973403261851,3.493618242371276,2.2515465069873755,3.0688911726258126,4.760955836126206,4.053048041900314,-0.5940734367323031,-0.8437471952893335,-9.16602467251544,-1.5244250036635723
95,-0.9950487576979511,-2.594012265610747,0.6105387816234054,0.9763513619678558,1.61677442928897,4.776549502610055,3.7365537812656275,5.054527471975331,7.6027623104939535,6.780205624765473,1.3368478075463082,0.7424282560697665,-4.2113227517553025,0.08245700925518151
96,0.07751999986784144,-0.8877208344862106,0.6868887181201021,2.4984889056716137,3.270385877789038,5.530237784064091,4.821980189193646,6.527216994575627,9.787295823027861,8.937932329054757,3.1974113323407742,2.3676871745024513,1.2291366549854628,1.7721468577264945
97,1.2567451974125616,0.9948520009377934,0.6759608245207154,3.888994031736462,4.651315871376708,5.688720279911409,5.386809803977995,7.299599732082784,11.068012973765406,10.270339096305673,4.7633553562953175,3.8402920048315146,6.626248667066222,3.3586726169555514
98,2.40838981476756,2.8657913644697772,0.5806770628202894,5.003336874813525,5.629739602047213,5.2533055451731645,5.372211499577524,7.268932508543507,11.29784889080446,10.614640018223618,5.848335164638955,4.985719574228761,11.456251362031145,4.668497545492778
99,3.401413936100626,4.537995953599458,0.41368099004720066,5.723994091218359,6.117459439331725,4.290704473673634,4.7869203148402875,6.429485826167453,10.44571286720894,9.921029622826678,6.327189572018004,5.667877351049999,15.258640450649365,5.562228807552053
100,4.1235675239090295,5.846041226371569,0.19579888671368872,5.973641999744012,6.076722673796565,2.9237093122185764,3.7044873641366562,4.872611765824841,8.598817088107385,8.258001599560911,6.1501559438988505,5.804580569846415,17.685087548561064,5.9505300265125065
101,4.493286099871127,6.6633210056236445,-0.04639720143859717,5.722939873100453,5.523031184815161,1.315757042731538,2.253115151077949,2.774814697483547,5.950996331287721,5.802735569405605,5.346444961053403,5.375555147286873,18.533718079871377,5.802327948421168
102,4.466806706004407,6.913736117821206,-0.28365669072160044,4.9922613817965455,4.521827187363424,-0.3486465173975378,0.5995861002504271,0.3756243966081159,2.7788993256047316,2.81820349009205,4.017240236383935,4.4224272926033565,17.76532512002019,5.144797284621786
103,4.040330532012317,6.577135126603053,-0.4874165406918161,3.847649851803811,3.17971839676706,-1.8852865835578156,-1.0706558608604757,-2.0517663013584375,-0.5906857609291811,-0.3796385607364139,2.3197317261736816,3.041330675449054,15.500632603935635,4.055962431127788
104,3.247819237719154,5.688611259750366,-0.6330995901726693,2.3920423020663444,1.631554732448563,-3.130927165039972,-2.5749209108718762,-4.233392717599114,-3.8182139157227697,-3.4600357183190353,0.44498017465238965,1.3697095023695811,12.00017128584796,2.6518152914493243
105,2.155493765600243,4.332475171203276,-0.7029761253105946,0.7533126312291012,0.025108285853117557,-3.96103130692555,-3.753795309142236,-5.926949863757924,-6.588968497196588,-6.1159627055850905,-1.4069222589554544,-0.43050895965655833,7.6303467436918275,1.0704467599290368
106,0.8542654038065663,2.6321750026911235,-0.6882546364422675,-0.9291238178419687,-1.4947078739891067,-4.302605391762119,-4.488557836499955,-6.949946094909501,-8.646532640345653,-8.098165080369927,-3.050845743540461,-2.1910019558684755,2.82062199649472,-0.5442301452906906
107,-0.5487950098650731,0.7376104510795323,-0.5901426504116004,-2.517506543721506,-2.800229259848408,-4.140829687478947,-4.713648617656133,-7.200338138123988,-9.818493649201669,-9.240714923442741,-4.336681286028672,-3.7541984887815048,-1.982699404951743,-2.056971303057686
108,-1.9391544047485143,-1.1887695949713537,-0.41973069634376003,-3.8874185144529734,-3.792504836564869,-3.5188404580960038,-4.422881053808589,-6.667320143634681,-10.031763970361839,-9.475389247087493,-5.163250149992969,-4.987733203064316,-6.360796872404939,-3.3524188289894306
109,-3.2032478878656216,-2.985902442883873,-0.19669126911682316,-4.937109043105237,-4.4087950633228745,-2.5308018187475896,-3.668750938565657,-5.431094328806504,-9.316183825814452,-8.833753743736517,-5.4849546772544295,-5.795056211701746,-9.960285294284919,-4.342393859914229
110,-4.236491378289701,-4.5071549040326255,0.05306795499743205,-5.594055029576,-4.625637584137018,-1.3091741562289934,-2.5549468366440506,-3.6517342859607416,-7.796451981188521,-7.43744910312614,-5.311189602121037,-6.121678779762234,-12.521551882818127,-4.969388267975315
111,-4.950842234876048,-5.6317766398415445,0.30052225590337484,-5.818746885395538,-4.457589888801043,-0.007767994118833119,-1.222940371253971,-1.54853811207438,-5.673763847757713,-5.478619289035966,-4.699505597702933,-5.957087764674976,-13.895653345938506,-5.206940238678859
112,-5.281800681198572,-6.2742124660109635,0.5170405872918004,-5.605929034865421,-3.9522537748151643,1.2173168390847067,0.16574810517632385,0.6275775310747896,-3.1996779451237276,-3.1935184506311756,-3.7442057441547494,-5.3327685654257735,-14.049345984716988,-5.057845244852489
113,-5.1945233977348435,-6.390784094387908,0.6778509985132669,-4.9836142820630505,-3.182544029673011,2.2265009691825317,1.4494480679768722,2.6252061823660178,-0.6455584647515703,-0.8329696114719705,-2.5623980427012474,-4.3170138911179965,-13.059030297601186,-4.55112024743434
114,-4.6884464999301105,-5.98326741778494,0.7650195406749606,-4.010157527194519,-2.237351645010018,2.9129459995814493,2.485918624399393,4.223175467076706,1.7286395575997395,1.3665258446314974,-1.2795256779559545,-3.0072842736081395,-11.095313422079892,-3.738372506428754
115,-3.7996106933785834,-5.098929148651835,0.7695581403424292,-2.7695845370496657,-1.211768178174826,3.2141810874395444,3.169115617033621,5.256933032581313,3.702515006436,3.2075950697046993,-0.016110733004818807,-1.5208770566232377,-8.400494033437207,-2.689847634880007
116,-2.5998556879207024,-3.826714638201323,0.6923884967608246,-1.3653033925511089,-0.19790737038472225,3.1177409676633254,3.4409832065675756,5.637180146549286,5.117063571591141,4.550062415977851,1.1230259141050274,0.015385581652216075,-5.261577817868098,-1.4900857585383842
117,-1.1922661414919593,-2.2895375533966384,0.5440407490214446,0.08766030179970262,0.7228729577752081,2.6602341575774586,3.296757087417888,5.358347052271914,5.887881242366854,5.320686726607713,2.056354154282223,1.4757740268628123,-1.9814929341050327,-0.23291692057381874
118,0.29729450631209187,-0.6330105700188797,0.34313653125365884,1.4716431618853094,1.4858272221019615,1.9201624339329257,2.7831545473641017,4.495886869512986,6.008569344884614,5.514158343921767,2.7298406072898715,2.745901581089424,1.1489449463586123,0.9844618113474055
119,1.7321026720142632,0.9885690650370854,0.11387200935187171,2.6760643432826408,2.04651283049967,1.0056658709219493,1.989825737829852,3.1929316146526707,5.54448587069404,5.186084733485262,3.117996325543565,3.7319155551342487,3.8760228185112133,2.0683718064517036
120,2.9788179561289976,2.4276839276425832,-0.1171473749418197,3.6071554217984576,2.3823074165665856,0.03903819493774176,1.0353990459377262,1.6383686244360498,4.618238273416648,4.439634567961668,3.2222686105034426,4.367926027391986,6.003144488965574,2.9361982941861386
121,3.9223585368445053,3.558831383298512,-0.32428380451102196,4.196742875586166,2.4919212984524877,-0.8597560019222831,0.050220300312734986,0.03961929882232336,3.3893378987914704,3.4081450214687767,3.0674144937415377,4.621008891499054,7.40440274704234,3.5239200354630804
122,4.479390673109966,4.291668995548801,-0.48599788245607245,4.4090121481400315,2.393193893282721,-1.5882789354885898,-0.8416637242371339,-1.4058642521671623,2.031093692147976,2.236269551960452,2.6965145568402717,4.493246572821944,8.030806619517696,3.7926638717507326
123,4.608423317207668,4.58031195956809,-0.5873204081208065,4.244245360373057,2.119539295899292,-2.07352944870914,-1.5386680580021739,-2.536250454002833,0.7080219591970867,1.0621527105022501,2.165233643987497,4.020500438601585,7.908908011796972,3.7332246674957026
124,4.314872335634052,4.427431172817012,-0.621355577947599,3.7387923026783914,1.715452426219578,-2.279122037422311,-1.9737150831522277,-3.2445181100295533,-0.4432324428566975,0.0027139009058408394,1.5358494207568756,3.2679305784034964,7.132268914940479,3.3676238486189876
125,3.6501504177645456,3.8824672698067757,-0.5896518797442882,2.96098387091955,1.231510270790663,-2.2070382259906887,-2.120596854325205,-3.4886654013781375,-1.327176644471687,-0.8565107662512311,0.8714797897312643,2.322648315475668,5.846896681640139,2.7471368935269043
126,2.7047335086234536,3.0340995027264626,-0.501442392181938,2.003260622302721,0.7193050806163677,-1.8940668741303857,-1.9940220020541033,-3.291894406951247,-1.8956789321377487,-1.4662761942781704,0.2308607746747261,1.284243466910534,4.23237148356302,1.9467382284737016
127,1.5960949293301057,1.9979529988592413,-0.371915996431409,0.9713697268082486,0.22672817622479957,-1.4038040672961798,-1.6437260062550947,-2.7333377635787466,-2.146981089688458,-1.8133651726375755,-0.33603985101467215,0.2542112320243176,2.4808157453709603,1.056490210866308
