,AF3,F7,F3,FC5,T7,P7,O1,O2,P8,T8,FC6,F4,F8,AF4
0,0.9322775690439199,0.9114761629584068,0.7527491526665967,0.27378361179147054,0.2864078514449403,0.030404807502705543,0.4267248062345664,0.008063469964125294,0.12170576167594982,1.083716508816336,1.0567299527249445,0.8946643291393952,1.2063799845131724,1.2093330538532854
1,-3.212944238544507,-0.9855542711553901,-3.2012624328271535,-0.505151207527262,-1.015313386252576,3.0031778580696775,-1.893816143931937,-0.686004120416514,-0.2940649356410523,-2.7832898595078857,-3.975653999749566,-4.777962173079823,-4.139057624033666,-5.318605225057465
2,-6.710327661693069,-2.8088751710705298,-6.436386366236623,-1.1802145790564458,-2.1280223643297353,5.088729575339845,-3.704678200751949,-1.2062810368641201,-0.4309395020601611,-5.982421251803212,-8.090979083408126,-9.298039071495666,-8.433825679428207,-10.695647858928329
3,-8.782753564389145,-4.200982246836501,-8.179871110085971,-1.5974486724199468,-2.8287853582636604,5.6756358052461735,-4.5162088702710586,-1.432666877564454,-0.09906580674897263,-7.728583669326968,-10.309219853715176,-11.545415898769122,-10.585811176686164,-13.73996043303544
4,-8.912291236277811,-4.805819502695942,-7.985919484477858,-1.6505088905154814,-2.9551947809546495,4.597267862051844,-4.106566778927186,-1.3159384444567452,0.6636268562360231,-7.576642884499289,-10.078291227738926,-10.943963197207347,-10.040336509390778,-13.746231275947595
5,-6.981508433485961,-4.371099202730005,-5.8589685940415475,-1.3100888783619826,-2.445720782973497,2.17983864455751,-2.5822498074039912,-0.8893328684126987,1.5897277294050531,-5.543054194976302,-7.420970247569366,-7.619662749762747,-6.934995754558572,-10.652503750922648
6,-3.34811663476074,-2.8604026381925487,-2.2791536722181034,-0.6402677340663103,-1.3708699943010563,-0.8572817651762171,-0.35108934389427354,-0.26052605290264574,2.2776474988855524,-2.119567566334649,-2.9530188445159204,-2.389321187427627,-2.0781258780144887,-5.086143407024394
7,1.18537379481098,-0.5267847371241584,1.8885980130248352,0.20636966659990427,0.059816054282215,-3.6179661969151704,1.9855698048019943,0.4146049430434301,2.349765826018544,1.8327240193699348,2.2427529741211147,3.4268814050867498,3.250813699057145,1.7347529480899917
8,5.524942842481363,2.0969760921215252,5.59306422831862,1.0187502829597135,1.5272227983199795,-5.296316441067815,3.793502766564081,0.9705136767239971,1.613740496059588,5.291499086165859,6.868057803265715,8.331480289878078,7.633481599776992,8.242543956779043
9,8.543719478157314,4.311206030713081,7.862667435344559,1.5789432938375318,2.6706891591989805,-5.4135162015302996,4.5768203012354505,1.2734362751154331,0.163892630449747,7.3370510189563065,9.733241838466599,11.037637840021912,9.893690915890456,12.867958534966053
10,9.38840912531189,5.445927383074855,8.0727542088459,1.7234983954681278,3.1820188263166536,-3.954037976559329,4.114100458875348,1.2551153068818819,-1.6200667831323432,7.40509499236608,10.07483794899309,10.819110027894167,9.425119408148005,14.42437571359705
11,7.746881288684281,5.083802205267827,6.1377869192603605,1.3965520820956778,2.899525545940159,-1.3622525817301645,2.5222555208944484,0.9297044208568005,-3.182775975369702,5.457615803067389,7.779636410378067,7.724527347350044,6.372194873134415,12.434554232694936
12,3.9866049972232633,3.2311180656954903,2.5642519786526425,0.6761103714402242,1.8703531266047808,1.5966269511840114,0.22948055352095004,0.3890086825380606,-3.977089227263253,2.0167861090927772,3.444596354428191,2.588023786242966,1.606204154785153,7.304716197722183
13,-0.8981150036130918,0.3658520071888443,-1.6650417392806716,-0.23893856117482495,0.3550056180902034,4.066577122757529,-2.1373617100266116,-0.222889768099298,-3.6590302650798368,-1.9587651449558237,-1.758501190652052,-3.1793756686531705,-3.5065421459451604,0.2784918923181365
14,-5.536898692944468,-2.6717933079146703,-5.355278566708391,-1.0817049345073761,-1.2351846206256427,5.351006363130876,-3.922273973832484,-0.7487150352908265,-2.2241660046662988,-5.331493488447158,-6.390461592687585,-7.971067422835262,-7.487714216640008,-6.842884366025648
15,-8.572975300011858,-4.926482280979349,-7.443574104173669,-1.5968112462691721,-2.454145021320633,5.108702670097236,-4.621628794752318,-1.059876452288681,-0.03397885612923829,-7.110109297800698,-9.147008437365853,-10.438168688788803,-9.176421402061996,-12.160133705273582
16,-9.079023024538921,-5.639179783706657,-7.32171012376149,-1.622347181990652,-2.9566306116527072,3.439966428578505,-4.028024906541436,-1.089393845890365,2.282132921342374,-6.749704653827347,-9.242766391896401,-9.885452524231658,-8.079984842252909,-14.199957130066762
17,-6.865977242610828,-4.51814352397411,-5.035098737495395,-1.1466360675027008,-2.6090424100303458,0.842364893032832,-2.295498380765761,-0.8468090883455173,4.020539601667686,-4.333840845954416,-6.659377948878514,-6.4890870253406785,-4.536819746371276,-12.354751543523225
18,-2.5755780799584893,-1.8693485308306417,-1.287556435266484,-0.3184305337928188,-1.5364256931731666,-1.9449707243929097,0.09482029789078811,-0.41145352671251795,4.6300469943920355,-0.5745531282683826,-2.1731135629993736,-1.2620166884710105,0.36702471383431634,-7.098944964911902
19,2.488413918775926,1.4713949015542105,2.7602492367189564,0.596219297212182,-0.08638251590139305,-4.157852289609698,2.4628631107534154,0.09308688464816317,3.895881155318217,3.3816915908707514,2.859413920631733,4.233724052132842,5.113365141160414,0.10155876148175458
20,6.750401182985983,4.3950414468139,5.844125591008759,1.298830671524857,1.2812827604913257,-5.218920888754896,4.119448831062657,0.5350105134748304,2.018166573801395,6.293422240322555,6.9031758706604744,8.3496424180763,8.211696755015845,7.181780173082916
21,8.857367680213166,5.886159966939036,6.994036049470725,1.557918071907128,2.1439428311475552,-4.885099585344174,4.566559768714327,0.8098401982836689,-0.44344899811545935,7.210283294035253,8.716271970264568,9.851305202502385,8.66523388340026,12.071241466313555
22,8.11883567561846,5.376825865338641,5.84878730877724,1.2890134224451337,2.254401702090924,-3.2937065005712096,3.6508067355003075,0.8653241394364223,-2.7428846143840873,5.78535084140608,7.743770264636552,8.301489833972381,6.29608005178165,13.316681094968752
23,4.744634928395544,2.961971446244079,2.7822223083923387,0.5863929457697352,1.6204451624207108,-0.9022869146123448,1.6225430709014748,0.70956806840969,-4.182872329702458,2.409324958078733,4.304305010688382,4.201994753153637,1.8206871474643016,10.540894295865597
24,-0.20493605532687498,-0.6061573345349976,-1.2061854004512358,-0.30650735180421823,0.4977887195045307,1.652193526436201,-0.9226449088354282,0.40191128763226475,-4.335805656034836,-1.8859727889815479,-0.49808525004071874,-1.1566229060398918,-3.3573515406727394,4.5853392778242155
25,-5.147953293208663,-4.1516740333153,-4.806779307792478,-1.0795942648290686,-0.701447165487447,3.729084980767617,-3.2100460812604363,0.0313049571469301,-3.178168351151506,-5.734877973096373,-5.116661354705388,-6.095298372586939,-7.579738629868994,-2.7225660468586934
26,-8.486058772950361,-6.463340958011644,-6.822253657143073,-1.4638025037407072,-1.552964840777804,4.844408751659644,-4.5161157947536985,-0.3099347107816726,-1.0950107704080947,-7.865828479428896,-8.054219252820772,-9.072586069297586,-9.45832083099932,-9.118330132899525
27,-9.121972521572655,-6.706879550894406,-6.5602312074560505,-1.3262094534634135,-1.7669419299183147,4.775917218013585,-4.396277348342119,-0.5489492778185674,1.2462848194760825,-7.515765051453618,-8.347168191054958,-9.169346894388182,-8.325154922713109,-12.601370090509034
28,-6.8186063260096335,-4.718738965490241,-4.066041336806468,-0.7182431753549688,-1.2861740112819031,3.5931898089942576,-2.8388907753717127,-0.6461176916112205,3.111041963811746,-4.695111670303139,-5.882489317814926,-6.376002642331744,-4.460437540731146,-12.068251660606313
29,-2.280240510412164,-1.0772898970039453,-0.11693178613513916,0.14126918446973777,-0.302144517585928,1.6156466247526517,-0.29156373961718945,-0.5979839767166777,3.930806436663305,-0.21103432081543685,-1.4408646674992995,-1.5895744767647746,0.9798285487996474,-7.672913207121332
30,3.0717574005315935,3.076549682620204,4.022770924402246,0.9432620303502303,0.8155287793131024,-0.6808955917500527,2.4575387464310956,-0.43114731845922577,3.4799893749463555,4.567035683750771,3.5513993959580485,3.6777455685818254,6.317842856136803,-0.7916197666379531
31,7.554737127521939,6.410538571778376,7.0068843805812975,1.3989006937213373,1.6506459854136726,-2.7799041206488804,4.515240290775465,-0.19109626356286027,1.9398784651812833,8.131010851036168,7.482365962403574,7.782539282601763,9.878818004144856,6.4034461488666015
32,9.76195026303385,7.838992289965844,7.841134621452369,1.3438821267619754,1.8866656862483322,-4.233891098568769,5.167304289426576,0.0698012300719078,-0.16838122162610733,9.313716314148337,9.076012981494218,9.468599438467741,10.518983075649748,11.629827051040662
33,9.005735411039563,6.879454230633112,6.204399375947426,0.7987065526634148,1.4171249600073892,-4.74799075310559,4.121250708366935,0.30223624449622866,-2.157610443621444,7.669341612036719,7.804035047589125,8.25270542919683,7.987420025260635,13.220467467233176
34,5.524883154640044,3.809027510178947,2.5539547542437004,-0.03746805183808262,0.3829991524368045,-4.227307879176621,1.6255649811480593,0.4667558436923236,-3.3970873727160367,3.629121305062853,4.053246140753348,4.55693658387619,3.0064216638564596,10.654642386853018
35,0.3942474226764284,-0.4294780368398795,-2.0174587661593386,-0.8579094738906009,-0.8746326490273766,-2.7864805152837016,-1.5818336535136048,0.537769691070736,-3.5112533784376967,-1.6214967183219786,-1.0043504487029404,-0.4479485061989077,-2.953338811956153,4.721704402664539
36,-4.827029590022086,-4.536483863996629,-6.124219164085075,-1.3592166625708035,-1.9294545211217091,-0.7246982711052345,-4.489083775350064,0.5056175057720068,-2.491691795157293,-6.507198153506504,-5.79299391852233,-5.228781410923628,-8.128280599675776,-2.7347072777840844
37,-8.588887588976085,-7.273582218879415,-8.518284399031069,-1.3521699834832908,-2.412955565626657,1.5288518332772139,-6.127653801860539,0.3772394968507067,-0.6891021488686723,-9.552529999354956,-8.838132428718621,-8.37447608071739,-11.001229226073939,-9.406774934437644
38,-9.824118148564441,-7.851184803600004,-8.470328168445711,-0.8322574251468956,-2.1378111368931223,3.4931374565620943,-5.891385255952758,0.1753769260101302,1.3084074823034604,-9.839972739529737,-9.228932040129562,-9.021132785268385,-10.754626579344142,-13.253037055313653
39,-8.254017175668375,-6.161128002556608,-5.983824347735026,0.01612709408873036,-1.161276544051996,4.728452108226451,-3.7513473858572044,-0.064158893211699,2.8680672707338117,-7.29028101153966,-6.890274509233998,-7.086738345772196,-7.499678538228405,-13.132157837344552
40,-4.437689065070999,-2.785022171931012,-1.7807511626143773,0.8839818483665901,0.23128463815627912,4.931178249265863,-0.2904630832188669,-0.29749103141932454,3.5123242414950226,-2.6778227053196764,-2.5825769621790267,-3.252432934345393,-2.2182202789028485,-9.138641490874306
41,0.4373691412502238,1.2147594822855383,2.9288740611854602,1.447896024958668,1.6163384881697676,4.011377879418772,3.4608302505889257,-0.47972422241159574,3.0621914385756894,2.6198282727150386,2.3611424259191613,1.2881243289660362,3.5542393942186745,-2.54087018692422
42,4.943784138974881,4.644341236122936,6.815126332347915,1.4868837438490712,2.5657688535907153,2.132082733705908,6.340553586218941,-0.5730772732739177,1.681271191757646,7.053652753667614,6.466989726933173,5.21759058354462,8.19726369794033,4.6463684699932335
43,7.850710711740355,6.54952327671885,8.817103734334898,0.9640717623686988,2.781123857435421,-0.3068743884927619,7.423162129795108,-0.5546010118868795,-0.18859443230728817,9.376133742263852,8.576525668612334,7.49143537012751,10.477738837370032,10.305773690259175
44,8.470591378069704,6.490346441339224,8.435780876822736,0.043941617196910115,2.1863505978668782,-2.7461374988827028,6.319875868855835,-0.421833485293637,-1.9741848222043235,9.00623850327591,8.18258123878529,7.619520828422287,9.884242361447168,12.865125694026059
45,6.81669330492336,4.638849825378584,5.849752351714576,-0.9613214184552057,0.9508118780762063,-4.593975123589413,3.3117299147792414,-0.1950081684282849,-3.14990178137458,6.176498955500713,5.54556678097272,5.756766327245723,6.732085781825599,11.7444378677238
46,3.5386232803971884,1.6815352215932333,1.8308835777919445,-1.697891712812558,-0.5633853019012914,-5.374965560843407,-0.7302921964850948,0.08500484130884872,-3.3918384720885317,1.8252271107104703,1.5667685934180584,2.5936189871072854,2.022328531284778,7.47309492392061
47,-0.3251218834626916,-1.4286965335585582,-2.5024029121987237,-1.892131490324191,-1.9123205615074494,-4.860954780171958,-4.613668954147108,0.36312108899347345,-2.661873012565521,-2.721246862731663,-2.5263594276212586,-0.8995792286134029,-2.887108149264297,1.4600154000019474
48,-3.685138026005824,-3.782238575798383,-6.011854637519273,-1.4463386845538149,-2.704582771746489,-3.1452574826267776,-7.194648486479635,0.5801328238979938,-1.2020122520251377,-6.167414258607233,-5.572023349499339,-3.7804638273682767,-6.688162693288788,-4.488630377092381
49,-5.717905896661289,-4.7829132752879,-7.847362102060929,-0.475831117272741,-2.7177324293226643,-0.6339602691665469,-7.730520313808033,0.6849602083357356,0.5517583686784917,-7.6331979991793215,-6.815486722250127,-5.395274436672923,-8.482327238431536,-8.735804732061476
50,-6.06760668301806,-4.298200958607031,-7.651522568699817,0.7250482602462281,-1.961958952329017,2.0492286974822607,-6.100890652339045,0.6467916379430977,2.103845084270333,-6.886933760330466,-6.09773217841024,-5.51953078658261,-7.992500566404313,-10.281420375821464
51,-4.885055670177213,-2.6536332025225953,-5.6135550000605035,1.776499646461684,-0.6727503153096471,4.222527371955636,-2.8295484134315885,0.4643173823658614,3.038954278991414,-4.363634671272819,-3.8451445528504276,-4.352933112641548,-5.578667161248646,-8.994660743771801
52,-2.7121041890010806,-0.48718539103895947,-2.37250441942556,2.3353674699141638,0.7637357877712789,5.32753522654864,1.0949925072553324,0.16926892577707767,3.128537367029228,-0.9769157921630007,-0.8805868472342009,-2.3919628316414694,-2.071606948985171,-5.560218199225261
53,-0.26720040871581374,1.4784105969265608,1.1883557231965838,2.205899087444672,1.9286698008129077,5.081722672160643,4.536666743433877,-0.17770024038799426,2.37910462283072,2.202225876636923,1.8688048457854847,-0.23883277876387682,1.508553167882628,-1.1832750520695159
54,1.7882074688084493,2.6673699287589856,4.188877508409452,1.4036353511676583,2.4954398728251763,3.557839947663352,6.560664419550263,-0.4990475410114991,1.0164499681144743,4.288842314138768,3.6653043344174,1.5834401220526317,4.254677961015911,2.8295700727784934
55,3.0273363644035496,2.814440934036785,5.970935484435529,0.15251472370771685,2.323699054917879,1.1662825688049165,6.701903594397958,-0.7182569066146474,-0.5833810143270252,4.838778146079309,4.162346429525306,2.753596877219175,5.605359534727421,5.468650561670513
56,3.3331194303582525,2.0158566284770227,6.235397060311037,-1.183267955522428,1.4950141902566407,-1.4559613626559085,5.072480366722825,-0.7794336541753591,-1.9947471015660123,3.9396419165723784,3.4588676173530972,3.1863585962650243,5.448410163010196,6.2762456173855625
57,2.8640116800913513,0.6618823718001701,5.072752029985406,-2.2107222111122966,0.2808912129015394,-3.619315038478167,2.2837728122961165,-0.6631670352391957,-2.8492914819273665,2.1210813602063134,2.0037228994256417,2.9866283000641727,4.081249684428216,5.395506797241165
58,1.9408880613830817,-0.7177208179005096,2.89434566462662,-2.627830164926137,-0.9452617180589993,-4.76988074570292,-0.7796984699000532,-0.39365118421517037,-2.925565996529277,0.12793317952673797,0.3972885216851851,2.3578297589104165,2.059398521663022,3.4246271464623237
59,0.9071816001807221,-1.6395434409195422,0.29576181923897144,-2.314558642971281,-1.8238219198875478,-4.6389717374717945,-3.2518160923029624,-0.03419071920006102,-2.203260090626992,-1.3572365020482289,-0.832431907735077,1.5080306246295956,-0.005272989897064176,1.149948211145829
60,0.015406799989405048,-1.8223230774335641,-2.1038870376623833,-1.3673622741716949,-2.1161095979865867,-3.311772174188339,-4.543380466681962,0.32843930718630404,-0.8709006184401518,-1.943677106230745,-1.3998239221780537,0.5895364702313517,-1.627166432424473,-0.7372268124201795
61,-0.6245882905384472,-1.2648926457383924,-3.8043677577443997,-0.06709702481845645,-1.77044460015,-1.1960001255591008,-4.487268063585704,0.6067941588148036,0.7160450381133051,-1.6373597417053303,-1.3235245116413394,-0.3125276196613785,-2.5563224762303483,-1.8428950237056774
62,-1.0286203882888016,-0.22601363676615233,-4.518130154752244,1.2090776930894973,-0.9282487746974303,1.0998643539743667,-3.333729067368893,0.736245483514411,2.1204996117648762,-0.7918346259889568,-0.8681571789445671,-1.150493103785706,-2.791573380734341,-2.134375243685205
63,-1.2730018167896078,0.8816425072254775,-4.202674458918312,2.1038252418076175,0.12930648150982776,2.943053276642207,-1.6124442609583356,0.6921452916970959,2.936305068696911,0.06821573805007214,-0.39813216473093765,-1.8684278303011832,-2.509940159607393,-1.8643156650707613
64,-1.4185244453547692,1.6437379892509805,-3.035643866710043,2.3870452548426297,1.0748786561143486,3.8560106700902343,0.07846319971898921,0.4954078417610373,2.9025206053836365,0.4786096679477175,-0.20620473944129808,-2.3705798670491967,-1.9521096082305796,-1.4033158179578997
65,-1.4612560519402191,1.7893853052818134,-1.3488339677939098,2.0206742231429873,1.6374654541630274,3.6465108091795573,1.276837622539657,0.20481379375105052,1.9888915756738548,0.2317487148355122,-0.3858902884597555,-2.5256652944748095,-1.3143257985629582,-1.0576272583140476
66,-1.3326211183933878,1.2799125859605445,0.45760115845969734,1.1608353510137441,1.680992434807763,2.451028407979105,1.7847099161528392,-0.10142873400114182,0.4242018864890658,-0.538754333867528,-0.7973814325123775,-2.2106821158373107,-0.6881522437673924,-0.9454909493417165
67,-0.9472620957820171,0.312571377974482,2.0007060293508885,0.097958473282529,1.2353881508994076,0.6804595097117453,1.6845995606893556,-0.3488888922741579,-1.3490483036351248,-1.4176989253542644,-1.13878509718643,-1.3779290570597102,-0.06577563591625851,-0.9754242504879838
68,-0.27436397851881195,-0.7594734528949393,2.9851903178559915,-0.8438064244339021,0.4733228573198465,-1.1129645495246443,1.252020347111272,-0.48746194500105156,-2.7902703662160784,-1.8891376500942507,-1.092420727337922,-0.11510582454223393,0.6004983883399684,-0.9253160375582081
69,0.6041420934160865,-1.5601646451401208,3.250227312373719,-1.4129292978113583,-0.3558599642994025,-2.4051224974342125,0.8093927958443493,-0.5029034331099664,-3.4201833440948426,-1.5674686735489591,-0.4853866489508045,1.3333416592578318,1.3188336671751213,-0.5801666365851615
70,1.4815636949358315,-1.8274104665485278,2.789243657700905,-1.5060568815990678,-1.009976740639712,-2.8534276702343764,0.5837244524996935,-0.4161841255783069,-2.9786800259786754,-0.38605251810593344,0.6036478458030915,2.603681222900254,2.0007951806675304,0.13578234063209127
71,2.075365958637614,-1.503729753346988,1.7428111141157483,-1.1875992824941064,-1.3264885185804414,-2.388596487860019,0.622806307596953,-0.2717077943749749,-1.5293123951993055,1.335965255677154,1.8401708049020877,3.3076051662888806,2.4588515372918804,1.0922545289158554
72,2.1255913367974246,-0.7479771813392481,0.36694980326581916,-0.6486690653728064,-1.2609416207125095,-1.2199432416320597,0.797069261617035,-0.11918900633523781,0.5310003921197417,2.983339387156646,2.741624077433154,3.1588591813993925,2.466557202906955,1.982744631145089
73,1.5077042592951304,0.13496665221612356,-1.0187887000510096,-0.12302998349453241,-0.8826824763939942,0.2429610271401288,0.8786041528846353,0.004007838228751315,2.571735683463607,3.8657026320185586,2.86206993925013,2.0895505834242245,1.8608550373724173,2.4414743664300067
74,0.31359631610991306,0.8185469383541998,-2.096363535612946,0.20649179181153438,-0.3351141829523265,1.5241304451971254,0.6592619027020665,0.08370863537604689,3.9168260876700653,3.4915616331743027,1.9852104277829403,0.3110705018404654,0.6443275590110709,2.201147853103923
75,-1.1386923127179702,1.084025428926595,-2.6170493684157266,0.2746411079393392,0.2205101785085122,2.2273223692538875,0.056953791310357466,0.12932443945968033,4.06654021198045,1.7912726568353097,0.2486817049678771,-1.7116189841302134,-0.9600966414239906,1.2264215461292067
76,-2.3823505191368097,0.9037810421159996,-2.4589545465907494,0.14808586741732335,0.6554360639081368,2.1505225298924024,-0.8331167862516156,0.1642322908354323,2.88054830147642,-0.8025339123046022,-1.8567230006054223,-3.3764856397315923,-2.5353222698646354,-0.23520462236324075
77,-2.9494972084821183,0.44465737921101783,-1.660685022004001,-0.01663292830745013,0.9012221303394439,1.3372879799114707,-1.761821448145952,0.2104704867572745,0.6551221760016107,-3.4606653571557398,-3.62551722716307,-4.123961001338366,-3.581177021003229,-1.7133108358562281
78,-2.542734598586515,-0.01098894066625517,-0.42047798227023037,-0.052751387333607506,0.9498587069846373,0.054237937301553886,-2.4137287501058053,0.27435858742979846,-1.9423849652776617,-5.225440208698681,-4.3747045791132075,-3.6259423973631995,-3.6803813906792895,-2.6711688191623235
79,-1.168939949061335,-0.19540552802298464,0.9433325062699536,0.13369329182886816,0.8331182341583491,-1.2941397337869904,-2.524236796545125,0.3394219867195243,-4.071994354532374,-5.354422963989447,-3.700046069639308,-1.9207398810774026,-2.6634499762584123,-2.7059117248103304
80,0.8197682284271712,0.01676745605412584,2.0654932281773193,0.5132382464647907,0.5955932208589662,-2.2857498981955096,-1.9813795953031041,0.3702577839506182,-4.9948131179985005,-3.618043331680217,-1.657746158014159,0.5584674920174382,-0.7094847858151073,-1.7182725097951386
81,2.805027436601839,0.5382414812662563,2.6259716988870325,0.9373447740314785,0.2760096928273293,-2.601510393913374,-0.8746307639885323,0.32665261954685326,-4.3324930612652555,-0.4367008880352968,1.2026321496592007,3.0835396286456196,1.6639901404127433,0.016204397819821324
82,4.087287946876357,1.0907164541203778,2.4389883229237377,1.197506895579689,-0.09529647913109539,-2.1144248555056033,0.5262350103023706,0.18293271753358753,-2.220357353756458,3.207122781843798,3.9801373608939974,4.840016099446346,3.7334003548730776,1.9107123376711261
83,4.1227177907067,1.3163817243760043,1.5144226530808256,1.1157267042869892,-0.48483233708263135,-0.925608679364847,1.853346826740697,-0.05512534058329719,0.707537104427381,6.069074593508714,5.704247525474647,5.185699102734153,4.791323146463744,3.2541480235673537
84,2.7330156789669107,0.9390558124907205,0.0712851857651091,0.6289612742696981,-0.8407973228853458,0.6599640742015673,2.7540329933250165,-0.3433207264806675,3.5080271661562485,7.064579662181077,5.668409424161509,3.8774348068789304,4.389826583935204,3.4633081462396036
85,0.2105307759545447,-0.08982934393200444,-1.5062061520051524,-0.1687088367675822,-1.0875394900725677,2.2108258700493986,2.9961593901730925,-0.606355953274602,5.237918471396729,5.670009790794841,3.7016654100849715,1.187165986933228,2.5212058652004776,2.313138772611027
86,-2.7295566485078018,-1.525056802468778,-2.764056689836072,-1.04627925469653,-1.1385187172926101,3.280562198048295,2.5317089198601836,-0.7587245802672518,5.280655916651212,2.157853562345031,0.27770122759207855,-2.141613115948887,-0.3339812620304083,0.058453548501175054
87,-5.148868489638864,-2.8791162060039452,-3.3036637151361874,-1.7135890995733951,-0.9271187528837586,3.527105324885417,1.5012334948069588,-0.7331292530078761,3.575620634879902,-2.431280188742083,-3.589978585908571,-5.096446199307734,-3.321698247460004,-2.607381753263038
88,-6.182611350935206,-3.584370761748909,-2.903358300948032,-1.9281875996763442,-0.44413469284874013,2.8109510732875376,0.18258880406550967,-0.5068963196143522,0.6628103277934377,-6.590488246842076,-6.647255519826724,-6.703478276259596,-5.467833759833341,-4.756954133465913
89,-5.339771784569429,-3.2126629531802284,-1.5998763212940466,-1.5900080641712937,0.23568688061632834,1.246691936574405,-1.095149524719297,-0.11656269816016865,-2.4829896190686935,-8.836457555181276,-7.804643062851297,-6.346271443061724,-5.995414866002051,-5.537840937246136
90,-2.703431013083459,-1.6700381192981342,0.29904309110972643,-0.785980111113157,0.9544623755612627,-0.8087761198547406,-2.0430708360071224,0.3459228127939554,-4.77975393551515,-8.228835402032468,-6.517377471664571,-3.9910413232157893,-4.602053328671935,-4.484934662979582
91,1.0462531247689975,0.7144307139976978,2.282190652650319,0.23465533629363208,1.506434739685811,-2.8340152671155177,-2.4816500126395207,0.7560447377707624,-5.417423958015602,-4.738774930260271,-3.0087995770952776,-0.23700893427421088,-1.5990630172979599,-1.7249703041847078
92,4.80874820016485,3.252913903149615,3.7704434888672305,1.146855434004046,1.7006205546144912,-4.272559497501947,-2.3709526829250036,0.9926794520350278,-4.1543876160930875,0.6731165534285911,1.749547050083414,3.8365945861074233,2.146462118087193,2.0087418271087585
93,7.3945709993703375,5.107769716609045,4.285645178740901,1.6663118017163716,1.4305810757603128,-4.684082152971113,-1.7994006387238475,0.9762352612246221,-1.4206111315347534,6.316562069830925,6.310059688726897,6.989082927235925,5.46177768577225,5.572649903026503
94,7.9097667271252785,5.579587634562969,3.603708857102883,1.651922191064572,0.7247998265113034,-3.8770663789881508,-0.9415518460713903,0.6964880347754061,1.8176058629771348,10.300973130561788,9.196997623302368,8.20681109369766,7.239232390368045,7.768565907627381
95,6.066541118956132,4.372495681796542,1.8425057154132374,1.154838986699126,-0.24471183266921,-1.982991066638893,-0.002671479970107626,0.22025009119839534,4.391120076348027,11.167693505883394,9.389535621499679,7.0370651634039,6.809302957810575,7.7466050178923735
96,2.310541869831443,1.7353089728122615,-0.5491543808317184,0.3948566201618691,-1.204174075783328,0.5555602845426655,0.83184342380432,-0.3248694540939357,5.345502790386828,8.412566198522061,6.679710310483379,3.7545295989946554,4.188815388363926,5.3188028724501315
97,-2.288032062676362,-1.5834120823485804,-2.906518462690916,-0.32723731994464933,-1.860190055081649,3.0876897338144076,1.4297200233313134,-0.7866491847945762,4.293516843956427,2.7123421889343886,1.7791831023139317,-0.7017801954503067,0.11217930290146558,1.0688065950288281
98,-6.354052937406452,-4.5625206377971095,-4.539547531635717,-0.7478172148263861,-1.9960859752250115,4.925466887064387,1.723776972484666,-1.03366326571087,1.5720343034710729,-4.238671684742994,-3.872308477384805,-5.008925057892171,-4.177197074465106,-3.792875386173016
99,-8.63908134413629,-6.245480401465728,-4.943658176396826,-0.7432673102670753,-1.548883773546058,5.538062299240752,1.7064918186941258,-0.9957018883571382,-1.8596876808354492,-10.244860654790939,-8.54519202420263,-7.872128416372659,-7.3165559990607605,-7.792706648597753
100,-8.424132587328241,-6.070732852147565,-3.9639173161053973,-0.3769854639588237,-0.6382305664482509,4.712047668169321,1.4154984754264264,-0.6860896338326653,-4.750709259399108,-13.317733573219417,-10.76800512890841,-8.435716493697504,-8.26999926867545,-9.663516468563753
101,-5.758098439331558,-4.075563805623568,-1.8566881678381975,0.12888145732085468,0.46552027407813135,2.627249551435161,0.9183062027996892,-0.19828679560451054,-6.003977175139155,-12.34275141747759,-9.80622740801171,-6.556748182772578,-6.6811995898691245,-8.763997245730868
102,-1.4489636480737609,-0.8957466378866983,0.7767207991171522,0.4872723175537123,1.4255268362792872,-0.1796902693126597,0.3009389803945266,0.32263104139669546,-5.078009161192659,-7.476534825624307,-5.911172257189453,-2.8485291842630796,-3.0086274322508624,-5.304029730207196
103,3.1923856572366134,2.4443333160944363,3.1685135997694713,0.4698298485968935,1.9473825318233433,-2.9585721836614685,-0.3396078231467099,0.7247874473757585,-2.1985199295656463,-0.13198559347175934,-0.2517659864367596,1.5223449476107345,1.6096750587525257,-0.29410019518515684
104,6.7718218415928435,4.879879529263854,4.620742477311725,0.011579212244932465,1.8756004920070544,-4.9565968043340405,-0.9026126764410143,0.8963197538780786,1.6999557499582287,7.453505195610356,5.452620437859673,5.218153094720581,5.722246967842414,4.769674889851777
105,8.255196373491463,5.669185176581924,4.7236316829193425,-0.7464893906436084,1.2442402049513133,-5.635038931565383,-1.2944718256297527,0.7991143951937566,5.28610133665277,12.929116132582696,9.479035343849521,7.16266421483053,8.040248944272522,8.382029018233307
106,7.287445927504246,4.642299025827531,3.4835465204239817,-1.497559639916003,0.26410713282848997,-4.825701254497639,-1.4443544967760023,0.4786218823304409,7.289859121260906,14.586128433604335,10.646779026013585,6.878213425758375,7.861608599903278,9.506973299589305
107,4.283322771845712,2.245810635816226,1.3169613068998098,-1.8810107894240475,-0.7488268835497982,-2.778365462915103,-1.3216776709101152,0.04679560459416787,6.945880838760134,11.906218917425097,8.681671112265656,4.614984015236401,5.297416079345324,7.897532787344427
108,0.26473605096194314,-0.6308377090916009,-1.08850847413406,-1.6267753847785311,-1.4786907940918161,-0.08385616715311035,-0.9490265263308955,-0.3559086728560825,4.266549540481977,5.720759787408519,4.280546194418461,1.2333924877295226,1.22285434095253,4.151564735252823
109,-3.4934598596834547,-2.982055861880392,-2.9995697876218665,-0.6775972978704314,-1.7122931301578757,2.503627537190503,-0.40359982663206034,-0.6066408361320875,0.04919059949129834,-2.0681711362073902,-1.1394945611616094,-2.1130033136783335,-3.028533765435125,-0.50943658299249
110,-5.883797198373594,-4.044879506866765,-3.872943479654158,0.760058253443909,-1.4043879607882552,4.2894581642909335,0.1967319493314588,-0.6389860844371404,-4.3841261317606595,-9.106185685954706,-5.915728549312853,-4.377986234615931,-6.118368674262726,-4.656108696898488
111,-6.309035917518247,-3.558835944366883,-3.521782837596885,2.261498594567597,-0.6848386565824366,4.837464927096001,0.7210669069618563,-0.4617910804546405,-7.6228563167997025,-13.333709944456542,-8.673818678205102,-4.964485622799954,-7.145197566042284,-7.114639398247637
112,-4.836493553279994,-1.8348604793493128,-2.1581734257524157,3.315844538106534,0.19246164456515014,4.084121680230183,1.0592552317599333,-0.15223197534255115,-8.629986721713657,-13.61412694706447,-8.742316268655117,-3.8913191880658484,-5.922194052037231,-7.320119030693714
113,-2.1229655565953247,0.3861494156898614,-0.3010860138638307,3.5017914986013228,0.9391226496128534,2.3356968551139063,1.1508733924677732,0.1737497781871818,-7.074243278585058,-10.043764427683257,-6.316829223071154,-1.7354499732769093,-3.000510033053271,-5.44740006574271
114,0.8495058106640947,2.226213567941508,1.4137554866585862,2.6456583115925474,1.3282272230497103,0.15428667096449472,0.9993569492505592,0.40282417321120634,-3.4254901717395616,-3.85868664859764,-2.334291368366608,0.617060993879146,0.5589344451767498,-2.2899951365785074
115,3.1240599117258965,3.0012728609519344,2.4525961071543367,0.9035293833825736,1.264162646479295,-1.8260630919628773,0.6664396336720196,0.4628420425027358,1.2105429235783196,3.0094528511001517,1.8818425756477617,2.310934939035351,3.57339230500206,1.0535134792022964
116,4.079902675757698,2.4664988264614944,2.5541718659225334,-1.2660513374036522,0.8044745510542878,-3.0914261655470483,0.24939969392353814,0.3453819945675441,5.454560033374885,8.564312469086731,5.071120862614261,2.8243044863863154,5.141856407231809,3.563659502541133
117,3.6008933234200877,0.8882169611056453,1.7956336106813258,-3.2346858783905694,0.12958005899033134,-3.3873201082612994,-0.15003872413439498,0.10508576034871167,8.087595364514419,11.348628358220292,6.423828572300005,2.126797138038816,4.9225268442391545,4.618123297292844
118,2.0567428262698493,-1.0774807673364333,0.5372507029178393,-4.40051932326057,-0.5258139078786874,-2.765440471365316,-0.4537184919143726,-0.16300729382462942,8.414417716301461,10.832169586683557,5.7842275627833715,0.6451962556199107,3.196131163218412,4.141810088739216
119,0.12101505688171278,-2.6465116076486943,-0.7267888472225634,-4.383387464776356,-0.9537297981705171,-1.5312541089366232,-0.6227502800362107,-0.3591990545653052,6.445549648636269,7.4810090575506525,3.620376312822431,-0.9371319229648029,0.7095312316120848,2.555591112588855
120,-1.4948002909509737,-3.205780481027984,-1.5523289737537584,-3.152634334280999,-1.0382916736072247,-0.11920850533948138,-0.6575001073148603,-0.4147291007181634,2.8523923940428415,2.517403062691882,0.7959384762304854,-1.960701993687434,-1.6268745668303604,0.5645453664822633
121,-2.289795202840203,-2.536625628787428,-1.6961905658797434,-1.0435998532541422,-0.7849678618394941,1.056089850871591,-0.5851466319063565,-0.3146029613303396,-1.27463868853206,-2.5222439082563284,-1.756745598276562,-2.0396818076311294,-3.067892724743716,-1.1211485161328367
122,-2.119544046464125,-0.8830899282038922,-1.182917070946531,1.3436988127126086,-0.3071945785354107,1.7213724748164363,-0.4426021725466802,-0.10014126311516293,-4.775222829184833,-6.271301760292813,-3.340610484745485,-1.1892930390504965,-3.2693526690979575,-2.0263390180193586
123,-1.1993842376696824,1.1532698799436512,-0.27025442899780716,3.3303909761892534,0.22113404372900244,1.8027375986242404,-0.2630544761396211,0.14863077197459215,-6.759737714683019,-7.904426250685806,-3.6759973259489978,0.20848090477084738,-2.3565178893748877,-2.0326455251692064
124,0.019806173681153637,2.845143253703532,0.6657369349540022,4.367653459490683,0.6281477398866464,1.4103763784793582,-0.07094251691656421,0.34337814427129715,-6.838849989763669,-7.297613622586802,-2.9171814916484573,1.5763538349558817,-0.8186526473591321,-1.355262309884978
125,1.0441186228858568,3.606525747895998,1.277523897255435,4.200427806247188,0.7991955954360804,0.7668724507694062,0.11513647936137722,0.4190362009079497,-5.1839865525152105,-4.95791241642931,-1.523150828739753,2.3755721213010634,0.7126098255102098,-0.4045221745904165
126,1.5201376594736369,3.1957079102436303,1.368842469767047,2.9341683625086556,0.7072893831518652,0.11316116795681123,0.2764168381184612,0.35520642193925667,-2.418613362337178,-1.7790095299437854,-0.050512858807617037,2.3089592025777197,1.7070216002181213,0.3998147591346211
127,1.3442063248917213,1.7839882995678387,0.9508874079841719,0.9864266992394455,0.41153097510515646,-0.37137826489636006,0.3908109171298575,0.18037067520001243,0.6081952160026581,1.2752671464334369,1.0467792417058377,1.4184162048260076,1.9099123710208676,0.7855781705687721
