,AF3,F7,F3,FC5,T7,P7,O1,O2,P8,T8,FC6,F4,F8,AF4
0,0.7631501860600826,0.1405193434285936,0.780700230349608,0.07569748636348489,-0.2035455582822955,0.4045675207914903,0.6230211738132663,0.18361980758997784,0.6206770704533591,0.3480509931488286,0.6615682509309494,1.162499236402154,0.4975140870686556,0.9375702700898444
1,3.4690493267924123,-0.10809071263342321,1.7886222634589228,0.10621025262408158,-1.630801290257654,-0.8036600312565024,1.6283078438807213,-0.4117403827657794,-1.749112626827629,-0.23561387645168197,0.1131301411448197,1.3091240346705104,0.5649360671896009,3.1717111506572464
2,5.586227222527977,-0.2787589244609186,2.692786037689607,0.13514143436758513,-2.696228948286993,-1.7687021119724253,2.2431663770696564,-0.9067696684945128,-3.394754813909504,-0.4422631800403303,-0.25887353739818697,1.4022807595501467,0.8241273826593352,4.98127670980769
3,6.737832736499951,-0.2971504104913828,3.459529052623472,0.16855503524414506,-3.165056241319697,-2.2139671683128337,2.3361143593455442,-1.1875151252086116,-3.7401054482157217,-0.023689907511097334,-0.20404305772734205,1.5685480063594615,1.4124391086490278,6.171457838932445
4,6.664617737103671,-0.15428343985901313,3.910436189865387,0.1939587966121455,-2.943108520665236,-2.0148586961049344,1.9043897922285655,-1.1963686183119286,-2.680213646191506,0.9454997356294645,0.29829037041789497,1.7857262588923761,2.2120201387657117,6.535558216135094
5,5.281589045432684,0.09045370139557678,3.761486806951428,0.18474277331044206,-2.0951387728986126,-1.2392279508123687,1.0630309845688217,-0.947182975741889,-0.6162667780497654,2.0757638117815134,1.0194500761232,1.8763835063496488,2.8689035049335603,5.880391534542613
6,2.7331863054897787,0.33256928656758894,2.753964174616888,0.11502126760219396,-0.8242995137696101,-0.12928646657437143,0.007625273224740845,-0.519305473316608,1.6884504744351756,2.80928173110255,1.5712563699587039,1.5875878177668725,2.9333363716690557,4.106066510965777
7,-0.5793237440537358,0.4630726446462721,0.8217277994843628,-0.022309217889167978,0.5804277769979049,0.9709131954377824,-1.0362093383679782,-0.032319555825739345,3.3803081566042947,2.651604998642029,1.5720833240825633,0.7250487099255991,2.067781155937494,1.309113421826098
8,-4.027307367035204,0.4112584013802367,-1.7848117665098564,-0.20365390413010154,1.8141677100513462,1.7209385274859248,-1.8624279653410558,0.3904249464147748,3.8189713669147176,1.398452917819679,0.8243568708899801,-0.7155984628262716,0.2370708286768897,-2.142524677062943
9,-6.857234139070255,0.17394596241531182,-4.4873957727017215,-0.3760250756048428,2.625334132266663,1.8899428128393836,-2.3220618177334535,0.6577834043365589,2.806582737454663,-0.7343679807457202,-0.568556961415214,-2.480246227171364,-2.203131820554793,-5.6124807905218335
10,-8.35690696507818,-0.17950147931722069,-6.5087348490803425,-0.47290811394193627,2.8675676568244044,1.4299172686963553,-2.342921568466783,0.7348465374382068,0.6628505009717091,-3.1366907975353695,-2.1979483884116977,-4.088775598999766,-4.567894082362174,-8.302152106763835
11,-8.047822547565879,-0.5284146746456114,-7.111568748291427,-0.43939364027299094,2.5237079395239483,0.492794890340798,-1.931705546803512,0.6476297685174712,-1.8796191410184542,-4.98724449527046,-3.4690214658902816,-4.968921073124148,-6.046455055131365,-9.446295663981523
12,-5.846754322027466,-0.7412609206957849,-5.8685714613046445,-0.2567182201792929,1.6989765467850297,-0.6147726452301039,-1.1631746541366872,0.467465053021839,-3.9234634575597074,-5.5365860291785784,-3.8083472684363215,-4.651921120556016,-5.983212330180009,-8.545676206551462
13,-2.139020598821167,-0.7217678152800997,-2.862607405293451,0.044106397025748104,0.5881917674865382,-1.5258768606834454,-0.16288657722975225,0.2808697857690346,-4.7134629015239,-4.39137539175968,-2.8884273886144247,-2.9631269971398173,-4.137414550613545,-5.561606798784415
14,2.273283051417789,-0.44530620046065394,1.2660545179628016,0.3860465741015787,-0.5726973884523646,-1.9286264732928098,0.9110689631488652,0.15554962129633923,-3.898565975733046,-1.6957335529885222,-0.7869666852564439,-0.13671559572937161,-0.8235489186665418,-1.0000783320085498
15,6.348062939748538,0.026849535628831536,5.458728646246417,0.6671269959122268,-1.5582114747952305,-1.6669672979567622,1.8850613306842077,0.11466863446290403,-1.6613487007373107,1.8629877931768457,1.9836589757160392,3.1950330128752036,3.1286412513896793,4.157620625295232
16,9.06436209396926,0.5609011169205452,8.53126332709793,0.7922381289954813,-2.196537229569506,-0.7954590583576868,2.586992101123758,0.1290098046668672,1.3283637758727744,5.237947083028153,4.599388583194026,6.147503073102703,6.594845019933112,8.674203467122155
17,9.696849331935278,0.988485705912226,9.532100742048168,0.7050080128536571,-2.396343199751524,0.43032647028582616,2.8668534189941517,0.13072025587613065,4.121322688753702,7.344087939460987,6.170379132859643,7.828830711316231,8.494433601843271,11.37312366978692
18,8.023667952444931,1.1583686074108668,8.04962379130113,0.40887536576494526,-2.154142119113549,1.6269433631169206,2.623120947690217,0.04465708527232933,5.791563045769925,7.4147108305742275,6.035385839722565,7.612996227656667,8.139193286910427,11.465507136232542
19,4.4039206528832056,0.986308327711597,4.3657379439324755,-0.02994299001276898,-1.5439949865181708,2.3992961672495645,1.8330682825783209,-0.1736382930349146,5.737075117750423,5.274292548948921,4.008250616809317,5.355813718745735,5.476863643145167,8.791223324996281
20,-0.3020380725946712,0.4873612420948115,-0.5990491648290268,-0.49897294384144414,-0.6949507195135859,2.4653651224698834,0.5792792665203449,-0.5080362340453842,3.8821287962215414,1.4318518266002132,0.4896518760694752,1.4818124403181645,1.144325658312497,3.8986891593104955
21,-4.950361621369503,-0.22050869863433742,-5.536615512153157,-0.8706473175446909,0.23683109330876081,1.7507640082271865,-0.9397746995957846,-0.8733403686225316,0.7159370608680633,-3.0442232122012594,-3.6035404389869514,-3.0934390861880856,-3.69465182207024,-2.067662956428313
22,-8.40981361452351,-0.944436892900147,-9.122765427497956,-1.0387428063421627,1.0949391378392601,0.42222672138665174,-2.4271973829676186,-1.1349733807720404,-2.8461892928156547,-6.837489563174967,-7.081843158890889,-7.191893575383162,-7.682354762269083,-7.648388977089232
23,-9.85389333789049,-1.4696621951781257,-10.395808050735905,-0.9492160375872398,1.744438886685314,-1.1530424068125238,-3.5391650484994064,-1.1534567642218194,-5.737289458010557,-8.785995942751182,-8.833237662103423,-9.692079223213076,-9.66963655963753,-11.445411803815846
24,-8.968646457369491,-1.622856766771881,-9.027624037589318,-0.6163881614665125,2.0871492422733744,-2.512381451463713,-3.9651388603646955,-0.8400873031399443,-7.064296649661612,-8.248767760709569,-8.17507344334098,-9.848380935990663,-9.062858160391437,-12.49170796256285
25,-6.021210694598865,-1.3270906370079434,-5.407823060436296,-0.11986986340368774,2.0713206950761034,-3.2364718756884123,-3.518551785782198,-0.2037725707544599,-6.384011218189954,-5.317944249773826,-5.096682491007221,-7.516757503035494,-6.006529982038232,-10.512114650064717
26,-1.774635311282879,-0.6312286082700741,-0.5204321203939518,0.41673542028663413,1.6972481003823137,-3.07943630618747,-2.210465814473774,0.6306407612565229,-3.8440985480853764,-0.8061870563574534,-0.3102130719494368,-3.217638162303838,-1.344426502372634,-6.002021223798869
27,2.72241221923394,0.2965746985211613,4.344401848925844,0.8591316345753268,1.019390444636433,-2.0490603453171614,-0.277965286613817,1.4441869561540732,-0.14551191759372023,3.989683390405045,4.916873804964508,1.9873426545773976,3.628424711085845,-0.1006305098252259
28,6.409453938014884,1.2111889011232,7.953772028892787,1.098150179917089,0.14372915810176715,-0.4106949604042912,1.8509206331352654,1.9837570314548116,3.662144111048177,7.67642718612086,9.107560202247416,6.7740629761986595,7.545475638842811,5.707720298135222
29,8.47601281210299,1.8576243132875336,9.462521384898853,1.078111913791027,-0.7822674585066728,1.3878080047635433,3.6550696884492697,2.043572967549995,6.489735124192803,9.18297001902706,11.002343037555372,9.91322092913992,9.363224831446802,9.983069429293689
30,8.543894016961804,2.0439568709516314,8.618325415074926,0.8100818182268195,-1.5893453672826534,2.847542128353255,4.658285837889854,1.5413972642038258,7.528499642570895,8.08009018836052,9.94168864023247,10.605148228540903,8.65183602278123,11.704108074099022
31,6.728470058223791,1.6986330053992758,5.790752346642064,0.36678445806602145,-2.1155891921758143,3.5655490289088125,4.567977094016229,0.5615766735429276,6.485080615349748,4.7037373016638435,6.086670267003179,8.696413375274295,5.698189570398861,10.525921432718086
32,3.5728565616326247,0.8947660455137911,1.8279080046302891,-0.138840602882552,-2.2407749789809435,3.3515932616569724,3.370213367754298,-0.6538495675503574,3.66309409721908,0.047091027966938634,0.40545722197752093,4.716241601468763,1.3974848605543317,6.8529320530304725
33,-0.11724335222456506,-0.1665501511333001,-2.206397477613654,-0.5849416080425041,-1.917997745013262,2.279053724065731,1.3474249641573186,-1.7679140291056226,-0.13041722241872905,-4.541486356040599,-5.578440294491379,-0.2769412305239828,-3.0259688098735897,1.710608658229783
34,-3.4870894198452906,-1.2098729762514548,-5.331867042722388,-0.8728423817837647,-1.192927354970956,0.6560069733503743,-0.9916464236788772,-2.448436630901017,-3.823248460213107,-7.759124664877311,-10.208846887800798,-4.993272332045337,-6.379089903587609,-3.544714196403312
35,-5.83670724133398,-1.9609608466550534,-6.90065050250009,-0.9509300974612748,-0.2026859699656613,-1.0716735145323193,-3.051608624945463,-2.4736541945482085,-6.389027231510238,-8.725440674039188,-12.170169948755854,-8.266324919667765,-7.832437106001543,-7.594664978418393
36,-6.765703339374206,-2.2226114265024677,-6.731218644730732,-0.8240570133909213,0.8486737489902986,-2.4524874919719353,-4.317920860915812,-1.8087110366816397,-7.139528352966316,-7.225108212173714,-10.87272187187007,-9.362493448949326,-7.130042540900344,-9.503356204527249
37,-6.230523575975755,-1.9289837554204796,-5.10115695790845,-0.5466538629725218,1.734179837699768,-3.154855349570954,-4.5003689814948675,-0.6259542070025734,-5.914380831138138,-3.7496990991767403,-6.634639025912803,-8.157728185512804,-4.623651449460158,-8.94430680458589
38,-4.510993518877351,-1.1628914963993189,-2.615595941396076,-0.20263635370422028,2.2570291226321952,-3.049094517649407,-3.607989739547242,0.7403379424042772,-3.115546275804491,0.6655057493871013,-0.6030867601057428,-5.135743789814087,-1.1328909209366296,-6.252160931606612
39,-2.10577444849369,-0.13135985226139552,-0.0018072934099023598,0.12104287623508996,2.298691372710993,-2.2253066301247637,-1.9333518100982077,1.8926026521879742,0.4204594387335808,4.754072763262982,5.566047476077631,-1.215920936104283,2.3168359883388967,-2.2924789178319456
40,0.4089382245658642,0.8932171845429632,2.103651974271833,0.3588291285660097,1.848661290270327,-0.9482011613159992,0.04614291724982461,2.4916840798073094,3.6728629844024474,7.384299008565452,10.178641279462864,2.5308788242544327,4.795444372606073,1.8059974865239035
41,2.518968277303859,1.6492331775225626,3.3138091112074797,0.48175417017105016,1.0074618419716448,0.43104844913711265,1.8155789708894088,2.3627889685560115,5.734934749148253,7.87202645887141,11.98583455552073,5.1897260993720815,5.719980003466836,4.975422870692566
42,3.877110221151146,1.9575263580962843,3.556922843503473,0.4994612862758883,-0.03784526412893657,1.5752887947057936,2.9697338172258,1.551235616259438,6.0727922701012735,6.154618057036058,10.538219530570789,6.240913045292896,4.989647620450266,6.495676988132393
43,4.3532177042661635,1.7682290489464831,3.040970504836324,0.4495143540589209,-1.05860115428084,2.244128133082333,3.314133347367996,0.30936696617840315,4.669742068772068,2.783988623938492,6.306204813597494,5.66510833210309,2.974875725449149,6.165043740604563
44,4.024820247331493,1.1697148719558383,2.1395197930624215,0.3784684931573772,-1.8375438510865116,2.3388810970652982,2.892174807176689,-0.9817867408166723,2.015682859268421,-1.2505831219747057,0.5318163974039212,3.892562451684905,0.37463933772016955,4.312527262696694
45,3.118565793872401,0.3574531103022779,1.2425351142527357,0.3216664661498596,-2.2161479402099356,1.9044205857281595,1.9372149251065847,-1.9312984287065253,-1.0525811690244862,-4.81253374859613,-5.142159468718451,1.6231504406473913,-2.00794021729832,1.6570546719368315
46,1.9238678747735114,-0.4278009380533267,0.6220632924400756,0.288939978977427,-2.1254565253917628,1.0963098489845045,0.7736932632989754,-2.259657503006507,-3.609908605430013,-6.93577210841112,-9.153134449168187,-0.4180947974870699,-3.5027472852594603,-0.9369242681154316
47,0.705337044933219,-0.9739189947973189,0.3539709307151399,0.26128787368959094,-1.59517834779451,0.12958785542205511,-0.29385006150675924,-1.883977167663231,-4.921059896418229,-7.082063626678181,-10.46527977876516,-1.709286714494718,-3.755152510781328,-2.7295844474815896
48,-0.36103282809978055,-1.160880369699573,0.3166660310289759,0.1998492616518584,-0.7419696797338264,-0.7738133668628688,-1.0651637334058457,-0.9403747576746737,-4.654603981342337,-5.2711953958046776,-8.849814978567645,-2.0728767838866493,-2.806228748867965,-3.319204833149674
49,-1.2110756634048032,-0.9939135910824899,0.26254923548563147,0.06428085434476499,0.2576318104787272,-1.4273480722788325,-1.4773094263883801,0.26270841467093337,-2.9693560466252227,-2.0549194290146375,-4.920007132848575,-1.690146259736763,-1.054438312913174,-2.7366558034602626
50,-1.8711633910457688,-0.595317565338212,-0.06483002322413069,-0.16571607964529028,1.2023112691881583,-1.7076833252947607,-1.583088821537241,1.3442490357978116,-0.4501591373721009,1.651079587864875,0.08212250769388249,-0.9919561163477707,0.8837441137058308,-1.3969799768041353
51,-2.403142306600811,-0.15692419394086315,-0.808976206718518,-0.47346643213674455,1.902433788058754,-1.5696605375732482,-1.4922575310301978,1.9707986807194673,2.083760906731121,4.8260541867853055,4.675373487422604,-0.46894899136583323,2.3696642380746176,0.0708133600891613
52,-2.8382764847842714,0.131724289014035,-1.9165803558776369,-0.79984012705063,2.2130229643191175,-1.0515826481557318,-1.304991465353551,1.9586918364100738,3.836325830760612,6.6214160925445,7.582464067243584,-0.46980863648625354,2.936384320594482,1.0566667854844678
53,-3.1281795311578215,0.15546415682825115,-3.1227202993128222,-1.0529017513124084,2.060052063834066,-0.27178654885628545,-1.0666910949861046,1.326740580080951,4.278012144917234,6.582496151696939,8.092359156086872,-1.058914488903051,2.4249328158134147,1.1868576853040818
54,-3.1363306028592715,-0.07959233393898357,-4.015014018854355,-1.1317232174790939,1.4573555057676464,0.5860461068815777,-0.761355278036812,0.2845465137820273,3.301640641688652,4.7587524325332575,6.237353376908903,-1.9839714379627629,1.0251198642654051,0.45330923817852553
55,-2.6800655987675532,-0.44266640398140816,-4.161475390769039,-0.9585727405005586,0.5110343555470206,1.302835506853038,-0.34271471220194,-0.8376404681634765,1.2456697686737472,1.6774431079444194,2.7407543999603283,-2.766527267078426,-0.7889160457966785,-0.7886119106137355
56,-1.6136698410536046,-0.7227731401406879,-3.2650467337757694,-0.5101928154940666,-0.592078938203812,1.6704215362165238,0.21447845653172734,-1.693564379119635,-1.2187269831230907,-1.808236711878809,-1.2379949072548353,-2.885766732234539,-2.4080745889763207,-1.9536505274170766
57,0.07523713466134446,-0.7087624667336586,-1.2960088376202288,0.1620935277665279,-1.6141307357519123,1.5483129336764572,0.8694361859909167,-2.0265301870903545,-3.299656611349396,-4.753718552715376,-4.474382036197581,-1.9924578555552828,-3.2780577550055927,-2.4470242153466106
58,2.1944125318087915,-0.2788362875807608,1.4441165875579276,0.9316134923914136,-2.3128126329283716,0.9165523150622281,1.5004321505201867,-1.7436816198443383,-4.32988637743658,-6.377283971366409,-6.049089327849269,-0.07677435306142102,-3.0734508406211423,-1.89633018536509
59,4.336719455470917,0.5326259216742181,4.356548734965256,1.6182510986093128,-2.497943863019306,-0.09486105890137093,1.9309405011486642,-0.9380342834440116,-3.9714787607728392,-6.266855641135661,-5.606523432723742,2.4739496785338995,-1.8042645487165256,-0.31330345907108403
60,5.950155056708556,1.5185272126933953,6.678738190060518,2.029993872595821,-2.0855061265905825,-1.217649696674082,1.989782814530484,0.14568879935534726,-2.3189043131118994,-4.48514891647652,-3.4296935245865567,4.956722015214871,0.17790171518827805,1.875307371932901
61,6.480647259262758,2.3456308493004143,7.687957561271694,2.014878785157901,-1.1332514850438284,-2.1052244726580978,1.5826028335368172,1.1882802406184072,0.12945339846773438,-1.5457152947046384,-0.3181352823501925,6.5563360451530315,2.2781308328290923,3.945978179983034
62,5.551531833023864,2.6561155954326576,6.920515796419,1.5098266599298669,0.15654389343232963,-2.431448833173418,0.7451940985674512,1.8912449336044161,2.622483437020321,1.733390913228236,2.6846852177895406,6.610322328258386,3.8342370434827666,5.113287403149388
63,3.1236134213599014,2.195345705670672,4.341384921952612,0.5718886606868212,1.4744740214692251,-2.00160597921614,-0.34568071749216134,2.061288404155539,4.385045720270454,4.458435461514473,4.625010933122466,4.8499863155011695,4.319965045948878,4.806789879896254
64,-0.4231668122665648,0.9240171299088169,0.40739250361606905,-0.6195664339486056,2.4773133870275528,-0.838603247950397,-1.4130023945400627,1.6605345223684436,4.855729188574564,5.908159250785659,4.929644855998551,1.534587671490981,3.5146706929865617,2.8963024834841518
65,-4.327747134446273,-0.9272528336596015,-4.006147864559646,-1.794493096959647,2.8804877765269117,0.7905876760544455,-2.1610092727701855,0.810447327574962,3.861749369830468,5.731652328757,3.56750257901791,-2.57387250691553,1.58634078635365,-0.21607166631367442
66,-7.612304925363356,-2.8883603267906106,-7.807043351726749,-2.6533632482014062,2.5439114841645525,2.42752697552954,-2.3703155866932137,-0.24859586836142433,1.6768728080011557,4.039461591152257,1.0378814361872337,-6.398410675922846,-0.9413497181688345,-3.6784978833286157
67,-9.338207113128039,-4.366886596996628,-9.968515092551051,-2.9445408500334955,1.5237790807475795,3.5476278183871157,-1.9728384575259292,-1.2279843387829892,-1.0572301907791417,1.3614162391443092,-1.8044702695099084,-8.847851416424147,-3.3332848440595053,-6.431210861194463
68,-8.88422424946785,-4.824200931094023,-9.816743874551792,-2.537991469403109,0.07044717090326051,3.7248252922123,-1.0788255012296626,-1.8705985062507302,-3.524267959719738,-1.5165323137599438,-4.028332905316749,-9.142414036378312,-4.859402861586319,-7.53755290583063
69,-6.162431384445782,-3.9590753208211265,-7.241095209139463,-1.4739349869313243,-1.4321770942718792,2.7837313319856727,0.055053638097926495,-2.0176641834426676,-4.9831149804655,-3.787790446753286,-4.920266337057207,-7.064100365229691,-5.0200330893472795,-6.500012650230054
70,-1.6981923983529434,-1.8384142564124666,-2.761524390330641,0.030413385759830214,-2.5717574904996914,0.8855017214259407,1.1065343989972247,-1.6459617238053605,-4.99669685431758,-4.861684879814631,-4.203359361822447,-3.0515111609827508,-3.710509111736092,-3.455698496908712
71,3.4635696864099303,1.07490498680598,2.5748814915213125,1.6227612043299964,-3.027456830055485,-1.4891049492832407,1.7899229021319427,-0.8676060463697193,-3.5672847609382,-4.52887838415233,-2.1151372360105505,1.8959246311225777,-1.270648347554786,0.8207112108518151
72,8.012667276825203,4.018630188138583,7.448584203702046,2.8996593802947137,-2.6678355016912647,-3.663908731299044,1.9444584097937714,0.10521851301159987,-1.1340107319708481,-3.005311722270789,0.6761262955136581,6.482079893805823,1.6021243725808583,5.119355425408553
73,10.724553844670666,6.134785008167786,10.609507995619179,3.512667770174982,-1.59458346026265,-4.966488710670086,1.5788743178604034,1.0194436852384254,1.567534920698881,-0.8429650830624412,3.2874560664054466,9.47285206170052,4.055240857461414,8.149233202978676
74,10.809490761719365,6.725615320247357,11.2142694884601,3.2682441874305996,-0.11581248980465064,-4.941686436709187,0.8579908327413697,1.6477592747793879,3.7383564816756176,1.2611343899750114,4.900125915442956,10.04574171395643,5.3403061499777715,8.937839912115802
75,8.155731903334255,5.484166521755276,9.064163589078056,2.1917004234806656,1.3450473081115855,-3.509396736889169,0.03782821567996567,1.8453279009880057,4.765364477704274,2.693050725202345,5.013777124297312,8.027498572618466,5.049231177838876,7.150050540275857
76,3.388817436853714,2.6227444875334114,4.673903735583032,0.5334285102706764,2.377292834970405,-1.0110079508394054,-0.6262851342328162,1.5826320332640955,4.405138884861419,3.1110908574036458,3.5971339031919913,3.948954337635088,3.2507303731239356,3.220111710800298
77,-2.2788463526394462,-1.1507052215854545,-0.8530927930192602,-1.2889137248842626,2.7074596319590007,1.8766139621979883,-0.9652416337017576,0.9472644399137883,2.8432028492805808,2.5344304823141552,1.0903506504083758,-1.1003221294140313,0.4797053954798888,-1.7533233737807934
78,-7.371367436537945,-4.812466697518276,-6.112628931533659,-2.7995698773970092,2.2800698815594806,4.337146044149088,-0.945239802379158,0.11573171792403415,0.613219326058034,1.3055306541778688,-1.738700067565191,-5.775833871142614,-2.4217883117008285,-6.324215900368293
79,-10.555364801927169,-7.3126671507099115,-9.773267087648263,-3.595853599733065,1.2682887164104057,5.660725997317458,-0.6644912290620061,-0.6960193696831253,-1.5912376407468856,-0.054938855395365166,-4.036149848984599,-8.85201843424821,-4.5646495219860785,-9.13373307029755
80,-11.0109986889755,-7.889528419708183,-10.931942948617683,-3.463355780521369,0.011295733069471495,5.4613420869432865,-0.30133959127965015,-1.2895460767641553,-3.1441307428806295,-1.0450062590993998,-5.124273282379171,-9.557724532044626,-5.291948340615027,-9.327280068251689
81,-8.658908585189545,-6.31046562121753,-9.351887599456374,-2.4401394265374816,-1.1002609986160397,3.7952510820798198,-0.0355437844265317,-1.5332007684897568,-3.6752744558236996,-1.3582422532554206,-4.702300720603994,-7.777554423024413,-4.387100186176045,-6.821661039713059
82,-4.1760879680927925,-2.9611179006399637,-5.516103893120488,-0.8090578555071404,-1.751861973797623,1.1419922759229966,0.026011488075098517,-1.3913497848946343,-3.159356621462582,-0.9786568966667969,-2.9260639760762337,-4.064521452741171,-2.1427222573014286,-2.3363686130430126
83,1.2032802179714297,1.251085700999016,-0.4825000893080907,0.9813080055586071,-1.8026389470400639,-1.7452372202007345,-0.10964229889517052,-0.9270071051680637,-1.884177175294605,-0.16375992263848288,-0.346628028896481,0.5339446139854145,0.7329642180794083,2.8220508683869885
84,6.041754616083723,5.154216466426167,4.41608859334339,2.444706504007565,-1.3203469752465926,-4.070286064105386,-0.3292036170691424,-0.2787924536514992,-0.3204718176850216,0.6723848816736496,2.2674347839594104,4.780326296464544,3.3419800144116287,7.154777029201476
85,9.101562072991763,7.653711388597834,7.939432842101343,3.196445908445013,-0.5433310336247635,-5.230615502800955,-0.4657249151910457,0.38003521600291296,1.0517844246630241,1.1283835534517614,4.164859378937478,7.5898362569090345,4.881007266591109,9.420266706660898
86,9.678046517243493,8.054417144335767,9.269295494593527,3.0620603360140657,0.21522526568539735,-4.984611535617929,-0.37492251152098216,0.8883557140918046,1.8957815393628303,0.9721832970757273,4.830040807095953,8.313166454147614,4.891905079424897,8.998401869037913
87,7.76889059055948,6.263582762942884,8.208506430856913,2.122745923584384,0.6851715280797745,-3.49983573117714,-0.004560187863602672,1.1369120386374894,2.098842426656035,0.22770106892538447,4.120743707307591,6.883436908000289,3.3980594800013235,6.058786608291593
88,4.036531851752199,2.8127279832243044,5.198435324842047,0.6843016306808141,0.7362702737222414,-1.2735446015586442,0.5712832463221003,1.0910164003807923,1.763547207131956,-0.837882768521984,2.289530354622188,3.7954985956723073,0.8851891559803919,1.4874032362495204
89,-0.41523373835898986,-1.3066327796553956,1.158744213418885,-0.8200275129604828,0.4190766277314318,1.0409393747757223,1.16807896171035,0.7917876052519481,1.12592712133914,-1.817647231113918,-0.10938289016223561,-0.0639619885210786,-1.8628063802666508,-3.396772996107072
90,-4.374959020166321,-4.940315958835936,-2.7947728070068147,-1.9620361069818388,-0.06430480768045324,2.8396760671414643,1.5529083126118426,0.3378080277965525,0.44272092643521077,-2.317776814125745,-2.3924276734144234,-3.676224455785744,-4.015346260776189,-7.239465004635234
91,-6.863534889186832,-7.10861077965522,-5.665900060768476,-2.4450782330673775,-0.44760850494127935,3.737107749564965,1.5310636119849559,-0.14572248847987887,-0.10421571470610028,-2.102140154946827,-3.942833876411412,-6.161325683940829,-4.950280717647094,-9.037086187162375
92,-7.381590395852499,-7.280494190564423,-6.834962691184244,-2.1859693389763186,-0.512228745491271,3.6480436177972893,1.0255594120876637,-0.5407081004012741,-0.45174597929701754,-1.176900107394796,-4.373858580709828,-6.986490252255514,-4.431801377560865,-8.396793100164258
93,-6.000535986346886,-5.505370755108693,-6.188943413842328,-1.3284270252772263,-0.18047004921764362,2.765801270810686,0.11939261173443881,-0.7637056131956588,-0.638836512497959,0.21211599901660938,-3.617486270834429,-6.065013569934033,-2.6599230407422496,-5.603548295523427
94,-3.2852943159527785,-2.3698784901795733,-4.0994752946639395,-0.18625553508034162,0.446051482330788,1.4565329142096826,-0.9570817212329084,-0.7813395132654171,-0.747529458771027,1.6638009027619733,-1.9220066405118341,-3.7344025546991277,-0.18497051395273129,-1.4915416537735668
95,-0.08763898407097671,1.1979488904452638,-1.270086004777386,0.8634136257351848,1.1187444033650173,0.11641565933718555,-1.8920397027753697,-0.611825406906321,-0.8359516559501539,2.7540202443931587,0.23198652408358097,-0.6358972831595049,2.275964623235006,2.8236996222239386
96,2.7168510006025235,4.2102930991138345,1.4902103641319486,1.5014254451860631,1.5344244435692898,-0.9540143336311349,-2.390544071469253,-0.3146254309434857,-0.8976700780353146,3.1679374681686165,2.267899396098219,2.461441640973153,4.0559399909170075,6.261304193113319
97,4.466874509317067,5.899042827737406,3.4949820133626837,1.563664260755865,1.454151859817164,-1.6169091182141764,-2.272349331884349,0.02744151753444372,-0.8661112972530841,2.789038869452589,3.6632818877218156,4.843757660381713,4.719914725120781,8.045653010789188
98,4.864333071229449,5.912594197961303,4.346282093819605,1.0841831523069791,0.8042670647692572,-1.8909891520713455,-1.5354132829985954,0.32874106542681863,-0.6594601576211038,1.7207523594500993,4.076892628393404,6.002494376133754,4.161574959871711,7.864709929130268
99,4.004104548529595,4.380324788019469,4.000471301035317,0.2729745632633919,-0.27905551967513137,-1.8875415605075647,-0.36261468487511295,0.5197952302713972,-0.24129069507857465,0.24183458472926847,3.4252721612587647,5.7268681044014365,2.5978684377754844,5.891736703816
100,2.293076673932224,1.837866720145628,2.729507305581152,-0.5617859335107692,-1.480609274609819,-1.724904285674622,0.931445840600556,0.5615911169653599,0.3356966111676307,-1.2821033609945824,1.894972187964702,4.129731503152416,0.47718397752677494,2.6880043588824223
101,0.2970494116017722,-0.9532979810357445,1.0031592554019633,-1.1198795791407274,-2.404330195492599,-1.4625132076745204,1.9960292868921456,0.4531280623940948,0.9276343561824312,-2.498588696816237,-0.10919372600133684,1.6097820255354618,-1.6599725838462551,-0.9678488347870499
102,-1.431752307069627,-3.2320325089868867,-0.6643050300007722,-1.2084437154184415,-2.7065629110629255,-1.0830667590080552,2.5501964459509683,0.23088597144353148,1.344200484920374,-3.1503282169355513,-2.0667832997671183,-1.2392954742988982,-3.3222855896028265,-4.269917855578078
103,-2.4971490610605622,-4.443138875846708,-1.8564118387303934,-0.8029953264153347,-2.2189501333948565,-0.5275441048226691,2.464001851046815,-0.04017767220076953,1.4226947656405722,-3.1217856487594497,-3.472055560999256,-3.756817342466469,-4.174063442494051,-6.549808245407675
104,-2.7385204431468546,-4.3684773507200605,-2.349460331333084,-0.05177287228636723,-1.0179665712546189,0.2371021479565917,1.78927151466509,-0.2830117615336772,1.099377962081637,-2.447189343747098,-3.9623236323520823,-5.3590144030759905,-4.087755287468547,-7.389704543120168
105,-2.2366285911036883,-3.1552733369968498,-2.1421089843560894,0.776383402651652,0.5845999728416127,1.153377050397936,0.7325851475335717,-0.4290962071524332,0.4458031298992732,-1.2876729311114905,-3.4131981354366454,-5.672253956360125,-3.142373565468308,-6.675821569792149
106,-1.2557137508150478,-1.243376298518373,-1.421342241354198,1.3826432102455557,2.129727560151224,2.0474159691069778,-0.41674436437937246,-0.43817031443178456,-0.34765929897910075,0.11040040916657982,-1.9748327679105349,-4.625925682656651,-1.5810682027431695,-4.596668378855745
107,-0.14611248616757308,0.7802779902455071,-0.48277139358669363,1.5377287665729689,3.1510062018024225,2.661476294033718,-1.3764345516082648,-0.31103027064260846,-1.036333817810468,1.4651177475888524,-0.03598400889917143,-2.478634552374345,0.25368713098217655,-1.5954370136855043
108,0.762379056231001,2.3549752772276666,0.36749294465730176,1.1586504640170154,3.3217956143329292,2.738854121440382,-1.9478469721628275,-0.09047762187728786,-1.4084504953357189,2.509490293898067,1.8787382441781229,0.236361128843597,1.9907058399985489,1.7139233967396488
109,1.2480467115547917,3.0983469383964595,0.9008118766340629,0.3384856491825135,2.562060940603426,2.1308423393640155,-2.056430550284405,0.15119274259115284,-1.3601772129384913,3.0381407768646334,3.2531408312286563,2.8402181415209786,3.2953104999136578,4.657414681819818
110,1.245256162873599,2.8972709317951217,1.0210664266248464,-0.6801112129339164,1.0696489369453601,0.8821404899471438,-1.7484838236217082,0.3351535699883594,-0.9290595318965931,2.9456808921923243,3.725160464960399,4.682894461681752,3.923096592862884,6.62621143599255
111,0.8440737914517747,1.9164005031808415,0.7749394435106111,-1.5794565988833895,-0.7352380235960696,-0.7447180700325483,-1.153232614141928,0.4022255213487264,-0.2741684513892681,2.250547628850108,3.190357314788043,5.31628786738179,3.7587254629385347,7.198600241335018
112,0.24554009727292322,0.5269660961814704,0.3187382569045884,-2.0663063994376065,-2.3357568232260015,-2.324525424744108,-0.4301455766650316,0.3331172448856482,0.38682450685876135,1.0970753867461007,1.8300880955979395,4.615429119642206,2.8362694798775503,6.235414961103302
113,-0.31187893595295385,-0.8190965987221841,-0.14481291544232747,-1.96525919330039,-3.275016219313995,-3.392663468098661,0.2770367331704767,0.15507921417373094,0.8568580260147767,-0.26924321122853556,0.053874150175412076,2.809678362813996,1.3369561728950703,3.924624629580569
114,-0.631672529571482,-1.7297761958788012,-0.43840000889264463,-1.2767561941445058,-3.2941198993429017,-3.59715474700706,0.8654254940302231,-0.06795902755151847,1.023702330601078,-1.5522843892063747,-1.6268990477975078,0.4125121203071945,-0.43899775629744364,0.7571381779034474
115,-0.6202621362118647,-1.9855160016490687,-0.4675616512450493,-0.1810975367675213,-2.4081153063236274,-2.82580014068114,1.2750771189197492,-0.25848177558610874,0.8865618720426928,-2.4723117069889278,-2.7538702856214976,-1.9294971290397427,-2.12609695583582,-2.5697922432489575
116,-0.311173815245279,-1.5908576217401507,-0.24614680170244638,1.01340481104943,-0.896388978524602,-1.2602162218606756,1.476541172008792,-0.35321682533764254,0.5395042723437808,-2.8331260529934803,-3.055403986704161,-3.621832110790461,-3.3662789938108526,-5.306082980030108
117,0.15427841361340938,-0.7525608562482702,0.11690742026211536,1.9624901106752373,0.7882262953664532,0.6671490349054338,1.4570592827876414,-0.3252361488383248,0.12372125880597815,-2.570590712529922,-2.5168083319435577,-4.284056884369457,-3.887289388106248,-6.825651073745548
118,0.5822488034726468,0.20456748341098785,0.4631561525778331,2.3897822310645354,2.1612396495102613,2.4025237054790636,1.2159509864496998,-0.19204932160788238,-0.2287302506417271,-1.767792627978513,-1.3669301180486113,-3.840305630600622,-3.568690062725423,-6.782282870365855
119,0.797947338390514,0.9531883966218213,0.6454605202763988,2.170083026469494,2.8530241207121927,3.444651351433323,0.7718585935586393,-0.006940448368910974,-0.4370132021500856,-0.6316147108499086,0.010262087916828835,-2.5147654206375063,-2.4773311918565626,-5.201626649530402
120,0.7084353507915013,1.2704517287078143,0.5821033404376295,1.3662669166296806,2.7136957517231353,3.5039216428191775,0.1758712806015412,0.16257856351010658,-0.4860047910894681,0.5627738205261138,1.2056890571218832,-0.7404657504781014,-0.8596452566682851,-2.4808178242734327
121,0.33477698271229034,1.1015834980353123,0.2852446685916822,0.2086741547189504,1.8450853228230322,2.592274454422912,-0.4804463186110696,0.2603575963851813,-0.41323403647045537,1.543297726467331,1.911357197483291,0.9832149332168274,0.9114993650838553,0.7085759500244264
122,-0.19722139536940506,0.5618046597812658,-0.14555058908627982,-0.9758411209311738,0.553448318637508,1.0136372623250771,-1.0719865880506667,0.26114988802481903,-0.27957198828790425,2.107763393902839,2.001926801319145,2.235765591761923,2.425065140254273,3.59139865756681
123,-0.7035224829813046,-0.11940367639995586,-0.5611609848532965,-1.862288885705734,-0.7575125085106272,-0.7403765285091115,-1.4651941073772747,0.17693351129047355,-0.13949525933280038,2.1680298957932207,1.5493940136472715,2.779248543935964,3.3338535375048797,5.488590307767054
124,-1.0081775269458606,-0.6880352292482299,-0.81741529995434,-2.222313907038612,-1.7156132271387734,-2.152060958138129,-1.555470703392639,0.04855735925295399,-0.02355005739154404,1.7613711130782932,0.7734303768117068,2.594867312719209,3.443044154238732,5.990935550097848
125,-1.0052732168088412,-0.9555180609560182,-0.826100328811701,-1.986390365044862,-2.088852826530196,-2.8404291508294386,-1.3038506161669792,-0.07277092553793013,0.06256519432805407,1.0289924831587638,-0.048514760249291605,1.8515378540993086,2.759934521026265,5.058195508895453
126,-0.6945272124813149,-0.8576050921397795,-0.584392256328106,-1.2557600845471262,-1.841160904047269,-2.6709538445810166,-0.7580049362263792,-0.1459330902027423,0.12654126885242947,0.1707230029165001,-0.6763806430216822,0.8271328900273216,1.489421347089212,3.0158694645356903
127,-0.17869273441169511,-0.46430518967972234,-0.17315765853237364,-0.2629187120363694,-1.122319024650515,-1.7787249544237507,-0.04711832951642485,-0.15401856630404206,0.17492286950126146,-0.6096575862002794,-0.9755647751109435,-0.18562272065272076,-0.02474063560340019,0.45172142127218234
