,AF3,F7,F3,FC5,T7,P7,O1,O2,P8,T8,FC6,F4,F8,AF4
0,0.4263308891042784,-0.035987194714234026,0.33910392422602226,0.20101722403562608,0.18863947061956676,-0.4779329211874887,-0.7141392104242257,-1.0519229620300485,-2.2225249944665757,0.8166399374491907,1.0526464281518286,0.4831140472218621,1.0121760589058708,0.9852139958007564
1,1.407102453958678,-0.28554637588063836,1.331345975334266,1.2828297689722474,-0.01664160760479019,-0.10217905141424924,3.50767558149975,2.4168425159672435,2.8833399552439967,3.384196986037562,2.7987637687733247,3.8023503576378417,1.0762734171149526,3.3447881233768566
2,2.116138587463085,-0.4196637388971971,2.0495615609957074,2.165699077821974,-0.17956936712600594,0.3181447005124292,6.679688256205189,5.155074560170821,7.401684466360744,5.264581114411002,3.957426510861063,6.28486393113479,1.0353857034774159,5.082074251226933
3,2.531129569786483,-0.30186636270534006,2.4303255252587603,2.778033576657424,-0.23976853007138266,0.61466921796227,7.884811848159056,6.37687348729228,10.211134863503375,6.075637913895596,4.354481802130579,7.453097178456762,1.0460981397489413,5.972510874422184
4,2.624842531968051,0.07323272927485272,2.429504776454953,3.0273134510305755,-0.1958277082899233,0.6702727756313261,6.797045121706743,5.753035087599358,10.570233135888326,5.6326859520914905,3.942183929884094,7.08887587974241,1.1459239154191296,5.880096186440649
5,2.347460876922721,0.567236281171634,2.016205021580691,2.806599737509418,-0.10535310567594589,0.4638705561951728,3.7793606534325686,3.513688321852764,8.336441151699978,3.989304913871894,2.7942231727209172,5.268527624604618,1.2275398397327024,4.765041086182775
6,1.6486489599554466,0.9522479584790755,1.1916708675978849,2.039846324691773,-0.05548167856591484,0.07772440957114661,-0.22985058595035474,0.37694397450462336,4.039766252983432,1.441263061991791,1.0942378354355353,2.349706778496823,1.0904160802091538,2.712641537498343
7,0.5306705521049303,1.0112655530539163,0.02489721521607353,0.7478054613290002,-0.11615836193687276,-0.33480723840172577,-4.007805101854989,-2.676705600845203,-1.2242145322595728,-1.5134341152543862,-0.8813630555927521,-1.0886917536756975,0.549050062081077,-0.02925619843231828
8,-0.8942013289149209,0.6432051483527353,-1.315946409661953,-0.8985807991699439,-0.2970637337947786,-0.6086605506258786,-6.42596522878442,-4.714546310754356,-6.068237629077661,-4.259570803086527,-2.7905500435223596,-4.347515174437341,-0.44823441909319944,-3.0315176366282315
9,-2.375653505428841,-0.07319128936196485,-2.56067430470954,-2.5711130390782526,-0.5290648117288822,-0.631492029340069,-6.798072942515623,-5.147952927956711,-9.189403391274475,-6.185927609646563,-4.268348008588616,-6.737292307291877,-1.7434209145747983,-5.713370227124212
10,-3.552366977029414,-0.8878641846461582,-3.3790560422879286,-3.8423387066050325,-0.6819379790747657,-0.3892524514798206,-5.087964497446483,-3.9188988191962855,-9.745093898119697,-6.821630181396442,-4.986588049725567,-7.717998082810911,-2.9755578795881195,-7.437151860151616
11,-4.03915485681221,-1.4635168464125663,-3.4663076936886696,-4.301618263820323,-0.6151582572666674,0.024426952398616978,-1.9110996777073308,-1.514471397974968,-7.616079295240741,-5.95678943475877,-4.724285436887045,-7.022839320067105,-3.679226621530497,-7.660036464498844
12,-3.5534449008935827,-1.507293254038732,-2.6503986540484665,-3.69574553042621,-0.24369051723049298,0.4397396897616298,1.6709497529478663,1.197826648038928,-3.467836503828666,-3.713962118640912,-3.433601374755406,-4.737249787682551,-3.4474089134996304,-6.106821011025682
13,-2.0394854997849285,-0.900311303131867,-0.9844760429228578,-2.04440443333216,0.40780044422309925,0.6732781179211804,4.4972890251886986,3.2624003424847383,1.4243828555157578,-0.5446277018417798,-1.2812619909998353,-1.3081092825681138,-2.102938579895854,-2.908446599348424
14,0.2583890515278934,0.22790564971343327,1.214884012793584,0.3174783401494272,1.1871214963423247,0.6002689382437523,5.6838341890070705,3.9605164312885925,5.549717014280213,2.857595952280069,1.3532257176679534,2.529615026847542,0.18655225910440112,1.3506271889180452
15,2.811100895194516,1.5154512666406101,3.4102656151811517,2.7975899978317256,1.8458784168332019,0.21039823239086544,4.906552560187191,3.0597267463446305,7.630909372650298,5.712266555666613,3.9324927439487514,5.902480553379088,2.9007308905947813,5.713124431348344
16,4.9197252945213785,2.477266813601172,4.968507538462988,4.697924704995882,2.114620426955211,-0.3747420785582229,2.4992143363114367,0.9019863769257085,7.044182091214213,7.339835653518576,5.865307522027409,7.996615798835215,5.282026259387305,9.057426083995402
17,5.906808568460572,2.674656243811888,5.340500585566845,5.419608602124934,1.798948739752263,-0.9326205839928579,-0.666445805145932,-1.7036756730433793,4.0486300269660385,7.333223430277044,6.640464310322375,8.25910377890801,6.548437800006145,10.390239481908056
18,5.331163013582878,1.886896602662611,4.244349890933393,4.657721851496543,0.8634994044500099,-1.212920772049437,-3.478508942567502,-3.7534332800105235,-0.2653671723089017,5.6661277425991905,5.9598926500537015,6.550890165957693,6.14190615506412,9.145284612037491
19,3.158487980333097,0.22176778212868217,1.7920984343590494,2.5212394404406444,-0.5280655058005818,-1.0311307584446296,-4.961680339572218,-4.398804797084371,-4.312920906653991,2.706675713705471,3.836363893950171,3.2069028367097845,3.933770339250217,5.39691281217565
20,-0.17320250706800847,-1.880393639044665,-1.4887407534761434,-0.4663939414572939,-2.0361325655475593,-0.35116423575629424,-4.607373927865975,-3.2581182027073234,-6.544236337791253,-0.8692749527147939,0.626395796958806,-1.019892026767547,0.3172508607338287,-0.08703148090384308
21,-3.8269830873143804,-3.7597043831200714,-4.759072658470467,-3.49436112674578,-3.230041938399383,0.6744411069763319,-2.5462410900901484,-0.5811263178633906,-5.999898860199184,-4.242974839998998,-3.0175524897791477,-5.124278550832225,-3.8518144346813528,-5.987562158541714
22,-6.772137995693121,-4.737344131345878,-7.0798445520935545,-5.68732479644487,-3.7125363549067893,1.7275576058912918,0.4955818060860845,2.79661881830945,-2.700117984724337,-6.652025444363123,-6.272810933061973,-8.08829710227466,-7.460049930940911,-10.750577478612279
23,-8.071786658736189,-4.342624283931592,-7.678054767593076,-6.360836723303278,-3.246800553334281,2.412347108950309,3.443007113739399,5.70521784119518,2.283890735542356,-7.571642090028208,-8.327802844302022,-9.136570627651441,-9.436831560865148,-13.000698839548264
24,-7.173406226423181,-2.4928805774030938,-6.191880351036035,-5.233706565609477,-1.8458915651879904,2.386991592703596,5.239422417564123,7.02384478298882,7.130613875372311,-6.832051708730504,-8.580658039852208,-7.94237927891223,-9.067812524560134,-11.941239371118135
25,-4.11409767546134,0.4363085386569301,-2.8192118573975424,-2.5320797405689524,0.2061484087286466,1.4993231511619125,5.211530486585591,6.073992655574845,9.868294090824778,-4.6451640628392585,-6.808425572476393,-4.729246121087945,-6.230987056746135,-7.623379162618066
26,0.43007675665200895,3.6814795604759416,1.6836304300378646,1.050035362014705,2.4127149183995904,-0.12177175419133049,3.3076512335375754,2.8902428676640657,9.087583563492727,-1.5388229134049858,-3.2617125915030916,-0.2373850729785994,-1.4815301863297154,-0.9965114082667776
27,5.281006162170083,6.290560058555896,6.166130455437071,4.528181439617138,4.190151641170798,-2.059837691744799,0.1269082160396674,-1.730375172827262,4.521613000418532,1.7794700587660892,1.3480192331073464,4.442422188039103,4.04965951457542,6.291540123734563
28,9.05879211588792,7.398599421601561,9.376913084948908,6.897098167756006,5.027135542770023,-3.7064877047334663,-3.2734501686703554,-6.431128097537381,-2.727583033350874,4.591852304495903,5.979052919019327,8.131310315267745,8.928120302956042,12.305812970233683
29,10.570988769323913,6.500690482793955,10.311746319229025,7.418827540553391,4.633141316757122,-4.442557137762075,-5.730300564577165,-9.698809810140684,-10.431220534598674,6.330448525855656,9.489841581154096,9.859089066729801,11.793727102629052,15.344637301170453
30,9.18233111378292,3.638493838667644,8.519804174913157,5.847458217969226,3.0324788692598137,-3.8542143897784866,-6.369248150741619,-10.346267152028776,-15.902257555116758,6.692972916109359,10.92208247925863,9.121491327896212,11.744888074709191,14.42814876134722
31,5.051793452698852,-0.56273801069759,4.276173647599617,2.523362299959176,0.5745294257652717,-1.9121190812521478,-4.9084111549137885,-7.920223012074787,-16.89242646743581,5.691312518376231,9.76753595707189,6.030002302352083,8.620522975283919,9.613219525657364
32,-0.8468255380850656,-5.029097608187247,-1.4398751238477938,-1.6960866490930373,-2.1460767517952144,0.9567643321232849,-1.767102637673808,-2.8971650927387356,-12.422573751401096,3.627357846171791,6.143423829317467,1.309522633655621,3.092176660533051,2.0335865816640424
33,-6.946536413781156,-8.517287886507459,-7.169577087455633,-5.657283322154361,-4.440092047494614,3.947233169270251,2.0603759869036193,3.407050334279813,-3.251162534888493,1.0061272405978234,0.8159585808943517,-3.864627805623048,-3.47375376824359,-6.363254168824694
34,-11.504872216495139,-9.965222211074277,-11.352472226905054,-8.226615450247369,-5.705303885754445,6.098218509610066,5.326891810800625,9.198418448914108,8.210047948484881,-1.5912218711272375,-4.952782408346752,-8.157261236974264,-9.360289982416225,-13.324501451833802
35,-13.106911608287124,-8.814274152064314,-12.758820777036329,-8.615640560145149,-5.58977866619161,6.60052754249432,6.945122563833802,12.733456600594588,18.546448016997356,-3.6440500120151276,-9.710151697570828,-10.421589466028168,-12.964920264854971,-16.912551862829297
36,-11.106805365628988,-5.205038409299865,-10.854858016128915,-6.62147211720811,-4.0913696197624265,5.091868558705499,6.353436789848343,12.854832501295874,24.37751064635288,-4.806114202560398,-12.19686920852666,-10.01408522971706,-13.257241607877667,-16.063172147767713
37,-5.868108466431894,0.019958565950436873,-5.990491304931461,-2.7084495770157364,-1.5650145088550598,1.8329437550141665,3.711732817240634,9.366386703203347,23.45861420765265,-4.969134083484895,-11.70379077143733,-6.987004596459524,-10.09364889878483,-10.915372910675922
38,1.2846171757400313,5.518968811539416,0.6554766723485338,2.0998674435142726,1.3655910228293042,-2.3116006516203575,-0.14062803771641316,3.1261659094641687,15.486308496647148,-4.260623070980753,-8.293532399206303,-2.097633680702283,-4.287318473972452,-2.806141847293152
39,8.406224745660264,9.80995881305281,7.3692967254324,6.494588615095446,3.968997799720544,-6.102094993577616,-3.953989286130139,-4.178412645165167,2.325666058960907,-2.978230347561287,-2.8115040360346475,3.378229827762684,2.5999355565723126,6.081612945731044
40,13.47543219128803,11.686505231060062,12.360739019191392,9.246952832167844,5.596482006040849,-8.303812204621714,-6.477965161513271,-10.510905828235877,-12.444081620412176,-1.4818583895725095,3.3290641217799233,7.98481430250141,8.693360628279564,13.325625281475453
41,14.986460279730368,10.56938738013384,14.259035856128826,9.560675196629285,5.850463296886344,-8.099546206781842,-6.876813311126042,-14.079205405696776,-24.550498785706786,-0.07906939384771533,8.53372362440499,10.485942634679295,12.34444103937249,16.952534692434078
42,12.408672490434792,6.68724979779062,12.503282520103864,7.306861135827541,4.685415336150581,-5.394036035643912,-5.012274085949307,-13.86280004375738,-30.31167038829833,1.0572014804194867,11.473977013872922,10.212057217091498,12.611517646633079,16.004674405600085
43,6.369011208423734,1.0280929398412169,7.511353122509119,3.069617928624547,2.4146675857289637,-0.8959726928957775,-1.4976547259027606,-9.913641219510676,-27.78381407594938,1.9099218300700682,11.460510585729534,7.252175914541345,9.53241404261951,10.8140094056332
44,-1.506269026369528,-4.928559168189995,0.5745808108528463,-2.013916268270967,-0.3773144127472531,4.066913741250185,2.4983541601109285,-3.33913118844687,-17.406279699903354,2.5716765291612225,8.627584074105853,2.43144056612116,4.101410361393764,2.898170656760859
45,-9.049606399544846,-9.622246606023973,-6.4940427669453555,-6.57355076496383,-2.9916234205239194,7.95323895622953,5.636461652755556,4.026714515725812,-1.9295647580133832,3.1509607870194283,3.8715419933996444,-2.922051148655309,-2.044603696768415,-5.491557180814192
46,-14.175120315815917,-11.844376404569209,-11.8574050337783,-9.391855961483229,-4.796756331984043,9.506847222133864,6.854217646673617,10.162187879219797,14.36369268361504,3.6720268451249436,-1.4358117095359222,-7.354058055841167,-7.132773887077241,-12.033245980877947
47,-15.479446138150042,-11.0659644709507,-14.154120412225053,-9.74197279687585,-5.386299169900644,8.182145398566114,5.726678587935662,13.441567894851879,26.91062503546266,4.014960360190182,-5.866451886962988,-9.6940874560848,-9.793160584261143,-15.006524756352901
48,-12.639751641905754,-7.5660130481680525,-12.858092406529497,-7.579246225231094,-4.6716663458939065,4.346266989200125,2.6171639011299233,13.08698970118333,32.208322795050336,3.9293707530256237,-8.354030861436023,-9.37822690440965,-9.458989407944369,-13.771037365539238
49,-6.49160672374072,-2.328233584055261,-8.398802623373799,-3.534339012260757,-2.888668121984397,-0.8198243889735545,-1.4363545080634614,9.356410133269863,28.83052813406199,3.126589632038177,-8.479509419667778,-6.592068093395811,-6.503358013503519,-8.9110017939646
50,1.2312250342445168,3.255431024604028,-2.015432596192223,1.2835826401827906,-0.5210878963474554,-5.696560945379118,-5.064762708866068,3.4208738852106753,17.813980798928146,1.4219793366499742,-6.539852223404742,-2.1959962764248186,-2.074462385617488,-2.0116029670221436
51,8.409932216632667,7.779542997524725,4.604389450938002,5.60872340696644,1.8336036866576422,-8.755011226696269,-7.027554386684809,-3.0179517367482767,2.3090411556928654,-1.1260876506670803,-3.388558410597068,2.5396526593151973,2.3098125942594607,4.852725311919049
52,13.147707834069477,10.198730923934447,9.790938591820312,8.366801925730195,3.6178584170685397,-9.060890535318736,-6.633454833556295,-8.240953878310252,-13.380090050004856,-4.140284644076718,-0.11221994711456436,6.307015962016305,5.269604237989547,9.752033325533999
53,14.289343508725137,10.074628918507246,12.329314705756804,8.948790123988914,4.44659599921658,-6.579772515114477,-3.9779224807345726,-10.993041466366718,-25.056101349688426,-6.95486041402534,2.340878025964676,8.129565718432728,6.004157024462324,11.459294948315488
54,11.706122774885207,7.6365345628261485,11.74865368398137,7.338456169667677,4.187367329516369,-2.177703907575719,0.08480256990170748,-10.790902212163914,-29.801407658626626,-8.761817863546291,3.453087162486906,7.6215868367164985,4.523222271005479,9.767844353142701
55,6.275961580869834,3.656738990976294,8.394630529269389,4.070314025847582,2.9731097379756757,2.68223390263625,4.226347934259254,-7.979815796245276,-26.720855423382314,-8.840869620926052,3.2563754884680605,5.068556062704188,1.5986032677118562,5.484030249601814
56,-0.4173345444047613,-0.8038879703476084,3.281646635666277,0.045706319669912475,1.1507348897460374,6.440169788810899,7.088207211956256,-3.54713561482629,-17.063072535344435,-6.8074159274897665,2.247899586951201,1.3134363226513754,-1.5394581409078771,0.11549357533957118
57,-6.561172000003113,-4.6929732689254156,-2.2178435369293905,-3.7276750851282885,-0.8160199827534877,7.96091447512481,7.733073560742786,1.2248836425826246,-3.729660097372666,-2.798078353071308,1.1446887929801786,-2.5097512280361567,-3.6515809446480665,-4.632021542392107
58,-10.61947971825055,-7.218689736678294,-6.750012476409586,-6.393801987731927,-2.4623674153192026,6.8958795657714935,5.9501568177586925,5.143404890294387,9.63647724728954,2.4760354241488938,0.5752124118097255,-5.312179498929842,-3.9282695906421328,-7.3841411688661935
59,-11.721855819227486,-7.9958295092525145,-9.316970556434757,-7.436323684526308,-3.428706264881266,3.7641479414805765,2.313320107565895,7.40692094983513,19.685059527675413,7.843791375266787,0.8244464246335874,-6.357692482397667,-2.269404431924755,-7.490546835456624
60,-9.83809768134947,-7.066457588144971,-9.490792955675682,-6.758643204363371,-3.5346548731760037,-0.2666486918957905,-2.0224483316590973,7.74781639139376,24.21040564047635,11.942675740807696,1.7256894331135313,-5.455884183211254,0.6883461861866021,-5.170250136706096
61,-5.709910485382298,-4.815853262599244,-7.4622118561748945,-4.653686716440292,-2.8078034237765417,-3.812207740037508,-5.710739952100248,6.400762529989837,22.60424495754292,13.578615322049778,2.736129544935918,-2.991381260179321,3.8018794077879,-1.3818565525766686
62,-0.5826978356332857,-1.8298784337397411,-3.9299382640259304,-1.6903641669133793,-1.4649306090875376,-5.756086435760561,-7.652710647740728,3.9398514713902,15.833548707319867,12.079288049734847,3.164914963338141,0.21205448031842059,5.828108598845221,2.5231829618999395
63,4.168745747334102,1.255355840919474,0.12322098870175825,1.441001253044498,0.1468721727196955,-5.6139442450937125,-7.3365076431077245,1.061221498668022,6.012304225275817,7.535363045001257,2.4669103042083176,3.1479870636737326,5.866318581294907,5.244739282613373
64,7.408412274707821,3.8739070131574236,3.6984782328441734,4.082267522801501,1.6345779186805027,-3.654630791905414,-4.968438103784542,-1.610454213167048,-4.260784554423725,0.8478033956172489,0.49189540733190773,4.9279513373409625,3.6856820464696387,5.935194992803325
65,8.503983222684166,5.605003224242456,6.02225345708665,5.729618302318951,2.6504906597094866,-0.7480114110722227,-1.3633062229221364,-3.6392742142791468,-12.590126717111925,-6.4499453156342526,-2.4048518521194264,5.040015374176941,-0.17273698383619956,4.439925988120472
66,7.431004371274871,6.20722122598909,6.70498504996754,6.1094035258341615,2.9710255936429886,1.9905655358980892,2.3548710773967465,-4.806319409573861,-17.317455558100267,-12.561707366338908,-5.4354889339986885,3.492629336460417,-4.553869003934063,1.3148364384338578
67,4.708688102700805,5.626645100918624,5.7890521513601785,5.205977911676544,2.5461244174769724,3.6189778094790435,5.129017926518785,-5.071474774265438,-17.7971842592955,-15.897725687555267,-7.616575111592082,0.8040995999649742,-8.054352390160023,-2.372059179594897
68,1.2046582565425545,3.9922189121601033,3.6874006938047916,3.247155447644694,1.5080903567912116,3.6942005373661955,6.290591270626672,-4.510088909075404,-14.394846228221306,-15.514814391085102,-8.093269485422528,-2.158430168288622,-9.476103614094495,-5.38592780255018
69,-2.1251199140585504,1.6020412272639666,1.0403651389736923,0.6548155246386929,0.13700099671454533,2.39158935490642,5.723644816483231,-3.2626739652494914,-8.262491676758884,-11.399464070886587,-6.442860176841988,-4.443837494474877,-8.220109316891811,-6.7098683853590995
70,-4.4871301474230965,-1.1057806711243978,-1.4654274205300188,-2.0322428053316193,-1.2102288898320943,0.3861648656562215,3.8311048514538326,-1.5162801629709046,-0.9848621911989227,-4.504754190295656,-2.8546834233757004,-5.308516589043214,-4.493383894820015,-5.855563516257011
71,-5.429677083172245,-3.6080985705362028,-3.2678874051704394,-4.255482890878507,-2.1906762869969354,-1.4453292457886069,1.3353175188701476,0.4886294375802621,5.804018892104799,3.4800699097342576,1.8777021938261254,-4.4478532424388915,0.7368795132585031,-3.0115782922431102
72,-4.914455863914039,-5.3825227070858555,-4.049408209567911,-5.542724369401856,-2.563469117455705,-2.3787414828133566,-0.9998959389489265,2.449769796378871,10.753261198150044,10.57059857530626,6.556510533017385,-2.0964664622334337,6.026779842547134,1.0107212008974715
73,-3.2751878933281096,-6.016006384176453,-3.7819613936098775,-5.606717825986601,-2.251763713096984,-2.1152769599825287,-2.619295483128486,4.019843229683462,13.025853778686255,15.017818009375363,9.914880157871064,1.0365829054104423,9.886648550911804,5.015998003386047
74,-1.0867633289286422,-5.313212808842666,-2.6944816327916685,-4.415584359148396,-1.3612475991789412,-0.8723889698988467,-3.3133166670606906,4.862447297057976,12.405799891915857,15.777200850431441,10.986404849462648,3.9818009054346413,11.224204609223536,7.778941793336601
75,1.012072435287873,-3.37209780843652,-1.1797550898239368,-2.214990369253077,-0.14921476410034418,0.7335005584788113,-3.2079934821317777,4.738948068633453,9.281348323327903,12.780393879267073,9.395938971148938,5.809399165175796,9.66314648212256,8.411109632406886
76,2.492330973269224,-0.5956142474765963,0.3279978891865345,0.5107370653280513,1.047842437921294,1.9576450300190265,-2.6326611189958804,3.597599665066879,4.519022484336099,6.930709140521745,5.481691518208404,5.922797971339128,5.642075116636032,6.633614545823385
77,3.0603403805253757,2.377475737301252,1.4691238604181724,3.1376608776786745,1.908023423143432,2.2389698327304144,-1.9347897159772498,1.6269798390885986,-0.7448575163604215,-0.17393807180207133,0.21006528345983236,4.251544310491896,0.2693230332143384,2.874028683540456
78,2.707219240993708,4.816332298746447,2.037999224029324,5.0438416398697195,2.212572571547183,1.4290656977640706,-1.32489028519575,-0.7569354140543575,-5.3567832887639595,-6.704853524016553,-5.0917006333592,1.2792688737206055,-5.014326685567612,-1.8446808876385306
79,1.6764161543173695,6.0846162172560545,2.009360503536426,5.761331949348852,1.9039084462198663,-0.15030090865751672,-0.8139290446586712,-2.998913491615953,-8.394143877230656,-11.111774696438525,-9.104421579181873,-2.105464169936725,-8.855591569562034,-6.194827530208084
80,0.36570001884801856,5.819777019315113,1.511929372018724,5.099301522228575,1.0967623254358159,-1.8405670465670856,-0.26122215964383283,-4.548442007213901,-9.356001359862974,-12.525210834235116,-10.876742506274525,-4.889245835357838,-10.361245348492254,-8.931441134620005
81,-0.8034131796750509,4.050769954895839,0.7649660553365992,3.202928415876808,0.03991189911507144,-2.9150342265119815,0.4985573259532921,-5.016698221010524,-8.25131657709265,-10.937111437819725,-10.070090707756984,-6.254083753367809,-9.314640030103394,-9.261839628966335
82,-1.5090875470184457,1.213149097054714,0.0022242082219612646,0.5277032835668063,-0.9594323540167466,-2.8751460641267967,1.5145507525725577,-4.294741229577602,-5.561075654729815,-7.118399123307425,-7.020902216131808,-5.832291263757572,-6.182194536068973,-7.084725825288735
83,-1.6105586292934937,-1.9515998845626155,-0.592083410140423,-2.2687309439884578,-1.6256883551597743,-1.6571983647501372,2.6353564079688967,-2.591117832629851,-2.0832215643443512,-2.316527656144523,-2.6101484114752744,-3.8117500095927155,-1.9242553288641007,-3.023324646274051
84,-1.1673883286880067,-4.590961058091405,-0.9185867552743744,-4.491613455562224,-1.7926768927290873,0.3317011107801188,3.5260236586737377,-0.37299564471728974,1.2967247168279759,2.1562794231402607,2.0108687084617363,-0.8581550030719903,2.316140817498499,1.7606010927383977
85,-0.39663269812686736,-5.978419745891856,-0.9650530544636506,-5.588123394050213,-1.446630109851181,2.3625963440312283,3.78636077892466,1.7723553346327974,3.8429663834529744,5.30544801685254,5.748560913458718,2.1162250624861247,5.541918517409242,5.916395021551818
86,0.41291596117564344,-5.724245339774588,-0.7834550619398907,-5.292092079263913,-0.7228745336632285,3.6609372776251914,3.124872404350412,3.3113388956740457,5.145018551229443,6.688319926186546,7.848650228130713,4.255217304919198,7.148361696790392,8.309617169054452
87,0.9983384301779276,-3.8958144163255817,-0.4567559198263357,-3.6942614542912025,0.14123746453084055,3.70358241888797,1.5152906285972059,3.9163673841359956,5.181874435679146,6.440561046432771,8.053027150547747,5.027762264920999,7.024213060287187,8.355641601630273
88,1.2000054950870358,-1.0077138970540311,-0.07037856060952749,-1.2179112126072242,0.8815985553279856,2.422522739327701,-0.7347787044429205,3.5475837764485605,4.262272067349619,5.111008560646292,6.598868941792329,4.372991386729002,5.497621383064279,6.1772749797564
89,0.996574925818061,2.1200874472878715,0.3028743204331957,1.4943078543299961,1.287361556660765,0.23761370748598828,-3.0415520029160787,2.4395053082222495,2.8701813446072544,3.386370321525393,4.079105637535946,2.677864427212559,3.1672498371593716,2.539139711552397
90,0.4918536909020504,4.597415486125618,0.6045508469470492,3.7517769903946054,1.2616318984948294,-2.093755451553083,-4.718407873375671,1.0011395535794405,1.475504306289874,1.8185193034534362,1.2244274954543362,0.6048829452423249,0.6892220924224063,-1.4153816705343274
91,-0.13539078677553862,5.723894588403183,0.7860830658108191,4.998617694309564,0.8453817756540193,-3.752674651038528,-5.207193225071553,-0.33236676012042443,0.3788268164862786,0.6550240126508519,-1.3156490029789538,-1.160139205903249,-1.4069059383836167,-4.534730483155859
92,-0.6966221131627803,5.195574204968438,0.807255693018652,4.957493654812628,0.19869886865884734,-4.156347584445763,-4.283685370043065,-1.2429665322766668,-0.3571571277062369,-0.17512020694445554,-3.1252449931052704,-2.1453755570435513,-2.822452704205109,-6.014119211225212
93,-1.0499582236958376,3.1944285532659533,0.6431354654045663,3.695216595718647,-0.4536163672279697,-3.1667471839409442,-2.15882219479706,-1.6181135990829192,-0.8718058524388835,-0.9335517984206426,-4.07206711051309,-2.2313172370369547,-3.4994566950497283,-5.62042887124165
94,-1.1311128574736755,0.3318986825051928,0.2981208077736404,1.5930671495580988,-0.8946742082381647,-1.1349041346826776,0.5671341809140229,-1.5562030869624999,-1.388765872159245,-1.871034268490889,-4.258373496122132,-1.647182880568628,-3.5558584763456014,-3.719758571584068
95,-0.9541686022842144,-2.537413788329489,-0.18046830423043397,-0.7680375407772123,-0.9838907488031717,1.2319775643369133,3.087634143974223,-1.2922523353883049,-2.0692895851610613,-3.0464084381763987,-3.9096131000541883,-0.8372607379349517,-3.1867656772779123,-1.108780562301728
96,-0.5891720221641135,-4.574974366915296,-0.6990373762951133,-2.77308218156012,-0.7003704773917545,3.127800460126181,4.649910713401975,-1.0765764721560078,-2.8993126351952108,-4.2467433627466775,-3.2531628880313765,-0.25662638747347,-2.5747521887471727,1.283282396042334
97,-0.1303358695709685,-5.210170634162906,-1.1312597715611992,-3.9406430192242485,-0.148245061684668,3.9325528830685093,4.802732557705134,-1.05618562322241,-3.658672244324329,-5.044306103908478,-2.434439451170654,-0.1787896918453729,-1.8384110025988973,2.714836435506905
98,0.33141354985582444,-4.30657579443628,-1.348137803623934,-4.044668700409468,0.4774997148809862,3.4216043700681587,3.5453516029375085,-1.2067954762906712,-3.988354107472323,-4.9679393981738755,-1.4959419354409986,-0.589088397155775,-1.0270888925668336,2.864840744707083
99,0.7235129823327129,-2.1916684472403016,-1.2565279925504302,-3.1573205285305486,0.9541590597919778,1.8274312681483518,1.3251992432814161,-1.343318047478728,-3.5331915994259337,-3.7186755709818997,-0.4163917132705567,-1.2017988190538273,-0.1505118768173424,1.9043480424355939
100,0.9943173150640399,0.4571524819849697,-0.8332769146863735,-1.6046850612591235,1.1039155749556042,-0.2617787702238335,-1.1151910023165028,-1.2058170874580407,-2.1070917989764544,-1.340294665471564,0.8166874706175872,-1.5904207909411907,0.7783632269863142,0.3916476076698839
101,1.1090699993606206,2.8314425670802534,-0.14234367733456907,0.14614288080756976,0.8532711915897828,-2.122917454930813,-2.9888869667405786,-0.5876599287374088,0.18339174220069995,1.7282148887714424,2.1385556052318364,-1.377775961175453,1.708707570330995,-0.9623803711333591
102,1.0469037293143664,4.243734669673314,0.6725557149875633,1.6302095528381257,0.26036110643457855,-3.153977912202777,-3.726183636174079,0.5455561122263841,2.9093058526304847,4.74672638082617,3.3760363446545125,-0.41086424164553864,2.538864515184574,-1.5692923223972481
103,0.803604641403079,4.332001364880779,1.4193046450663866,2.5128935026308006,-0.49918192232783215,-3.073173697764228,-3.157693973487748,1.9966228859861086,5.404239215061466,6.887627553160477,4.269707269764164,1.1480260566369462,3.1280488599862237,-1.1790924298734495
104,0.3995247105451265,3.153591916956831,1.9046330641045472,2.6660389026137725,-1.1843982058299156,-1.994529074178522,-1.5579552968390236,3.3667611749580066,6.944996785959052,7.497065151874317,4.544017426744521,2.850939962587754,3.3272817109191672,0.03723704844697251
105,-0.11270292539472941,1.1436893661953966,1.984453284974892,2.17450054305216,-1.5637599015452022,-0.36113308296597646,0.4622534469628418,4.17226588397056,6.9743691422800005,6.313599855555144,4.001463890729053,4.1070830893120345,3.020020622965238,1.5632813922666187
106,-0.6476135402896441,-1.041744893214699,1.6038938057617362,1.279313046909928,-1.4895381985900487,1.2311732686798496,2.174517162961458,4.011739546653286,5.294772841191987,3.5686307475934016,2.607886346634492,4.38988714458809,2.162441670225954,2.7387909545043216
107,-1.0982308482456928,-2.742162269319406,0.8167037095634578,0.28320178606995416,-0.948292396361059,2.2503268322965897,2.9849378762286007,2.7263394830795074,2.167211061703005,-0.06617954939653033,0.538266252123005,3.435435156282531,0.814307775914317,3.0117644054562684
108,-1.358935763272237,-3.495398858254254,-0.22103751424121493,-0.5469094938161716,-0.07091033431004033,2.4059974698109086,2.6330108131791183,0.49378743056969276,-1.7225726146429257,-3.6675726460976694,-1.8356124366664697,1.3610416501978666,-0.8478213778256127,2.149609750987722
109,-1.3541001549020966,-3.16383849834469,-1.2820873090719662,-1.049385948132293,0.9020118203119777,1.7294347898587488,1.271000179389959,-2.1835627999937137,-5.4282655395326875,-6.324418500874824,-4.016960257616145,-1.340757323038655,-2.542408491642387,0.33446286007276593
110,-1.063224294928395,-1.949287360023574,-2.1179034441128515,-1.1919216540500055,1.6896903503220424,0.5347637072701399,-0.5997001222591362,-4.601675620264345,-7.99401329686621,-7.393333047548311,-5.499042817691463,-3.935466783985411,-3.924422400223101,-1.8900470558942166
111,-0.5333304515405679,-0.3005159966817773,-2.516843232527048,-1.0503083645876814,2.0546983843290234,-0.7151718379717201,-2.309245984985577,-6.055784373438652,-8.720461548268064,-6.66887367855919,-5.894283797828454,-5.666470629411037,-4.654823028799829,-3.800657236223026
112,0.1270448155618862,1.2482170313348768,-2.357837347490515,-0.7572020855984706,1.8750060192774554,-1.5832554555337752,-3.252037745330558,-6.0579206663707215,-7.367336707316137,-4.421119724481979,-5.042928299083261,-5.990915206002929,-4.486825090789036,-4.740515869982592
113,0.7720364643186381,2.2501634301535574,-1.6464226527751875,-0.44384264825862574,1.1823386494854389,-1.8078084178676317,-3.090905063118844,-4.501009857304311,-4.23155328284124,-1.296587527454276,-3.0706166440527403,-4.754884476594017,-3.3478942647608516,-4.343883300893626
114,1.25455889892855,2.474347489800973,-0.5225836635238883,-0.19626061807256473,0.1549906132909792,-1.3768088334287898,-1.8648374957854628,-1.7142035461172258,-0.07615724990550252,1.8799770332265406,-0.37628553039476237,-2.250560563282005,-1.390982455117782,-2.6629993352074166
115,1.4640624262771036,1.9525117716790503,0.7645636477643069,-0.038686782707970664,-0.9327550688695112,-0.5072559867267387,0.032429585633954004,1.612449528156046,4.070635223105796,4.3383469792396,2.45073785629938,0.8635550273942589,1.0084709698681693,-0.15571157039861824
116,1.3550288533608807,0.9381926451037407,1.9122458890076253,0.05519089744862506,-1.7891848645542794,0.453977978800732,1.9908187194175082,4.614666114188364,7.189050298194994,5.56043647851548,4.766966250221637,3.7540627931690227,3.320454785902034,2.4594425501326884
117,0.9581423186808098,-0.19926808876532373,2.6380322866531407,0.1329732773249737,-2.187947442505035,1.1648474641562454,3.3885156229446447,6.497114787041813,8.536265843315663,5.389794758393373,6.031716286819505,5.655184317749612,4.984060300981383,4.4299007357249245
118,0.37130706747119124,-1.1041622708124468,2.7539858462536166,0.23141727617923707,-2.0305006310085574,1.4068504526432388,3.7924167223381913,6.760102928758049,7.834924796229472,4.031222271509477,5.944769587112986,6.086982137636338,5.557188311077395,5.201415471860107
119,-0.2664709345207225,-1.5427846714114533,2.2203411111035005,0.3553239031195328,-1.3703801778711484,1.1472369784731424,3.0891403625834055,5.341550359614457,5.33150295019299,1.9533860484398304,4.52751684909295,4.983671462078219,4.849085652004554,4.581226692270361
120,-0.810678053094486,-1.4585120765836972,1.1619011365700567,0.4749506174949646,-0.3934596498452508,0.5288718706999589,1.5078593905762894,2.632119553072078,1.7128755420658275,-0.2659265683954386,2.1235773550339534,2.6967080635622613,2.9923434333854604,2.7831965117971835
121,-1.146528788129099,-0.9629764350058546,-0.16010172546238596,0.5409581066432838,0.6382960700816112,-0.20022543935632361,-0.466127653506791,-0.6397741367724548,-2.0903109877029347,-2.1009120119386715,-0.6843501940060078,-0.12261882811490041,0.4259693944143402,0.3466479091526543
122,-1.2147131932567827,-0.275151855456234,-1.4151006799298522,0.5088097499680446,1.4616210209739933,-0.7853075190668839,-2.252762419437922,-3.617098174591145,-5.154724140129566,-3.1998824741200638,-3.2216729826262935,-2.719948231857921,-2.2124795203771552,-2.0385590656596797
123,-1.0216583303479738,0.3643139688261314,-2.291490642867798,0.36141872554024346,1.8828504655394853,-1.052853677290097,-3.3576095610549506,-5.554073195030204,-6.7992897058497945,-3.441618006686751,-4.8947317052177235,-4.451411690905123,-4.2583066781856065,-3.740739405713412
124,-0.6328171034154381,0.7719877436488153,-2.5810024799530984,0.1204525709680949,1.8250649544485893,-0.9583559879411917,-3.513524448775038,-6.015950725635422,-6.742030617498355,-2.922644882101472,-5.342351511756982,-4.950766916128281,-5.204923041481533,-4.362809752800919
125,-0.15206605184549515,0.8692060122730533,-2.234281389370226,-0.1580632997413826,1.3399127955308374,-0.5827010307960866,-2.742752160150652,-4.98220923399881,-5.14212469632439,-1.892368550332028,-4.524005616348273,-4.205545652156367,-4.846317443406276,-3.83577649830661
126,0.30634250070779845,0.6879446123610137,-1.3709964777399164,-0.4017214050556125,0.5835980090943503,-0.08595748550528058,-1.3270445510622553,-2.8276489338492032,-2.524181058800141,-0.6641395328742327,-2.719906597067841,-2.5282373812338954,-3.331891491996597,-2.408616981721354
127,0.6455220619767321,0.3401484267638379,-0.24155106751972796,-0.5460146677774478,-0.23325242349198244,0.35865612646959244,0.29684513815766345,-0.19329659413203393,0.3861995674173559,0.46929386492138603,-0.4436502945269922,-0.44045535957762905,-1.11598713860352,-0.5474138625807605
