,AF3,F7,F3,FC5,T7,P7,O1,O2,P8,T8,FC6,F4,F8,AF4
0,-0.04098003833041005,-0.11168984891412229,-0.11665139223522616,0.09922451216879866,0.13956164723590125,0.38710029738660445,0.4269874414329885,0.24136689016029927,0.05907866324235323,-0.19151777047272706,-0.21791468041179252,-0.052020905863844044,-0.26719704369922814,-0.10417483369779608
1,2.1189217765242763,1.4890783071411875,-0.6633990033197237,2.327863553632002,-0.7945288294983406,-2.222004724943437,-1.5477716788987166,-0.3714160980652459,0.969525363064044,2.5207965123339147,2.835187059062145,4.138468211494046,2.3515719707615217,3.5169558079551724
2,3.483962246257071,2.6436935050174792,-1.1224345359118875,3.80073988560675,-1.4631431217255455,-3.9666278391615273,-2.8847527053410817,-0.8786631153127364,1.5433907093407404,4.535461034544979,4.863330028156741,6.961246629228948,4.105054195429111,5.956955226457979
3,3.5888066085525128,3.0590168345491757,-1.4291227346144484,4.084197489127763,-1.6143068733864725,-4.177713512202236,-3.0445423109682257,-1.0703232640552593,1.6475442645605372,5.358091363196835,5.189956703398459,7.532068258435033,4.416663081704596,6.4653144962722
4,2.442555948257975,2.6781022237566403,-1.5285154950342599,3.1533816728900956,-1.1575116505626952,-2.74312977547937,-1.9388954582484392,-0.838351359659387,1.3072815555931248,4.8362188773233274,3.7378162993472097,5.726983633754956,3.218962648080326,4.958586898523561
5,0.5166979608590032,1.6825925185475712,-1.384315064963722,1.3844430472110263,-0.20415967590908757,-0.15627312284404393,0.026809309906984474,-0.22670757234015493,0.683244185198966,3.185577997667493,1.0511177686503221,2.213592720965917,0.9704782178950389,2.033481580958765
6,-1.441318829635117,0.41586846173023084,-0.9915223383710525,-0.5944917323382957,0.9556026756804255,2.652195010977227,2.0970513563329605,0.5697944896407977,0.0035913445934248702,0.9086834286301515,-1.900923305421601,-1.7893489911043594,-1.512071073963998,-1.2592362388117788
7,-2.696689830391994,-0.7420276573110747,-0.388402916251886,-2.1350492793419478,1.9370637186408526,4.642378921335297,3.4457515926467592,1.2628877703176766,-0.5216511720966134,-1.3650750406522223,-4.069768710596742,-4.938559209558259,-3.346601952248138,-3.7964892489124917
8,-2.807291103531005,-1.5008691078170668,0.33836673125745165,-2.795739042609746,2.3829876819647673,5.03827654463035,3.4906630849843605,1.5694701530266222,-0.7718459994454564,-3.0657604163380134,-4.700125106299103,-6.229024915241617,-3.8997266539617383,-4.7812884478785564
9,-1.7882597778331546,-1.7433326499450135,1.0607226193759667,-2.481765143703661,2.0856313563348596,3.613824852349605,2.12620741073706,1.3193495526299932,-0.7471258735816466,-3.837848113300027,-3.5972000589175854,-5.331242110227439,-3.010446121746005,-4.014048264239213
10,-0.09892943719217231,-1.5383970271568848,1.6304017179013262,-1.4502500269974592,1.0677334190516212,0.7888927698839923,-0.2142432219343245,0.5328624737816747,-0.5505283275495211,-3.6187779760853123,-1.1935044622340443,-2.6865484858979283,-1.0437537622362822,-1.9406520744114553
11,1.541790084258161,-1.0861208825661453,1.9113913044425863,-0.18570975825931793,-0.40777581612147584,-2.501774058449368,-2.695199177428078,-0.5641638528740607,-0.3308178525474908,-2.622641995201304,1.6088926775318257,0.6696336777968426,1.2451175881521583,0.536553593172725
12,2.4398850112867927,-0.6204336653849278,1.8159845297534154,0.8008542506447228,-1.9075470507371624,-5.124026582404819,-4.371469463725177,-1.6008718794463697,-0.2110647405326232,-1.2418512542893592,3.764803056653134,3.4905550849763802,2.9874192090418923,2.411825774489353
13,2.200943694850595,-0.3107297383808132,1.3339865289124937,1.1693092544892691,-2.958796782971111,-6.136335595490202,-4.534716361030084,-2.1831884084212456,-0.2331879689461362,0.09484620809629861,4.464759897116292,4.7685973339314875,3.519462474245025,2.9606193405848136
14,0.8894920822491724,-0.20091194086979597,0.5450446122644435,0.8690740142308064,-3.201314018148512,-5.122632142334704,-2.990001828484041,-2.038385548029247,-0.3417755788133644,1.0581536322222254,3.4306706348196663,4.092444615414211,2.6283385473484886,2.0125979682852684
15,-0.9885520396445704,-0.20759992974843658,-0.39200802851201916,0.13734594232929287,-2.5108531056618277,-2.3495543515938757,-0.1593917474123031,-1.1310229278203177,-0.41413571822560147,1.5038452918599996,1.0216572663361363,1.7845932194830478,0.6354048471687385,0.01194517479827344
16,-2.6746175852203735,-0.17460983746391467,-1.272464831758465,-0.6167942484971591,-1.0512643178122296,1.308533323882638,3.0319531875740595,0.29606691974382143,-0.3239755649043747,1.4847211480924234,-1.8893023727401812,-1.2278398546280214,-1.714322783414578,-2.157132451381066
17,-3.44688590066131,0.04167884327804871,-1.8943594645693826,-0.9921124320488756,0.7654250287345058,4.653906321934524,5.456157142322203,1.7793148718507878,-0.011094441223303733,1.192798426457153,-4.225510893005502,-3.7603655474976234,-3.519254925654901,-3.5147489755787436
18,-2.9016590923002736,0.49316958816738715,-2.1097181668702314,-0.7654427633480032,2.4017817774486274,6.5645870144516545,6.171664916810192,2.7801196063948117,0.47462263123244103,0.8600232912013835,-5.0937846238456626,-4.809877294580586,-4.050407053226712,-3.371259850442717
19,-1.1205625403554749,1.100902172881593,-1.8640804602558447,0.01489374142011092,3.3631378124128246,6.373888548540057,4.768487687482851,2.8746731267320738,0.9774058209156905,0.6584861438455956,-4.110603091161857,-3.925990423681621,-3.0246985479510373,-1.6101269743387097
20,1.3404057572974173,1.6730331362998856,-1.2125960397116855,1.0478117845563761,3.356916174518674,4.101890592087235,1.5473073217282456,1.9228431610116423,1.2908550215582941,0.637949437013406,-1.5498101529142227,-1.3807421514833609,-0.7228667179108282,1.2401562132219976
21,3.6381158944056486,1.9738077565121843,-0.3074306262691561,1.900845257556995,2.389812220922356,0.4594934561574947,-2.537489785893167,0.15176959233532494,1.2446060794069254,0.7213281452972887,1.742444859406023,1.9246711193723571,2.093100350225089,4.176241154248597
22,4.938932921387823,1.816767861077043,0.6405290724803546,2.1846913383432405,0.7686749099109983,-3.3783948010126603,-6.1627434869710545,-1.8857201701658115,0.7868658662442709,0.7547826483857236,4.636951052334469,4.782516497844737,4.436919205105902,6.074442335493783
23,4.717643756671269,1.1455243023245945,1.415170892549205,1.711571712237801,-0.997521138654521,-6.156732874216674,-8.063323417279525,-3.4761330237662733,0.025475614349452728,0.5878721736898144,6.113363073346647,6.11416928637829,5.440743273978046,6.103154578191864
24,2.9509287186803874,0.07000515490082937,1.8489741193706473,0.5756129006872692,-2.363640117290165,-6.954633931435691,-7.4630263647730395,-3.9867100993010314,-0.7954313120159232,0.14892227653293594,5.6167102933249895,5.361844337181526,4.663752961175525,4.043581271229508
25,0.1363031259912316,-1.1567873675790779,1.8624026746746596,-0.8751979808546994,-2.927248227085995,-5.492580261206207,-4.364573741523365,-3.1034028834847502,-1.3802599676583593,-0.5151155587138208,3.253295371623839,2.6957080958954274,2.257934402895419,0.40035758502662044
26,-2.8693195617101304,-2.213733381720162,1.478683988699,-2.1635268154541314,-2.5595704379734974,-2.2299332218075643,0.405119405699801,-0.9787523941883003,-1.498290055966903,-1.248930058860438,-0.24174645726385982,-1.0373906159384918,-1.0678813627864567,-3.741977679503986
27,-5.133180929255562,-2.8111875925764993,0.8112344465548413,-2.8550410531553405,-1.443038266451487,1.780788363455496,5.420750017504077,1.7728818597215545,-1.0849616393786115,-1.8429558564933406,-3.7521048884631245,-4.604358799761291,-4.274353227501133,-7.0701076868811565
28,-5.9524776492383955,-2.7797762781174664,0.028926097758789616,-2.713070274930395,-0.0017230030148995298,5.235885041904421,9.092636154527733,4.246024897063438,-0.28358824264107185,-2.1080626505476463,-6.15513771246074,-6.8112267258963115,-6.331233762696029,-8.4800865599435
29,-5.077761504575623,-2.1184268996698647,-0.6896719848819505,-1.7788404638738402,1.2514843087387277,7.006560389381033,10.174489289639835,5.535312752085868,0.5957250004358208,-1.94111686273171,-6.693443415341675,-6.912696129545204,-6.555010893983145,-7.451047078438972
30,-2.78159842725341,-0.9880899195276228,-1.199728177540813,-0.35061117507977835,1.8970902752476464,6.508836578627123,8.18110913226284,5.054388625530233,1.1902254041108522,-1.3575875096314884,-5.216946185120135,-4.863121728807602,-4.831621592780443,-4.225889404119328
31,0.24375695400501904,0.34213573422583254,-1.4198620753832634,1.126168885357314,1.7555255792961204,3.8953819532334433,3.576149410125812,2.77170611445209,1.2305106644083175,-0.48218451545830215,-2.2172867493340926,-1.3245981720400328,-1.6521349029330572,0.26184786543548
32,3.117254918731102,1.573955340110806,-1.3419350506254457,2.2134676406622305,0.9451414753446571,0.006135612041691661,-2.3388515864258794,-0.7269949485292326,0.6605625411896563,0.49458520229877,1.3502367639879422,2.565474946984673,2.0465067783367403,4.68785899679858
33,5.04573750498987,2.455850597273637,-1.021220368700674,2.6223403230085087,-0.16931216560940557,-3.9056749834436877,-7.807192168606254,-4.38534702912079,-0.3197915380190988,1.3742129615936596,4.389669856118568,5.581586829038232,5.178915187856892,7.759982564651973
34,5.554431614869889,2.833780421745383,-0.5528605949944169,2.293033916139269,-1.1186442073275487,-6.581477552896401,-11.155182391098696,-6.996896341161782,-1.3137004576168945,2.0001456279586995,6.018833798096688,6.815533630406505,6.846924675637465,8.621505302526243
35,4.601932024576004,2.667557381065596,-0.04352332095221108,1.391340653141827,-1.5090209177322307,-7.164901121201972,-11.316436498114887,-7.601014853644047,-1.8716900473945257,2.2845799936177147,5.836616659982824,5.962002904639372,6.605479889260915,7.103217570723513
36,2.5542801673653943,2.0179368485883282,0.4130787946366279,0.23130678424279194,-1.172685565637585,-5.47562831077845,-8.17443159998873,-5.8232093494101465,-1.6703598454048705,2.208921954323034,4.020064615721699,3.392583313372696,4.578491494388606,3.7478499105042107
37,0.040760511406944235,1.0182058147288489,0.7511108104385653,-0.840319564686611,-0.23315499067157514,-2.0614234942455196,-2.611798169664122,-2.0403366613317773,-0.6568535613041402,1.8062584973221056,1.2298533095697852,0.002475840835572263,1.3966310932718955,-0.3908129770671946
38,-2.250767059970636,-0.15552605754604512,0.9366011135673429,-1.5532343601259768,0.9399098581067311,1.985978313596464,3.7520067564694535,2.695189581961977,0.900520234611864,1.1399914662622443,-1.6321867059762467,-3.107835481580619,-2.013154016221244,-4.0977769439462275
39,-3.7693993376664836,-1.3077288073566025,0.963062509519264,-1.7802176323417236,1.8698143104142537,5.387852164430271,9.05326413779103,6.959224461703826,2.4823203779037906,0.2907868720524975,-3.7237481051154777,-5.000867802736067,-4.712534227216019,-6.374778094845297
40,-4.230701451321396,-2.2418747139985373,0.8435226383121377,-1.5461838158693018,2.1542888184229794,7.0895318921555335,11.751746006559003,9.396912083932035,3.490422375901596,-0.6441198954561785,-4.518588551646758,-5.194603661043546,-6.020012632475865,-6.723919136965753
41,-3.6527464580601983,-2.7809433425183987,0.6035898264104279,-0.9881884455897146,1.6215289338218764,6.591310927413723,11.09504781967424,9.160203796105037,3.464323814393143,-1.5449489628894948,-3.939349119653988,-3.786220563626982,-5.684164653869252,-5.253847558296149
42,-2.304691103439109,-2.796097421885624,0.2780595911224534,-0.29135123602122637,0.40221967505158607,4.094021068986137,7.334979284078505,6.1974479821850395,2.2628948026821396,-2.2685696898249272,-2.334700279715441,-1.3767755318777462,-3.919415341048102,-2.5892727417145047
43,-0.5991605435888855,-2.2422684675969538,-0.08937834646127411,0.37085007330832986,-1.1099461128854953,0.4170211326702369,1.631797989003286,1.2956694655935104,0.14222510664186852,-2.6638460267861412,-0.3231431411242963,1.1644553373094026,-1.3069870395521108,0.37013768735799796
44,1.0304066457712515,-1.1897590492835528,-0.44612178034922845,0.8724047694395511,-2.395365140262815,-3.2785287420821554,-4.317955581252828,-4.144206872265896,-2.3042204675056857,-2.6062260193754607,1.4323409131818596,3.005993743531367,1.39705346599718,2.750943309373536
45,2.2319746512663556,0.16509919747267837,-0.7337695294839037,1.142701547244985,-2.993240124495357,-5.865995720288297,-8.807399451365601,-8.531133098900435,-4.32756287379524,-2.0432451786296695,2.438262451800751,3.6233704936332414,3.482633458887685,3.965994021752927
46,2.796701177020098,1.5250754556883355,-0.8964436156436084,1.156445728626213,-2.6665972560806708,-6.6049366230929465,-10.630718185852379,-10.57238457791379,-5.267151106712358,-1.0331838397477149,2.504972816485002,2.944751987279644,4.47090419935045,3.8557362337773005
47,2.677416253366886,2.5566354943769682,-0.8936031827107425,0.9212220314811982,-1.4880511825506164,-5.356312768673083,-9.42126073120893,-9.670264143737185,-4.771996824995713,0.24324123152156576,1.7669616318731687,1.3343938688499242,4.217491080740896,2.679700062250865
48,1.972834482966661,2.981216025321206,-0.7136874769361505,0.47417509447469713,0.18366412428154671,-2.598025703767064,-5.717848866381991,-6.100472507769028,-2.922979801230865,1.5113054135244364,0.5962541967706434,-0.5671996407144285,2.915914050983357,0.9788097043613915
49,0.8905476161293678,2.6656607251653357,-0.38324191861586065,-0.11148635119116866,1.8264498976067016,0.7552352138171221,-0.7507737770298577,-0.9172305426106372,-0.21348126969624012,2.469503874949439,-0.54954633101568,-2.0810337289311196,1.0124124236728347,-0.6317326668713783
50,-0.3005252306578417,1.6785864782931135,0.03331626746403283,-0.7201085447819956,2.931667196666248,3.6608368503967132,3.971733540616072,4.380571661389933,2.604312748305726,2.8777011455435346,-1.2866310944971218,-2.7192740598661183,-0.9350467840279494,-1.6642883546175518
51,-1.322122817077898,0.28684088773106825,0.4454321099851308,-1.201380059441628,3.1719728508977387,5.2804453235317315,7.136244102592215,8.311367130000075,4.753964934393989,2.6366715573211823,-1.4188447302144762,-2.3308485446785325,-2.411133615982298,-1.8919855705457742
52,-1.939582750945926,-1.11459306430432,0.7577894482122546,-1.4010338045277633,2.502496515342366,5.228181780206464,8.004282019342702,9.851710220149307,5.670461678062649,1.8283977397075006,-0.9752059719559288,-1.121896524492097,-3.070899922848168,-1.380569057296661
53,-2.011058583494562,-2.121498877617971,0.8956703377292372,-1.210762353341276,1.163367600026017,3.660079055048066,6.5862851841404835,8.718068899652119,5.1597652649465795,0.697729020138803,-0.16977940312119302,0.4443426749036101,-2.812586560763476,-0.4234695389578791
54,-1.5245039609685165,-2.450264961799945,0.8265349047041372,-0.6203103926247292,-0.4125781196569424,1.1856638867455356,3.5687821271341695,5.408066096187943,3.43421827542831,-0.42360851775496094,0.6915367402151705,1.823503861222601,-1.7836462579433354,0.584746947444912
55,-0.6108660291863163,-2.033427345752504,0.5706039855518626,0.25230796625426166,-1.7503985351916498,-1.3587957155967638,0.03623618176636764,1.000410601442134,1.0201247700726486,-1.2273932344633458,1.3189234717587333,2.5758881732815775,-0.3249025502130284,1.2868521322124933
56,0.47672944209609935,-1.0450083651000344,0.19640506058870305,1.1726053582987688,-2.487338697259474,-3.193229187682589,-2.9074137230550923,-3.2096930285234127,-1.423133184786426,-1.5350483130935897,1.5242339297363035,2.4991027622016775,1.1287471789696357,1.4677734271837133
57,1.4206107987454908,0.1567351518909263,-0.19797336001781432,1.8490617811847532,-2.4782989610493606,-3.837364402107966,-4.487312311386497,-6.114126673819914,-3.3064298896634043,-1.3592360836324229,1.2611217834665287,1.6688829765905384,2.1646720438114873,1.098771466552124
58,1.9238127910387632,1.1520241748839952,-0.5124601271494033,2.0261390311363674,-1.8203463918652807,-3.2382108067584916,-4.465465581570331,-7.103813724251442,-4.268720836922861,-0.8945649364558161,0.616126009126662,0.3846964660675724,2.4977665075645024,0.31842583232667265
59,1.8014615479941947,1.60601166053466,-0.6729982789167621,1.5801757835111514,-0.794515268570688,-1.7476774288403991,-3.1516162327235833,-6.196575406487109,-4.243174705922772,-0.4365735218406157,-0.23562641368470563,-0.9503439273512102,2.0406928469685552,-0.6312753480567778
60,1.0496812517261245,1.3870847147359198,-0.6513967448672389,0.5815336342887141,0.24787327516574864,0.031612650487271896,-1.2309087628621407,-3.9549492496144554,-3.421551478254177,-0.2562422993898704,-1.0876262028099348,-1.9665905199289442,0.9239291303848616,-1.4849259432988489
61,-0.1343668733338792,0.6137053388360882,-0.47115345893301896,-0.7052713664984983,1.0097857940229684,1.4714155706285297,0.5174184872023185,-1.239232339122401,-2.1432947978509644,-0.4772082669098751,-1.7512959582374883,-2.433580623717343,-0.5382008525830171,-2.0227026910832038
62,-1.3952017983836467,-0.38874690470498907,-0.19789668438466224,-1.8911272984830418,1.339123954742309,2.1330499117620687,1.5046661074756358,1.1073658504851125,-0.7594826904740416,-1.0060713435122017,-2.0862851329341763,-2.30364248431873,-1.9275832446685108,-2.112311182210135
63,-2.318674837903499,-1.2073720060800297,0.0821046109675956,-2.5836121785958044,1.256539247000194,1.9003654251154551,1.5216197387654702,2.5290625515517258,0.4751960441327079,-1.5497844243844212,-2.0125916199754776,-1.6894319612003625,-2.8304007731596843,-1.7218549840839978
64,-2.5621273082603975,-1.4954768279387203,0.28840746899325626,-2.521001220391536,0.9168127210454944,0.99072105479299,0.772980448830767,2.8949706903173773,1.4466004564707953,-1.722548015792696,-1.5134356070908466,-0.7961310720191459,-2.9483834581436583,-0.9121486749659564
65,-1.9746123237825854,-1.1051483425769661,0.36971455459816793,-1.671963211718688,0.5250812742003517,-0.1516178666426794,-0.24349703657696464,2.4685942194463384,2.1553229203670194,-1.2087033338042261,-0.6382419152484401,0.1577563892709327,-2.1861652621934042,0.17997033408185703
66,-0.6653072353174277,-0.14952553989263145,0.3172857864264682,-0.26277942254053044,0.24453235014297456,-1.0350621960680637,-0.9589535617983116,1.7366985914126833,2.644629544125379,0.07846872378832494,0.4916562185865134,0.9993382954166065,-0.6910461845130733,1.3601293421365666
67,1.0085374134423946,1.0299710667637358,0.164976820796525,1.282633432647284,0.13283370097932426,-1.305923896352706,-0.9691927474472622,1.1740664820314355,2.923958711872918,1.9078448306262243,1.681429360508895,1.623321170524829,1.1693500551582723,2.397330252732514
68,2.5379445937771115,1.982203108499161,-0.023460303639405915,2.4744090652666872,0.13100684412585614,-0.8735144950364219,-0.19629819840194945,1.0394683919219068,2.929142016263945,3.7575039965072423,2.67805126006673,1.980223899931084,2.891862504959989,3.053601494371187
69,3.4178903592176213,2.3099762485255164,-0.1755323307173096,2.918303265314252,0.10638334475109887,0.06647939127066331,1.0813376359823457,1.2809196271363164,2.5417430291059975,4.963517459231087,3.212926840220326,2.049323867571988,3.968650435151686,3.127919957301131
70,3.314500487656164,1.820632091983451,-0.23313947534275684,2.452531078697453,-0.07068361094859547,1.1144301062337645,2.3381449736329496,1.5824072536495093,1.6609550423908868,4.949094388452338,3.0711117719897483,1.8189848732608962,4.0325265122493565,2.5119271563520624
71,2.187811562279932,0.608502615042243,-0.17094499935699786,1.2112052586053503,-0.45021443556344676,1.8216794408907127,3.006261683203588,1.527565796543323,0.294650788472326,3.456309420577557,2.170707458133649,1.2888565837887878,2.976357510346215,1.243376320365178
72,0.32497167035284563,-0.962861289212798,-0.00478982453385971,-0.4108468016454165,-0.9600243400154242,1.860197478044635,2.6987814669753525,0.8098578105960071,-1.37677359549162,0.6923960647248658,0.623475748647056,0.492757812362939,1.0080175674787606,-0.4653954591133334
73,-1.7337189975126626,-2.3757898305011533,0.21219643945419808,-1.883738364326045,-1.4176831942136385,1.145927430888234,1.3686499249802953,-0.5989821319745993,-3.0027681831695006,-2.6748598462992277,-1.254196108454132,-0.47379071491716274,-1.383266084479201,-2.2460837533269733
74,-3.3577773434457816,-3.1333122314241835,0.4047719221405413,-2.718593221852356,-1.5956990367611887,-0.12705398590583766,-0.6549899717557249,-2.393605828882577,-4.144492480287848,-5.688261838433825,-2.9985715118665177,-1.4435343796145397,-3.5487975613942355,-3.649786410772215
75,-4.028456007534367,-2.933941105580718,0.49796069895195455,-2.634851972319032,-1.3166191657163377,-1.5517953361132844,-2.766363419690223,-4.019363364381152,-4.415218043742092,-7.394017558146138,-4.118884266898047,-2.200896685908211,-4.861927111268681,-4.267529444236577
76,-3.513067276168105,-1.785093349104527,0.4405105513386193,-1.6605458687643317,-0.5410706212121532,-2.6482332020745716,-4.283266346097739,-4.867493142643932,-3.629673479428143,-7.162348795849741,-4.2487805065339685,-2.538804520681257,-4.907864109487094,-3.862412499337273
77,-1.951013454679137,-0.013699154368613449,0.22282049221607875,-0.1286662050920292,0.5880412205290393,-3.027297768839157,-4.6775696432248655,-4.508000120381198,-1.9023534775412525,-4.923979583730448,-3.2786101854824725,-2.330734080705173,-3.6220726565306127,-2.467292366929874
78,0.18164491324660248,1.8326672911429636,-0.1160418920090271,1.4321117201010156,1.76744530479437,-2.522354785295386,-3.756175340742371,-2.8707190307107897,0.3514096239038605,-1.2326268247510308,-1.4175768057593043,-1.5884624308650264,-1.3285375851688486,-0.40629962823709465
79,2.221559571580973,3.162961695781438,-0.49490312395682656,2.4771086934145807,2.619929655072371,-1.2442272129443641,-1.7311309642217845,-0.3031929000832996,2.5236218542357625,2.879768402507522,0.845499492963253,-0.47770634917336685,1.341821974536625,1.7791005618643128
80,3.5338655415612177,3.5391754271142197,-0.8097197701611515,2.634677831174389,2.8190678374116396,0.4560905896991458,0.8432090494116619,2.520358775927793,4.000928107645378,6.216109073980755,2.8794009919945553,0.7211314266433311,3.6336283679041097,3.4850201306913693
81,3.721913160613317,2.825295157363653,-0.9610210086586307,1.8385085234233807,2.2098245219170805,2.1008630473324055,3.2426398106833827,4.80908244891837,4.367470754346251,7.794704569093334,4.105219763118704,1.6974412557726903,4.895997159926682,4.23396100541022
82,2.75848277094226,1.2369831323792162,-0.8825139545350682,0.3554076046425464,0.8811404681060897,3.234267712859586,4.796066404011642,5.910356536484677,3.5491720344401076,7.168503661261642,4.1832882788863355,2.2103603041435274,4.7845065147615875,3.832699155650712
83,0.9919494341994542,-0.7263449417280393,-0.5630036024073298,-1.3033081000322775,-0.8389839192021337,3.556199056230405,5.08558411923936,5.519153136406696,1.843324737892074,4.5717771696720435,3.1256351250467187,2.1660370258042216,3.3684065691205176,2.4404278975782665
84,-0.9756749719975109,-2.4449893342932123,-0.0550978573426102,-2.55747362438587,-2.469657181417039,2.999826512395167,4.061308871036796,3.7693305999496567,-0.18164224440458318,0.8413329333787153,1.291463784261109,1.6417725042521747,1.1053886634928165,0.5179981915240183
85,-2.496333113166751,-3.3826552514223365,0.532641183664073,-2.9597821365415946,-3.5200553065927664,1.733643846625553,2.039665194706785,1.178530245484376,-1.8826530238663433,-2.8620312008837674,-0.7351075941695576,0.8477638470587118,-1.3089104877066489,-1.327715839569828
86,-3.0958280886960563,-3.2608216177736162,1.0591849713487618,-2.3522476318772765,-3.6439880825962874,0.09534550453049014,-0.4068764849487094,-1.528413607949963,-2.763787112759713,-5.435723824467405,-2.3422711636910387,0.042795821156710816,-3.165862274336695,-2.5501343105912815
87,-2.628457313805535,-2.1445244313828837,1.3850540248291014,-0.9216131732313985,-2.755209601523807,-1.513974065729933,-2.6269716445101694,-3.65083987302138,-2.641643997148545,-6.1889200477234985,-3.091834484669124,-0.560971569606638,-3.9664097738969897,-2.8450748255487177
88,-1.3130781401331373,-0.41166105344389403,1.408703252376361,0.8660093409251234,-1.0643199022614271,-2.738060745310347,-4.075606381996461,-4.716592272941043,-1.6932950485886697,-5.046790067892456,-2.852572945083423,-0.8654145297375635,-3.566113098802967,-2.241758198436388
89,0.3588131598012937,1.3808838330054716,1.0960053372118546,2.427319909352526,0.9765669039820886,-3.3442291458804148,-4.4518175374407765,-4.593364163371569,-0.370632611755494,-2.5397325585435895,-1.8202075792471635,-0.9006451790707803,-2.1965928766787512,-1.070319661646299
90,1.805605455042777,2.6850756219588554,0.4947004472381459,3.261901163641055,2.804906571356305,-3.2560553737609568,-3.7540773704360433,-3.4799548782905285,0.7837061296760106,0.4102667799299458,-0.4224003475833317,-0.784697309594455,-0.3625362902462967,0.1789141223247676
91,2.5594624180833394,3.1368912039370533,-0.27109625233924456,3.118194263360437,3.913246013643332,-2.541802727376048,-2.2476315834763314,-1.7957462273582812,1.3460702214531874,2.8226234736068525,0.8494807896810025,-0.6513651748413263,1.3425250737921608,1.047406936704245
92,2.417417292858223,2.6594229095720765,-1.0265433359586758,2.067277409271031,3.997024130689376,-1.3740976704952839,-0.3650374862769243,-0.02076998703903031,1.1656318314751482,3.9882319316520873,1.6145726569212535,-0.5818344599343536,2.4322992557690015,1.2759278572819757
93,1.4887921875970074,1.4632095525854143,-1.5869025257303342,0.46177848538556554,3.039171507516581,0.01896554600596757,1.4225630628592567,1.45071290962917,0.40434944103594234,3.681710505480226,1.7176447269014326,-0.5719484346984237,2.667334821716161,0.8837862805275074
94,0.1296141223423692,-0.04830090793090474,-1.8041183182091987,-1.1995837230880717,1.307543196856624,1.395667526069972,2.723890641994633,2.395047805564369,-0.5485347094714471,2.1898648061233756,1.2481126837948533,-0.5483894575521884,2.0962607946896217,0.13349471402535734
95,-1.2024594235676809,-1.4267253428301307,-1.6072658541448346,-2.447272982459196,-0.7302500453756059,2.5297305637487324,3.3065705675886075,2.7660793677065887,-1.2486739066058772,0.16093697142357286,0.46707074802550863,-0.4226178960242986,0.9968726445904903,-0.5981337594338921
96,-2.1120310448207182,-2.3228914943532635,-1.0254998393524986,-2.98959055939028,-2.5444972551180145,3.230375419346074,3.124705598492389,2.6415511610033864,-1.3827841569695953,-1.65627414828951,-0.3171300397288502,-0.15277586355387776,-0.2477940924404307,-0.9842670953164343
97,-2.3864788068173444,-2.576927777966209,-0.18590326250205375,-2.782652777723005,-3.6893186505752373,3.361347524922472,2.299611429463153,2.147905487117433,-0.8924027664682401,-2.6798737835599944,-0.8677997084218743,0.2200690875317345,-1.2840015186940759,-0.8778803977955707
98,-2.034078648907493,-2.2298358952253485,0.7149897536590591,-2.003699066205149,-3.9139400465756222,2.864076842154259,1.0692550614599414,1.403506924271274,0.013433639468179402,-2.6722375002855836,-1.0857246278118313,0.5819871604728265,-1.8826985655332609,-0.3554545485612044
99,-1.2374807429012455,-1.4650846185162485,1.4598058835805605,-0.9490724760825069,-3.211214823149322,1.7823382506222467,-0.27503471365402715,0.5027675950416796,0.9579147405859848,-1.7733922030448745,-1.0035640440369893,0.7995064109839263,-1.9701956094549962,0.3377684673628068
100,-0.2544670965708597,-0.5150936108169348,1.8665961612782385,0.09345626934577701,-1.7972500440477153,0.27774151382350754,-1.449448896099662,-0.46259888142562344,1.5628951149878703,-0.3960127815335043,-0.7251965476239383,0.7901859477768645,-1.5998418551189582,0.9103368482608526
101,0.6846588046930648,0.4232852988276502,1.8372181497245872,0.9423396512350969,-0.0368379843054968,-1.3778514116325224,-2.2273266211043543,-1.3705612383997228,1.6093909149338272,0.9607414952451667,-0.3502101715516733,0.5736640399916485,-0.8942097163103091,1.1564913248903899
102,1.4392296045957569,1.230694540012807,1.3837950442642104,1.5521577822128432,1.6575905640483344,-2.8424991702836535,-2.4740953161905623,-2.0558143070145256,1.1236969150938034,1.897280526182665,0.07379493386069996,0.2736915931687078,0.006427246708189029,1.0379220234555866
103,1.9605039445502852,1.8553208232551395,0.6251425821147135,1.971420360135013,2.923523346297141,-3.7753589019574623,-2.166539028534419,-2.3371854677598614,0.3539520611312336,2.2289172157890897,0.5473836096887039,0.06435873627818149,0.9658673699035248,0.6812599273678427
104,2.245834287619987,2.268226675964648,-0.2461932307960139,2.257709560694207,3.519627635454783,-3.9237779306607705,-1.3951988216415545,-2.0821555671509038,-0.3501282684828581,1.9977082384050877,1.0705874701288773,0.08163660301793253,1.8436459879699223,0.2970495170771509
105,2.279802825799877,2.4175736093804776,-1.016781089124581,2.3989358326833377,3.3600719255111744,-3.2011599019925403,-0.34791065959859757,-1.2814817334070674,-0.6996709846414431,1.3949420391093226,1.5824328603519855,0.3412901091117449,2.477369763218598,0.06223899440064132
106,2.002349699814923,2.2145018427309036,-1.50946227797564,2.285849137537655,2.513160232551506,-1.7287405590148575,0.7265112422674038,-0.095087263241688,-0.59844940995932,0.6439447465685488,1.9310180436638298,0.7059887611907395,2.684311377469147,0.024705028286703377
107,1.3283848857274354,1.5658740376933578,-1.628071624611832,1.7559014821628076,1.1732100475925549,0.17725020335753733,1.5714629030392946,1.1626725195189123,-0.1848525284036239,-0.09708928752216457,1.9032858732467959,0.9257276400035617,2.3008622718088416,0.07767601134871573
108,0.21469994286034452,0.44298135334777305,-1.3771406496462655,0.6930472164568741,-0.3832501002930628,2.0753808494738415,1.9835336839650743,2.106366268002946,0.23578551312257934,-0.7701614162819822,1.3135683892891208,0.743479812747045,1.2552698648343514,0.018879622533742386
109,-1.2583273173654397,-1.0471705745607236,-0.8521429195517087,-0.8621475551218568,-1.8479439567067006,3.5095309306036193,1.866609363280418,2.408541809587479,0.3398578972834477,-1.383611063739684,0.11686480640608486,0.026019846375279737,-0.3556082353543757,-0.3314322883636589
110,-2.8369732667995873,-2.629329606424105,-0.20518326235588633,-2.64876168688079,-2.9323435634954254,4.129544467133988,1.2625164078797788,1.9274134952333022,-0.05014900940920241,-1.938212346285717,-1.5072789752415798,-1.1373092711194484,-2.227807165216284,-1.009388535010463
111,-4.115369838398142,-3.8961522665937545,0.40161216437387454,-4.210652858759243,-3.416544098119407,3.786605300003358,0.34559530083091217,0.7803243083809951,-0.8598665654586395,-2.361694379679487,-3.150497979509792,-2.4183765112476348,-3.8851787531213597,-1.844458976263796
112,-4.638731492244206,-4.415770414197345,0.8398311359545714,-5.01815480513618,-3.19118773975596,2.5745387795504175,-0.6217037674234028,-0.6732416566246316,-1.7670553479531752,-2.4950467013195894,-4.27257873720863,-3.3372069776712077,-4.796322877432404,-2.4929448068645352
113,-4.062461278250324,-3.881197358866775,1.0428022141705438,-4.6521173426556235,-2.285619223116996,0.8042835338033837,-1.36243736779755,-1.9417965816082186,-2.3208051917951296,-2.1470056032980502,-4.378687135791026,-3.430598289351412,-4.54608476928043,-2.5647723402330436
114,-2.310395209981642,-2.248279321567878,1.0115606729958393,-2.984377704492546,-0.8735522741117849,-1.0810363232182711,-1.6671346408140957,-2.5705082172628484,-2.13162083301202,-1.1970490304544044,-3.216935526113142,-2.4435332280258764,-3.0041345709920346,-1.7971773935051178
115,0.3343385364281632,0.19524033965799698,0.8004212914468019,-0.28132316603608376,0.7511724292159409,-2.625292529755954,-1.4582812710977668,-2.3079399222453554,-1.0553490067794198,0.3010519047823648,-0.91860119190798,-0.4680193198090178,-0.4233784489766915,-0.20306947896180547
116,3.25496910836023,2.8678723095315233,0.49035044182680004,2.8210296898710587,2.2303314744714204,-3.4780719503435344,-0.8152958898233064,-1.2073301167094126,0.7078016019586113,2.0700047050967045,1.9836601244687475,2.0330362506066124,2.581787209950869,1.8743677525400966
117,5.6523923502709374,5.041336923094984,0.1611130271837383,5.477644050816985,3.2207740366230717,-3.4796065284088384,0.049990942809034294,0.3791910895146075,2.647007130433414,3.6502918262118347,4.6831537935040215,4.339841763993171,5.1873060120618995,3.8358591524694683
118,6.783114178896844,6.056710990517145,-0.12840078632241939,6.886999662833382,3.4800288162942494,-2.690021289492044,0.8608780037520518,1.9158240983533823,4.103445704470241,4.53095754987369,6.341024715186735,5.698610757154455,6.602621360644264,5.0134102205937054
119,6.207224906401925,5.540378914116302,-0.34705856367854887,6.553723502930907,2.934560791603175,-1.3583514759116762,1.364788646222748,2.868586609313706,4.505707812732761,4.328588394800051,6.36473483596291,5.579862562480435,6.327974877240336,4.9077016208627855
120,3.958616866413628,3.5444393659282665,-0.48672888585629764,4.469713887308839,1.7084700940459472,0.15572843852105075,1.414113613991635,2.894318224241643,3.590348483678842,2.9474014699776916,4.6251251618711136,3.879788221540312,4.336517960703974,3.3875588278347277
121,0.5710478801489743,0.5578240879186414,-0.5513795652593207,1.1458262441859135,0.09985778284461168,1.4822331436883027,1.0115920161975256,1.9639347300574932,1.5220794693106123,0.6540220769610668,1.5302304600860002,0.987749834578981,1.1125801298066371,0.7725929060784277
122,-3.0587581413918548,-2.6231489516024284,-0.5468887205635999,-2.5242076113543206,-1.492701493899466,2.334175304539032,0.3050378026381822,0.37448359334599085,-1.1362359215612186,-1.971176646980034,-2.078130427530238,-2.3117856763922955,-2.4752332244929436,-2.239452317570839
123,-5.9328537367889655,-5.127633237388057,-0.47661241159334594,-5.527974976273198,-2.6750845084715333,2.5696763939107337,-0.4661101731317241,-1.354363830459513,-3.597983150383777,-4.198776130421834,-5.176580186292801,-5.07575963661317,-5.430223394504047,-4.782344895186736
124,-7.255249738626556,-6.272539702064953,-0.34390982976763346,-7.0417458228682746,-3.164245299344893,2.2099493454488517,-1.0531457658737935,-2.6611918768996685,-5.111617308580621,-5.378697776957447,-6.879035054972655,-6.499792593803655,-6.931075796937112,-6.0983257495352134
125,-6.6765208392681386,-5.7686764865445435,-0.15887987249920593,-6.680052573491555,-2.864772250005876,1.4137937087512897,-1.2803278330513443,-3.135079043383357,-5.212031588022914,-5.1534317531302465,-6.714980306620606,-6.175247927070954,-6.582805203689766,-5.78647648173598
126,-4.398387766366352,-3.803312720463472,0.05567298983142552,-4.6057385724067625,-1.8918856198841045,0.4209074863696959,-1.098745944086795,-2.650393216818001,-3.8750398963089587,-3.5800599983297388,-4.773185146256271,-4.218086477281266,-4.532457883815879,-3.9355428184617414
127,-1.1040930144628185,-0.9732678462762795,0.2636353560438666,-1.4662374826302185,-0.5336447369372702,-0.5170457391135969,-0.5945116422783032,-1.398107983096944,-1.5211196361145902,-1.1164474215359286,-1.663560697573776,-1.226128157516216,-1.4127834005322555,-1.095004565663783
