,AF3,F7,F3,FC5,T7,P7,O1,O2,P8,T8,FC6,F4,F8,AF4
0,-0.5453935570409512,-0.6024167543499641,-0.44874297612913083,-0.17784435244662838,-0.016205686490389414,-0.5000081557464241,1.1813462266240307,2.0258712980367264,0.26050261050315754,1.1143617958631329,0.5742224074574138,-0.23483727210206243,-0.12374558729490595,-0.647304650925689
1,-2.7231320172234765,-1.7428679994132799,-0.6639512781725063,-2.333179842299173,-3.5109474174345947,-5.8704206269003745,-8.460540851119156,-6.037853496772597,-0.8106672691881363,-4.112208424724724,-3.3655275446315525,-5.127511477025561,-2.2155768427566915,-4.6327252332854245
2,-4.365013176550808,-2.661051745741735,-0.9836868532919668,-4.227410580963895,-6.543581510044201,-10.41369587735621,-16.84050012786075,-13.448750180654287,-1.7593932940817272,-8.559670200079756,-6.497477782152519,-8.853764891311103,-3.7739736039909566,-7.552490390621916
3,-5.208882897956315,-3.3157044954677386,-1.578474666938578,-5.678557947768844,-8.686063954301236,-13.484090853469425,-22.643009947393715,-19.261373806643824,-2.4505068017369434,-11.564298510212609,-8.20313465925021,-10.680542211707317,-4.539937953667979,-8.840309383658095
4,-5.170638015042245,-3.6770566855562477,-2.4525577180664366,-6.503361090774956,-9.565484742592826,-14.497747279387188,-24.806551379147418,-22.51752077831151,-2.7767044963802383,-12.699666347561713,-8.225437139919746,-10.354253933834574,-4.4580365456228375,-8.340058019371705
5,-4.328820976625743,-3.6968298976757876,-3.4018364451225604,-6.519795466914144,-8.920858140510248,-13.038615305006822,-22.713186111811147,-22.38973567901334,-2.6705710943251475,-11.811547925703195,-6.697746370275059,-8.118455824498824,-3.654291719707938,-6.30030060189694
6,-2.8682878405561123,-3.293919612954746,-4.051807491174073,-5.579049003481992,-6.682672057821157,-9.02769593589862,-16.391655175287877,-18.4235067955863,-2.1184564008933564,-9.020571263827046,-4.0660220182627365,-4.592549430775447,-2.363443735186318,-3.25871274648336
7,-1.0152921344079733,-2.373153431123251,-3.974879498930428,-3.6271495109220466,-3.051208621501386,-2.886830053352793,-6.662471011786106,-10.80030277399754,-1.17363453996956,-4.705493309884904,-0.9405397784233375,-0.5672702879752689,-0.8411645333713659,0.13068143696841675
8,1.004262079492849,-0.8813372528546585,-2.8572541186333997,-0.7800919664040783,1.4627774819141806,4.395089944689625,4.861518474334035,-0.5071546820503611,0.036972912821482,0.525933645500642,2.0677253820592005,3.2049389853896377,0.7005730228944805,3.261202586826517
9,2.9688051771206454,1.1153804250360562,-0.6613135223919516,2.6183460007231574,6.069979825952032,11.366456790858914,15.981463683943213,10.69291736379459,1.3193380055258928,5.8829183048749485,4.474214293263793,6.156615617611501,2.1116392318591126,5.676599801900736
10,4.63804311937311,3.3671592045965677,2.279672629763686,5.992451855136454,9.824736576061959,16.403401589995898,24.32806454886989,20.540299044213167,2.4369824456071023,10.468260391585723,5.981755030335342,7.957058987344608,3.2775829524098143,7.09674924555609
11,5.7338960134908294,5.429889257611004,5.284907075092712,8.611233083041085,11.826128810257131,18.127563497368275,27.911838621850585,26.773999300893607,3.1536218350116614,13.399273912208075,6.476200044088901,8.482144645572578,4.075448791498411,7.3872236400412135
12,5.9600884149399915,6.73705354118748,7.483326689755176,9.748468964826756,11.454896644757849,15.830793329992073,25.668359075476026,27.723775226939786,3.287020392819529,13.972907402877924,5.982821109010552,7.748278701452905,4.3487124588442905,6.517233598479704
13,5.0776819299845455,6.753086973428682,8.073145147035149,8.895058747736348,8.580132040244239,9.763824642929306,17.83217352062007,22.826718495966702,2.761199460175826,11.850745381864384,4.619220128279911,5.86338706741994,3.929879218605049,4.5478858398438735
14,3.0217195487114004,5.169840999302441,6.607632765746584,5.961834804649087,3.6654751143890425,1.174510665466663,6.000783964787053,12.896256198751631,1.6411149811561367,7.214571967635757,2.571541814915878,3.0262084641959146,2.7140496491783637,1.665792154006003
15,0.012134501757755666,2.0780080254551607,3.20768617992542,1.3972587904962714,-2.2761079231851347,-7.945953245995887,-7.170825020724396,0.030820989022177277,0.13577525449908204,0.8304157599345541,0.09880255639605869,-0.4331606646711995,0.7559666839080915,-1.7604535551989808
16,-3.4027243794450897,-1.9615254127903188,-1.3877144698820325,-3.842299557173701,-7.889692567872201,-15.356992016480607,-18.595585485457285,-12.847609343693279,-1.4371093324051023,-6.0309134604443955,-2.4531750519191644,-4.01342363894752,-1.6584399129391183,-5.151542438350047
17,-6.418085097474972,-5.997770193069244,-5.976053652985929,-8.491039550022778,-11.808221585623347,-19.16893889748693,-25.545266435973605,-22.719609685681615,-2.7209587246041247,-11.833277205326057,-4.659160389250088,-7.057377758639575,-4.015282744976614,-7.769047424828554
18,-8.167707836483142,-8.922890394259912,-9.22470667742131,-11.30463518880281,-13.020421713112128,-18.37397693274897,-26.38747146053126,-27.263366131905297,-3.40912533906227,-15.138532604524856,-6.068561521822534,-8.858180366539306,-5.675857083459645,-8.87072441334475
19,-7.995750147227452,-9.801217577743245,-10.088513277294267,-11.432846498495358,-11.169788136140856,-13.145950128827561,-21.049085612961917,-25.48916585828886,-3.3289027255797925,-15.005484415802218,-6.3091814576787675,-8.84906888456865,-6.063992980654816,-7.942700630561739
20,-5.7156396484831165,-8.190907335960068,-8.174962152125119,-8.713962887690839,-6.687681500724499,-4.813537391579755,-11.056191263237269,-18.02046552846954,-2.495361848093626,-11.305404181363727,-5.214570210466851,-6.820041763368934,-4.880551423463131,-4.932533439153202
21,-1.7530259859476178,-4.343062726562529,-3.9245036200989296,-3.7823877600336893,-0.7068344330767496,4.491047978244173,0.8780882456700162,-6.927592903203757,-1.116145156742664,-4.841486787636913,-2.9267050286770497,-3.074136475498051,-2.2643727365041015,-0.38339956866893554
22,2.90209057231481,0.8064439619674283,1.4732906063339943,2.0667529079583353,5.233252152416486,12.40804828095049,11.609469634411987,4.8476868920801355,0.45821071129170143,2.7928764677866464,0.07747852774439314,1.5592814357369489,1.174256023257891,4.612806545373
23,6.946195286508499,5.87165071532776,6.419996074995875,7.233209939305476,9.610647866073815,16.984589758988896,18.444885488911776,14.313917736046117,1.8272667373824893,9.604928544988496,3.067186379753317,5.89354946688201,4.483302254136185,8.668035418658132
24,9.152358350316133,9.417930790474388,9.40606169843623,10.286300351928395,11.35082066699823,17.18635582538377,19.889634242159588,19.25791350694383,2.6514099403178086,13.74744809134333,5.240558621567919,8.707856794160339,6.639664194606618,10.502258787711112
25,8.776109985258788,10.406703804789535,9.504931437767208,10.408824823698037,10.13006212538454,13.145165498342047,16.03429469846175,18.83444214231464,2.747565133021221,14.062639676576914,5.962183729950473,9.130596232283562,6.882065068915983,9.37614303441593
26,5.835002460574129,8.536276074689738,6.69426212691931,7.661352963209271,6.456176475324241,6.081621698046709,8.46506747902502,13.74435432231044,2.140197334436288,10.455906402684326,4.9800967700181555,6.952663555105824,4.994436508552574,5.399369402959494
27,1.1529898184458582,4.359087212829614,1.8866732686943,2.971628171469745,1.498950131982031,-2.062974394996149,-0.2713888474731687,5.953270564192029,1.0508436339008722,3.971141156625469,2.5439555940336622,2.7510285936143677,1.4335685024549256,-0.41213467516727686
28,-3.8631362683690424,-0.8731650269822129,-3.351558351188785,-2.156414322836787,-3.277058620555186,-9.170790784325755,-7.478346716504524,-1.9564850614429166,-0.17161429220382382,-3.474989173591882,-0.6282852174778064,-2.2397461062846338,-2.7599494680020764,-6.379353729529979
29,-7.654957750024945,-5.593890919034547,-7.307920818476876,-6.1241930617202955,-6.560644605843502,-13.509991031309925,-11.1386277002288,-7.596442665998275,-1.1588332691236534,-9.637045618859053,-3.5406329863417856,-6.484870759592988,-6.257084101928489,-10.649443905332175
30,-9.014582352807617,-8.413573881443005,-8.690353849224218,-7.753606506540945,-7.580113671277476,-14.162267269216366,-10.503666974661709,-9.493363873638348,-1.635476051252911,-12.60929791220072,-5.218202778236901,-8.629311977119128,-7.8582253972148,-11.784175065927597
31,-7.489959299855811,-8.558426065118695,-7.061735616218489,-6.6643425558834055,-6.306052766295975,-11.209205695930445,-6.262044040396598,-7.501245605083711,-1.5009894700957322,-11.418283558698578,-5.025951767246697,-7.944461666557981,-6.900719082040209,-9.254234830205094
32,-3.5526690312186684,-6.110452916689165,-2.9924567230717827,-3.3864595402424897,-3.411238331939738,-5.644580570050847,-0.24481363173072357,-2.7835986965906785,-0.8552199115494812,-6.3537742172077785,-2.90371431719058,-4.589019881368579,-3.5173915426192575,-3.6657395813522733
33,1.535375234991733,-1.9690422605780942,2.124144178483917,0.830072552919926,-0.009307504061441416,0.9438344078235746,5.2254946569881024,2.6184129776246428,0.03951608497546287,1.074001242705731,0.5661847200543778,0.41111860124146127,1.3508055875067082,3.37267175094226
34,6.118984175519845,2.45301421981297,6.534105951358367,4.444978548649618,2.7339027974711665,6.821383569124976,8.122825337438748,6.487666519641048,0.846960240841432,8.552091078986841,4.294116764697994,5.467018359319336,6.207689843629891,9.715988889270879
35,8.683460497888381,5.697778974320548,8.708730950819136,6.152023659343018,3.9835363265178905,10.555906566439944,7.384085356942694,7.176970442645662,1.2672611148315236,13.643962054690233,6.993747395524731,8.922538977650099,9.452289375197976,13.342737920104208
36,8.350570284948752,6.739441307684044,7.85766583545811,5.322372361120941,3.4875297715406655,11.353937852492612,3.2416762094104543,4.163830495523968,1.1340776859426307,14.53323317025772,7.582815964146556,9.583860576269545,9.890087316211389,12.999839730681643
37,5.173292840429511,5.313622230700054,4.197594833458669,2.2193201427556035,1.6201781353842764,9.208840204019818,-2.876577756658869,-1.7580833617847855,0.4683512813499495,10.609542894745742,5.554302901722268,7.111465735624563,7.14215925697537,8.622965610056934
38,0.13157744329248056,1.992155297112691,-1.112377474353313,-2.08604206012572,-0.786478753116809,4.841627956615044,-8.836069815494923,-8.70832507131495,-0.5271207115085428,2.714934130600472,1.198718941392351,2.146917568105679,1.8156377988815553,1.3920462851841195
39,-5.170923132828986,-2.01825017233927,-6.34590509897141,-6.069078751612054,-2.756219534375377,-0.5305939701408826,-12.504582161397474,-14.297732670652652,-1.529592162367824,-7.0346681330277905,-4.404417843037394,-3.867834904733916,-4.629509015095213,-6.602326349899036
40,-9.01220136626621,-5.284291146642135,-9.769923889887773,-8.258216308459367,-3.5146431228631547,-5.525013769746301,-12.44844994875925,-16.37770868222303,-2.195046255281398,-15.814618652658256,-9.642864656956743,-9.122494751684064,-10.287850383413392,-12.981356103824787
41,-10.098007371069096,-6.625521281524743,-10.206184707882928,-7.727994178276635,-2.7498730996029566,-8.933587386734827,-8.394314529245037,-13.733235138576745,-2.263589360088936,-20.890139137778903,-12.81780659920169,-11.986679849040165,-13.372870835880894,-15.797070995638533
42,-7.975810820995645,-5.507984257590196,-7.4122303358286805,-4.419054449713641,-0.7048431775737545,-9.993513794347137,-1.3176939195961934,-6.510541981210584,-1.6404947786591824,-20.422826326501827,-12.659135096897542,-11.504717614296402,-12.768566951487058,-14.125522563837155
43,-3.1872638812056855,-2.2250564758746134,-2.162125205029357,0.8169948828665275,1.921339700129716,-8.533923738093097,6.857187421830688,3.750189447969602,-0.429879334141805,-14.051573176232464,-8.75809112405996,-7.686758655005338,-8.397989104209456,-8.352182171352919
44,2.886825967202,2.1911595164868496,3.9939940794235773,6.461440252927502,4.220760385836487,-4.979319891755521,13.839744850629843,14.490970540691148,1.087790720723053,-3.073760657078653,-1.7782585946304004,-1.5114216566480165,-1.290969223518031,-0.06424857689244091
45,8.439182833508463,6.297451007287606,9.21015238700457,10.784129356449876,5.38379754864857,-0.2230822125981448,17.64896077219082,22.817089161094728,2.5272480446570365,9.837059940123623,6.63787138905692,5.355681911903825,6.677020413888466,8.414144417805376
46,11.778396082358645,8.69996970721054,11.91013150134022,12.369724768468084,4.962571115349026,4.591194117250181,17.175963142626255,26.292870320773492,3.4988660292537124,21.310544518025264,14.2634276544094,11.038768214396189,13.303545439344317,14.700257499006067
47,11.83576232331322,8.500828313399689,11.262099382640246,10.55403352488535,3.007904248712836,8.329507266295861,12.473137163915098,23.630335510798414,3.7110068905427536,28.17636391260678,18.887542019598012,13.980855662226821,16.685571294686248,17.039803929537833
48,8.48533644008234,5.590562638842233,7.41967687663816,5.639779658229166,0.04312265739661233,10.11489029331254,4.702052169884922,15.079612146256277,3.0479482887265887,28.334790446748954,18.956741111447958,13.37190889909692,15.7700620452168,14.800158750217477
49,2.584787721778832,0.6965033211021362,1.4631153019942975,-1.1706390324355136,-3.1074082003047434,9.51508630985259,-4.221996005001035,2.412723339139473,1.6043240376797676,21.36079772783491,14.068629185475995,9.358323725797678,10.666910188307664,8.630014236482234
50,-4.270555779459657,-4.825687999178267,-4.932449316071174,-8.103178007931222,-5.572602330209101,6.635501616701167,-12.166068601570808,-11.496467620862385,-0.331576327120818,8.67161172923881,5.161872312907282,2.983159005024392,2.6323140264047407,0.24826940576423714
51,-10.20353682535751,-9.390762801928338,-9.993706013736666,-13.303147945676686,-6.688499503057293,2.099557164609166,-17.333060455587507,-23.384577708671507,-2.340886704449682,-6.794512005475283,-5.670578029675786,-4.115405955643512,-6.272138233082852,-8.065033865414152
52,-13.584691410643828,-11.649680187588334,-12.35815761765147,-15.346686543853178,-6.17549474950705,-3.081226092914455,-18.68091239268554,-30.414579837154488,-3.9683708850599695,-21.30755154864335,-15.708010026761523,-10.153900980051272,-13.744640905276844,-14.118478305303261
53,-13.481988866982254,-10.882032589720268,-11.445901477159644,-13.628161720923504,-4.193065079375579,-7.72388585116524,-16.110160984123517,-30.881325089934244,-4.826045592480303,-31.291091117955016,-22.32739693166274,-13.672223033416579,-17.86868664881006,-16.40784648611745
54,-9.905489907915413,-7.200903712419282,-7.592344888009157,-8.518468349743342,-1.2674758632240164,-10.735100123807987,-10.39798456653423,-24.625403583420194,-4.6830515717314745,-34.233360562260856,-23.722641589800684,-13.894010066023968,-17.62080585482983,-14.495062119492875
55,-3.785084836598192,-1.515761628392226,-1.9153391524762415,-1.2570723126369632,1.8738284937765206,-11.362142003121509,-2.928549223040357,-13.054469034145757,-3.5220182950818346,-29.32381714918517,-19.40955634060654,-10.88910791214247,-13.121108775651,-9.071060243846564
56,3.3020363416913154,4.727547250045897,4.030845189109337,6.38388681126822,4.504038201838018,-9.377348365963119,4.683417256544145,1.2234855468382035,-1.5494602381055562,-17.650967024081677,-10.36935390094979,-5.508155623385698,-5.5657152857186665,-1.702871105433663
57,9.567755507460975,9.94670294315818,8.703503735030774,12.564135231589624,6.074845768456273,-5.150448966276627,10.96641095868094,15.04942189450657,0.8426316543449962,-1.9166171259181202,1.2103364538490216,0.8772581449056361,3.126516626864907,5.643595201803893
58,13.48562473342278,12.844155513205,10.987853740671692,15.839245949340434,6.325809469055499,0.41444577946074124,14.873981195827737,25.470385355798772,3.156684357497603,14.249023919894427,12.519601125692647,6.74624556205182,10.841067766154199,11.154932277524393
59,14.169713831652157,12.732701875257154,10.466401732401593,15.502579686010522,5.307249425462457,6.070202858314685,15.92626445700529,30.409965431409944,4.89475338958756,27.184115743857156,20.864967633641164,10.80701913327519,15.814246161581531,13.63518925279926
60,11.56431080906363,9.683648399739832,7.476596891763898,11.724211857862826,3.3261131865532136,10.508064644888185,14.208698744009977,29.09064461473132,5.667019703883769,34.0678208021672,24.35260400563878,12.285049595756805,17.049738357258605,12.761441543582418
61,6.407917937136559,4.471320204921505,2.957724735918311,5.465236447556746,0.8435571377738386,12.666119766645911,10.261514565944752,22.12082494814747,5.279999321675717,33.54972867492118,22.330615223243548,11.057316840136039,14.503768831458792,9.07798136118815
62,-0.000854292144957272,-1.6548684651367283,-1.8518649440714305,-1.7941138659455604,-1.640469278218589,11.990810247104069,4.911385341826088,11.251876260454306,3.78433144099564,25.99192079198829,15.483720213630749,7.615708286983343,9.010642136313715,3.757338321664615
63,-6.1573387078457005,-7.297030751022019,-5.76884988463165,-8.429982470524553,-3.6860170204676703,8.584233088203186,-0.9049089188488063,-1.1054887155798374,1.470119804607936,13.28855818395382,5.578972969688195,2.8884051026652338,1.995096406624482,-1.7792574575003222
64,-10.722780272147775,-11.24299652927169,-7.966693150017685,-13.053583461653188,-4.978769433332608,3.194834108006699,-6.2901663388735765,-12.463561814479464,-1.1908626470599981,-1.6612815053522563,-5.040861297132695,-2.0193863509659726,-4.928333943834666,-6.258844934652696
65,-12.81881614437678,-12.726128674125137,-8.146741488915819,-14.802554805530562,-5.359937239233372,-2.952698843522953,-10.495028868122287,-20.787355545562445,-3.644646422220165,-15.669857448759055,-14.058544374018384,-6.091800327642264,-10.34975210481009,-8.857357410878324
66,-12.180644829672419,-11.557960768836717,-6.5459497661228925,-13.485977419865707,-4.827339942389795,-8.45013836705218,-12.986145667438125,-24.85251981357631,-5.374681900282458,-25.975683551362028,-19.711506352731174,-8.610837604237505,-13.350618060849708,-9.332423717210267
67,-9.14956050090561,-8.118848284120881,-3.7989566231722867,-9.56606489605547,-3.5174779995394307,-12.047995023431932,-13.483117004160402,-24.372508454155543,-6.014710213124646,-30.787693619976892,-21.122658805238167,-9.266311839246129,-13.62605462325293,-7.975699951810771
68,-4.528803045304906,-3.2271341725730593,-0.7120515607031728,-3.9998486611185378,-1.6759823123806705,-12.95813029646372,-11.972231937911792,-19.90401301120013,-5.4289877532507225,-29.552779396920986,-18.378393533047873,-8.157513677544067,-11.441067594262956,-5.427577536253335
69,0.6430325692961367,2.0685681621155245,1.9750211940283064,2.0069071402127268,0.380418966620293,-11.036282060615132,-8.699552495087858,-12.595131229825718,-3.741334855254418,-22.92439111813956,-12.376150947870116,-5.705416609880617,-7.466018968794245,-2.4324735076113466
70,5.335689150394275,6.720123319796615,3.769724297148724,7.26901777102918,2.309794481790415,-6.796919673824411,-4.140990674473959,-3.8694388845402936,-1.3065334586009076,-12.48736582422132,-4.521471552145001,-2.512978051734157,-2.5620758233178065,0.3805908930177104
71,8.730454925397579,9.884240470944409,4.5064548063108525,10.854308492640127,3.797075902022301,-1.2606350762322112,1.0535636494945109,4.863557568299292,1.3687256760327617,-0.3440772990844089,3.6221217050597607,0.7834538049960377,2.413959597178653,2.628521307113971
72,10.346142400958177,11.064742769980064,4.318019283374256,12.236241720992842,4.606568227759852,4.317792103211229,6.1406115205335645,12.409918857283389,3.73641706898214,11.321147210315937,10.63899031957755,3.6356594957433392,6.7397173616117065,4.1910578472906925
73,10.076604812324735,10.174529436634772,3.525240339281573,11.34743801594461,4.624775142502132,8.760118591202373,10.379544856095873,17.88538219980951,5.32357221295343,20.605805636096875,15.468021346744564,5.657377791648712,9.881089315961187,5.131474074108889
74,8.150804561406222,7.515852371019066,2.4923603740749827,8.538278089531518,3.881845584318896,11.227511315959482,13.131468672859146,20.723161987062223,5.828520354936109,26.132307191136363,17.49860202064892,6.647573772260418,11.490103542191088,5.569797460672753
75,5.040401702283203,3.6911969582260844,1.499755095894513,4.463039520814646,2.5432761736175795,11.370612587677284,13.945678163731818,20.641676940701128,5.176967834879438,27.168047897943023,16.57835554019005,6.574727720751941,11.383857818807998,5.568448863988538
76,1.344197582283935,-0.5331685576082794,0.672825092360714,-0.0736933708823539,0.8713921600931464,9.342589652083813,12.623185347318369,17.620961333446413,3.5281576996749595,23.651435757020163,12.969255948403202,5.541050115784289,9.538560117417035,5.0791703802734425
77,-2.32466646920897,-4.382993645933255,-0.017367022161569004,-4.275718062054944,-0.8342312174704183,5.695112537499623,9.252950173380587,11.917015892918911,1.2330075262909148,16.159946340087856,7.282730110618213,3.744623141107846,6.113052266230751,3.972112813808808
78,-5.430728588487398,-7.221274896156323,-0.6917566909712761,-7.489477681321307,-2.3009095058382405,1.2084377267581397,4.220797672470836,4.110158777517856,-1.2437706994745221,5.841583873608949,0.4059552303865704,1.4500648850648978,1.4894250346065094,2.1333927107465422
79,-7.57832562232627,-8.65556042664406,-1.46908352793338,-9.294015563550271,-3.33338156411273,-3.285119141457288,-1.8094194236798964,-4.849868805071683,-3.419208882306524,-5.693415868257662,-6.587240568048095,-1.0317276794291117,-3.7030580540733804,-0.41149410927307584
80,-8.54224885068456,-8.587535131321403,-2.378121308760425,-9.538143724662552,-3.837569722421997,-7.040023589393684,-7.947346702879201,-13.658168953841974,-4.885257266538903,-16.541943255849954,-12.555876949261664,-3.3622529620636916,-8.62007181052955,-3.4041082246176204
81,-8.270558598833267,-7.197282522116589,-3.3099853713190805,-8.327100758372003,-3.814241156413695,-9.482607010142704,-13.169482096934459,-20.77857703455344,-5.382230232685027,-24.758325482645827,-16.44971645058694,-5.202451063707952,-12.31529653966298,-6.337424747944369
82,-6.866092018782167,-4.869579360012835,-4.028874885786046,-5.969391577504907,-3.330012446394574,-10.253027256380317,-16.46152945682716,-24.695077684955304,-4.840787410484763,-28.680735594410997,-17.493915132983744,-6.2538989805314,-13.92909645767714,-8.53999433272563
83,-4.554424917519555,-2.083892324947332,-4.2390799076232195,-2.8997322605675455,-2.4805735810662073,-9.227294872266388,-17.004902219434452,-24.258558917891303,-3.3875664688061002,-27.28877784512201,-15.36577665183547,-6.311158303836379,-12.912565623117192,-9.345734482293217
84,-1.6460659450282622,0.7008237958596831,-3.686991439854901,0.40416122128487486,-1.362247544916979,-6.536470866050562,-14.381663890224832,-19.04612858880064,-1.316092997554885,-20.50908934203128,-10.314165618039704,-5.31315597837843,-9.221333842316755,-8.301694093782803
85,1.5004416876703164,3.134510376757192,-2.265004022996108,3.4947006636525217,-0.06270580889096453,-2.5809771813672304,-8.749671978278926,-9.619360844707094,0.9702355866071274,-9.368797589310441,-3.1743388962684858,-3.3765174309518504,-3.4093257320722588,-5.347172833410555
86,4.510193195876443,5.014564752686015,-0.08285073770370692,6.0057313695790935,1.3279344734986762,1.9816823771815055,-0.9265422465111652,2.4274546194227695,3.0328041610821344,4.085740981984001,4.7478106674414855,-0.795661477332252,3.4260539789885858,-0.9004483572309195
87,7.017554981712903,6.268613032321656,2.5190137601768248,7.677107311393291,2.6944343123540557,6.304473707739908,7.6724442114347555,14.69285886944054,4.477870763982272,17.134370962560286,11.91355587168444,1.9971382417824366,9.854210730369738,4.185929683535471
88,8.688799423665913,6.895489732995292,5.022947560698266,8.35548285014174,3.877462282933568,9.489743998399748,15.266865753448402,24.455102447638296,5.0293245716379,26.946655652838484,16.866033492084814,4.506748683946541,14.435164964546507,8.801223800813812
89,9.247471198368235,6.894340233229686,6.844674117216756,7.981142688831638,4.673901884004972,10.786501547150618,20.08906207073362,29.322274674117637,4.582012317433354,31.242956572566996,18.55042289016155,6.2695147291355005,16.075308544078172,11.842843247885364
90,8.507995187210348,6.217269407749797,7.474816696371059,6.574235112030163,4.865683852155663,9.799691582895985,20.82836908994039,27.880595664028633,3.2255783637861373,28.885183186649318,16.561197238240506,6.945305285199844,14.317204191392245,12.501960127064024
91,6.418891733055734,4.772793997422616,6.616060636140174,4.232131090371145,4.27539734859611,6.643519745757859,17.023590795322825,20.152496779644217,1.2324715081780933,20.228384252699076,11.252830711148832,6.386275023622172,9.478949466215724,10.488469109201414
92,3.1094739307105925,2.4871048809420273,4.280248155461665,1.1424814823647853,2.834994089224141,1.973904267874825,9.279129571457453,7.709853237054435,-0.9906926264694229,7.115321505076547,3.6826035694597095,4.667790793524783,2.5985647482284695,6.130259639066071
93,-1.0744735957369558,-0.59570162002926,0.8182580911416251,-2.394210233884863,0.6453329196448568,-3.1339443578939576,-0.7852611378724348,-6.625792677467809,-2.98220646003434,-7.512159190337859,-4.605298071737252,2.0765515658190012,-4.806682113906311,0.3160792980086197
94,-5.566053575191459,-4.215188034236219,-3.129192416349456,-5.949085458026808,-1.997426790771012,-7.446654522577339,-10.871007618351397,-19.447230437520247,-4.321196815728322,-20.30402741818765,-11.907164221563436,-0.9396434049714277,-11.103860020226499,-5.705415924571569
95,-9.622688198239212,-7.847439682264344,-6.75327676118742,-8.978308424478062,-4.626145257179489,-9.904860360452131,-18.556943824586135,-27.62811881241876,-4.720928866867196,-28.32371581159718,-16.725250074370194,-3.8493023343566946,-14.934629878257265,-10.618449702495031
96,-12.431247532637016,-10.7488569820411,-9.247412513287706,-10.883353733773047,-6.682008644175696,-9.926179445701909,-21.933371694819588,-29.157874799074065,-4.097750208458733,-29.783662810278045,-18.089448551886544,-6.12762004163861,-15.53002646325234,-13.348752470758201
97,-13.265656978343225,-12.102947249542092,-9.989860538469866,-11.122518167184552,-7.63654730495184,-7.579684251494488,-20.134734684328333,-23.704764852472472,-2.5969549526345213,-24.493914794513906,-15.763523847165366,-7.345724588613598,-12.8709210949314,-13.309779962295176
98,-11.669675752525468,-11.24467927078668,-8.697381004575826,-9.357394002689436,-7.129116438268826,-3.5693271416531687,-13.608343842732431,-12.734106769873689,-0.5654979387561528,-13.898010006221874,-10.290482955402082,-7.246469225734307,-7.659857714655221,-10.52746970330581
99,-7.6206287428806725,-7.90201202342607,-5.51288852276831,-5.597308662374114,-5.083844717681484,0.9748942273843835,-4.026133817024024,0.8680946366363318,1.5257022108519407,-0.68379236271734,-2.867660930407153,-5.796497508228426,-1.1217064285514324,-5.618477670982316
100,-1.6229485572708617,-2.3751003992813207,-1.0026644636035944,-0.2922569488741178,-1.7707152653505152,4.834636922989185,6.150282484199088,13.571646932667425,3.1933588601840297,11.924441781696174,4.9199601375986255,-3.2060425057751147,5.305810296756144,0.36489059658758366
101,5.311700020027519,4.420262449748845,3.942398214002842,5.67227129152043,2.213721588659003,7.061889847497337,14.33549513295225,22.163534468137723,4.06015215404331,20.99724850921755,11.44798146879971,0.0901037140122005,10.307030356621414,6.178199903675836
102,11.817360123128108,11.085703552506686,8.285482644592618,11.104247298230318,6.051478149696518,7.243003446719018,18.527515231133073,24.619657786577623,3.9487991748539466,24.62723563838506,15.403816968216145,3.4934679988512967,12.965335376514906,10.6549284442144
103,16.444532752048083,16.039039172466154,11.0668434553208,14.748292857637207,8.876814800837286,5.584886641324066,17.84949057495749,20.63501239578651,2.92573505375672,22.35822051511209,16.061940413279004,6.341377116676878,12.922323237730074,12.94145044392121
104,17.996326420895276,17.91296944837982,11.622600100018724,15.593978519418584,9.980679947952588,2.8014723081990827,12.765785688288016,11.659612482024428,1.2811767666956706,15.211455127635244,13.422245311295375,8.032916365957195,10.395964560342493,12.650631304718758
105,15.849702158086766,15.947676574175587,9.748387085659926,13.169643127419496,8.995856030014062,-0.15327006515421993,4.909689685058423,0.4340258331990542,-0.5501084149540704,5.321167773666748,8.183242105420756,8.159637214804867,6.0725349707747975,9.911495908680704
106,10.173221543652156,10.260762676912252,5.766542806050815,7.733104394449551,6.013092441904207,-2.408850970665921,-3.421982651225804,-9.832527520072535,-2.1059335484998853,-4.698686223881098,1.5611079216283632,6.612305553234068,0.9155558189715313,5.31704846422268
107,1.9694572361353648,1.9032529690731719,0.47585307158582035,0.289311283213182,1.5925039831165626,-3.4461203850955164,-9.950920620178463,-16.393137711646027,-3.019044394692507,-12.465099120949235,-4.998372024715301,3.6342010245961336,-4.052770640319842,-0.20859569391248622
108,-7.089872987584049,-7.333874589127831,-5.010370188235274,-7.5913865674947285,-3.3406191544814887,-3.222151353435334,-13.067544655737713,-17.72590696603472,-3.110265697366383,-16.412890832267834,-10.144396755223738,-0.20084405968563399,-7.946834069276343,-5.592242135266813
109,-15.014259556194137,-15.327627413630335,-9.505171339992435,-14.123852204558965,-7.696855069890304,-2.11982107231803,-12.25491356062258,-13.907332450558178,-2.426617316475256,-16.10654915816615,-12.90642952807935,-4.091584813637535,-10.155747321682217,-9.80919158904237
110,-19.95535272433946,-20.146095037456362,-12.01466531397844,-17.744379647383646,-10.475360590948071,-0.7539737900824179,-8.166642590290596,-6.498464451751421,-1.215041220173928,-12.216970331243088,-12.877899288651303,-7.178649354870724,-10.411832588758484,-12.065879492272662
111,-20.666695838088906,-20.549145067754473,-11.968868278442587,-17.517666559522198,-11.007115294643794,0.2843623039195889,-2.350058828292696,2.0034523856646014,0.15839001863698923,-6.204765446227075,-10.2638733060422,-8.744482564777508,-8.794874515330424,-11.941990031923746
112,-16.841696379193394,-16.329312861347532,-9.360877497557684,-13.400616248064429,-9.126926749794883,0.6470155990081792,3.2835962183513576,8.964678010613264,1.317981893966427,0.1679787769806349,-5.792194734396929,-8.395047339149572,-5.687186981229931,-9.47119065195568
113,-9.233458484803691,-8.39506270962616,-4.758415441731495,-6.283910316651137,-5.227945999696609,0.33251667816749253,7.065391996105341,12.41280031591849,1.9832211684836678,5.339655056387784,-0.5187169231138765,-6.173441454537708,-1.6955158368333638,-5.144856168628143
114,0.48735466363444696,1.4330557346916855,0.8187808692567242,2.208128528005802,-0.18069616176876938,-0.35520639749198607,8.058967321181846,11.590054540541303,2.038407461197114,8.32207043390852,4.421610158516029,-2.5692968897614628,2.448347717320241,0.16878712413056512
115,10.112561536859259,10.864911522715555,6.1299339241899435,10.111785796653324,4.867328498673584,-0.9660527590706959,6.288522787577258,7.104927755393669,1.5489558444365117,8.857719548222413,8.05881332972695,1.5862066434779833,6.000470153417555,5.384782889399061
116,17.425341415126567,17.70806523494207,9.999578672529847,15.60997835230446,8.764310966085914,-1.1099516582992484,2.649110725691524,0.6558876676552262,0.7236043292325547,7.349941689912339,9.77493204891583,5.318425413263341,8.323515699899847,9.418311144014163
117,20.745221328545526,20.41143073238033,11.59128915786392,17.48153189181884,10.63192167682892,-0.6250377342330086,-1.451822632334975,-5.564922537828244,-0.16158764937642106,4.623269797659499,9.399543069181414,7.751474904423835,8.998986408311294,11.418114466874739
118,19.347341846264584,18.443048765503857,10.602184983097962,15.395161467578193,10.078161760768953,0.35748878094918024,-4.589301764787684,-9.585509751149758,-0.8510126562463407,1.6130194747974345,7.202724348782715,8.330586831429455,7.913999650848514,10.964451813051594
119,13.643646058832054,12.404528192465543,7.3297377028897985,9.972537944556095,7.290316481306089,1.4727524254840678,-5.783672456373912,-10.25600124903234,-1.181258343550473,-0.9117299023747383,3.7975716164150635,6.963546014737036,5.299939744614987,8.179764688293018
120,5.074920460571962,3.8556321471081616,2.5932726016019316,2.6080427459432545,2.9831449341242293,2.2762703990499604,-4.783857899901492,-7.556280170092875,-1.1166658004496133,-2.5158387849184707,-0.017900465482514307,4.041082050411016,1.7040781990476312,3.7158142406023034
121,-4.26037367627883,-5.100207650332796,-2.4711824433042313,-4.901829708157115,-1.785185416805779,2.42669814282285,-2.0914999482361383,-2.5295446049267722,-0.7419859883630975,-3.128396496400918,-3.440565931373246,0.3293780354335193,-2.1118132467383024,-1.389815544092482
122,-12.1430263164972,-12.356177888260346,-6.691576660692023,-10.817197192037854,-5.88199657403859,1.8227947648969245,1.2632957339813475,3.1147238793371668,-0.21967471719452863,-2.9564501928944473,-5.825040361282716,-3.2360970455352547,-5.332193324582862,-5.9594317278644064
123,-16.792694152001808,-16.32407297851283,-9.144912451895967,-13.87939198283344,-8.383520954704665,0.6418263164425713,4.102773239260629,7.581927045259113,0.270381930634003,-2.3366657833245643,-6.798880778342223,-5.798120360023629,-7.273987893709693,-8.963521530487744
124,-17.30095098337712,-16.302605076386328,-9.373869197699369,-13.59292875592397,-8.798344858931646,-0.7316235301136328,5.501694144681016,9.561012362075761,0.5876476047274058,-1.5887074229336056,-6.312167904490067,-6.797654363004082,-7.551464049777966,-9.775711296135235
125,-13.824154312141234,-12.601767271520918,-7.479855810669523,-10.298776003952918,-7.172599890637098,-1.8534294166188474,5.073112977849773,8.600342918739097,0.6671127885418097,-0.9197435963891567,-4.617823823059479,-6.105728145103621,-6.173106913122958,-8.323914983183048
126,-7.490159448484892,-6.401322749606301,-4.07035794398034,-5.031231289977641,-4.051241998090657,-2.382902815664284,3.0540231442768944,5.184452461217899,0.5266988171765827,-0.4003991905854439,-2.192314861946751,-4.0330214431787414,-3.5392823592500373,-5.094294065498488
127,-0.05318206128243408,0.6063144817998136,-0.07794665526537499,0.7916207517739327,-0.30979840639282424,-2.1974984854827624,0.1784957148150022,0.5093149890906052,0.24800897501530092,-0.0016605525942329589,0.38314170047406776,-1.2189968166850356,-0.336603023851897,-0.9861649654508962
