,AF3,F7,F3,FC5,T7,P7,O1,O2,P8,T8,FC6,F4,F8,AF4
0,-0.0059055451924731476,0.17587020619318378,-0.09477732659315909,-0.09389788100612341,-0.20160612805578104,-0.5744005622389293,-0.9292015152274794,-1.3951741798549393,0.02307235656534874,-0.767529977086241,-0.5841330954181004,0.019755555587713636,-0.07900366790991502,-0.2964016514990816
1,4.492572131399563,4.7868147569669,2.7548862576383053,2.9072887000253202,4.0752363994670695,0.12528225193575426,0.5616257717170235,1.8649952220298982,1.8554949249398345,6.462205617637227,2.0450607786758175,6.388410853263679,6.086528814410623,7.073188651427541
2,7.821703484588861,8.271297447593808,4.688418852051263,5.248142923556507,7.357997992609723,0.8778418263925691,1.5978112552840988,4.064580572477138,3.2197357760483394,11.927636539302897,4.034991151723699,10.877424695713874,10.41135391220925,12.314025171952203
3,9.09147153328488,9.816211287384405,5.015852350612088,6.384079026483064,8.84494662544379,1.4978687212219315,1.6703395082681831,4.082627384224013,3.738644469344766,14.049838476836285,4.690772848075347,12.080554468992586,11.51622223521193,13.795406311011297
4,7.976464076532069,9.09269142094552,3.580395210490671,6.070307375737393,8.212570623919486,1.8378608817976643,0.6856944093854238,1.6717414449278076,3.27929386744834,12.253135477083706,3.761342330946373,9.599805295568169,9.044459231359678,11.063191606065399
5,4.803777638303823,6.327378270245042,0.8187912979499542,4.415257473571238,5.6888414600827515,1.833025477677454,-0.9827110920363766,-2.4025546081786793,1.9901021210919705,7.139737954592385,1.5325171966786013,4.177318271125398,3.778827046892235,4.983237314603071
6,0.4558532510909887,2.230113668950941,-2.374570425907618,1.8419886864273067,1.9717888778557913,1.514075359244495,-2.625033776802285,-6.59701668758973,0.2511085996212089,0.29343559142970077,-1.2605610178644853,-2.531083802228212,-2.6127993351165912,-2.5376258837898162
7,-3.883750276626453,-2.1997330600053067,-4.9378448739747105,-1.029720515535886,-1.978539085236,0.9849037487258978,-3.4637540188855844,-9.130779546185115,-1.4457318996273008,-6.226117654889946,-3.675804752157695,-8.471667926756904,-8.119106797548975,-9.162635699293206
8,-7.067425162668544,-5.933793649136285,-5.992708399464495,-3.546500076014562,-5.20999840135393,0.3759499442860912,-2.9646547559547725,-8.649922776488012,-2.6470593432334044,-10.535805612060859,-4.882660888392515,-11.83561014748478,-11.03543182600469,-12.869679578633482
9,-8.304579129446035,-8.170626621981437,-5.140837244584697,-5.184074717144904,-7.029405657789658,-0.20645470552679165,-1.0748751389274955,-4.783596467965634,-3.071060904742943,-11.516496472732351,-4.450151220456426,-11.624529903379067,-10.508197341104117,-12.588006532397719
10,-7.372590545164167,-8.518809517961422,-2.60638183017981,-5.665427745266338,-7.163134960476365,-0.7132042011726153,1.705355853973869,1.6150271189253074,-2.681301907019495,-9.14417957194589,-2.505264132822312,-7.957873765501322,-6.795942661264603,-8.52194675169615
11,-4.656762204369856,-7.061472839120333,0.826006090626858,-5.00461997538625,-5.7864568556987575,-1.1539574302405944,4.454536550351516,8.650418940654998,-1.680149177498733,-4.4572882755663565,0.29641090313661667,-2.0235966915555017,-1.1643406515354002,-2.0599239406408345
12,-1.0104652821796738,-4.291805719102195,4.061037865289921,-3.4692323440175055,-3.422958242832347,-1.5665217418086195,6.130614935601789,13.954665460415244,-0.42731543836600216,0.8267317926599241,2.9837782145170784,4.311271439079422,4.5455843633721384,4.696679848101225
13,2.5181320797407545,-0.9465682476622488,6.050841390475724,-1.4788724496130865,-0.7551945835238234,-1.967741144961341,5.9431710467476115,15.473821892329779,0.6865986794840616,4.9149139783737095,4.600074648632411,9.102954846084915,8.529154593509192,9.626162776242685
14,5.00534888193165,2.207052539876102,6.143466136489756,0.5243122431539398,1.5874070824778268,-2.3089608146380614,3.6683500878232054,12.212722374203967,1.3678546661975233,6.556478763035016,4.539943501437316,10.949413364440893,9.60501164757433,11.271027709835264
15,5.916500186509724,4.565621151492535,4.304737387248811,2.190679375893903,3.194977351143899,-2.459747586368404,-0.20964085444730762,4.6781413049844645,1.5060140409836191,5.462506356739838,2.77737890665618,9.423399899238182,7.5836750526010945,9.290140640153824
16,5.233983773662724,5.80990282892589,1.1365778497992296,3.3290447234212754,3.9496389850020535,-2.2344917027637314,-4.592900396911164,-5.1530253263988595,1.1918648673724648,2.3813508301623,-0.0992094243920898,5.18061145122834,3.2993458347471782,4.533810105094482
17,3.413223056945714,5.924904539616232,-2.31783520512138,3.908370062605722,3.9907608542393844,-1.4604413098145044,-8.084431687240736,-14.36315243621753,0.6638948433507853,-1.1987991934053563,-3.065903635785306,-0.28791007995306167,-1.6994367104503296,-1.2760643542164825
18,1.188471292565419,5.128229508851568,-4.919657242953355,4.004302056465148,3.5976570269618526,-0.06795990469812202,-9.430864284705239,-19.97674787452335,0.20510731404676324,-3.6187258785419356,-5.004585428694366,-5.171260642915001,-5.690628197563691,-6.14704111626078
19,-0.6994941681004044,3.745591164119474,-5.816004387480707,3.719841658608292,3.041712157332582,1.8293035166791687,-7.952478325114637,-19.925690449655605,0.02874978520513815,-3.6890092892347175,-5.096697046477036,-7.945626128310159,-7.365420780066851,-8.492411346436707
20,-1.7568077552562555,2.0864632549468483,-4.728831511436107,3.117766183757342,2.4674896987020483,3.899725785146002,-3.8162794004525145,-13.7831411220425,0.19467362940431338,-1.172869232615384,-3.1359167550426417,-7.867970748162161,-6.262596407116749,-7.654521612811994
21,-1.8831483052254114,0.366273792132444,-2.0519963483945807,2.1956213922848726,1.847990690183049,5.630425836660052,1.9475706211263817,-3.012193051848172,0.5866180838462518,3.069736120556283,0.3530180935327346,-5.192990173327363,-2.906247267651038,-4.101679181108969
22,-1.3636465120724934,-1.3024605026920548,1.2785215445914944,0.9147019253420379,1.0286262218531566,6.440695181022368,7.706415649376561,9.378257622358174,0.9587742432651957,7.343103850339745,4.2419955203262925,-1.0460934717594486,1.3955193641629153,0.7623713279757253
23,-0.7149477387909935,-2.8591042161461853,4.099499022073043,-0.7299963848168538,-0.16084034817410012,5.851079382821046,11.694448601218575,19.690042958051553,1.0351719816743423,9.706565314635778,7.145425728579285,2.996949221976561,5.018375811037096,5.105745333022635
24,-0.4475449396511451,-4.219093578851808,5.415390447855434,-2.6316696322827418,-1.7741461294878245,3.6630516837441793,12.552523852546395,24.655184967953062,0.6262946080535844,8.699333878829794,7.880532672435978,5.473941892515597,6.594283973422126,7.315544377043206
25,-0.8369232238921862,-5.21866323605425,4.74018891342638,-4.5253608393676625,-3.652934290999736,0.09121039264038538,9.772407318761209,22.47429339874905,-0.27958948114766335,3.9470516859531726,5.893652991503269,5.547236905561054,5.492900632141814,6.562454537645589
26,-1.7925500322255659,-5.6157312096307175,2.2701014624678915,-6.004340557853498,-5.4123336929678425,-4.205798815282429,3.903295424733684,13.44276410121693,-1.485206154955078,-3.5735255209008367,1.5067938554743507,3.2861197648924327,2.048081526608692,3.0905336353690496
27,-2.877382655651369,-5.1570024556853795,-1.172723627118998,-6.607872277578374,-6.523489427619937,-8.226385815874801,-3.5526785441677093,-0.04739336187471254,-2.628230045465234,-11.728013839890776,-4.110152281814469,-0.3742230263366984,-2.5475282176587277,-1.8654423841478307
28,-3.4743109615215793,-3.6903425575413413,-4.408472914982066,-5.961146541205464,-6.473408753773851,-10.852604745462637,-10.536171902100417,-14.152652438052685,-3.2901194029722065,-17.84059622128858,-9.251054710449393,-3.9794228756415397,-6.644692222745394,-6.505874125831781
29,-3.0400656349913184,-1.2776666326001367,-6.2918223224747685,-3.924760652429741,-4.952700290677637,-11.154144856179329,-15.00898675125008,-24.690933772203913,-3.1368585623064047,-19.55107330466422,-12.185790519005915,-6.084996033350947,-8.701517551124919,-9.090077949098667
30,-1.3519670133986545,1.743071125937871,-6.098082844707371,-0.7009563557483505,-2.007774735262501,-8.68880695768898,-15.54895866975804,-28.393213286124208,-2.046062632961986,-15.639385249281693,-11.71922668378596,-5.781852314877305,-7.819570397006964,-8.54575475250569
31,1.348342369346336,4.784296789109829,-3.7749948618453066,3.1485846768529444,1.8992320471627602,-3.7065518783626565,-11.786706005060465,-23.913964534906192,-0.17672709147583934,-6.540184202152772,-7.618738745846752,-3.0340786511007534,-4.071463941296154,-4.85686245974876
32,4.376158125387779,7.131120358012229,0.024024834971206346,6.794574205383972,5.953862143919668,2.819836896330315,-4.552695759314614,-12.287040788115375,2.0460106167689007,5.641967643788649,-0.7642749131736608,1.2898869105060262,1.4917845756792438,0.903092785607163
33,6.794341857451076,8.131483098282828,4.137547085359104,9.32916962983931,9.170085622459931,9.371582405678001,4.314689954675495,3.3221111643810977,4.032991985971789,17.652021688182984,7.04382252621118,5.705297038802835,7.159312219785926,6.906550833587587
34,7.716385976550377,7.398013881227687,7.261485928509448,10.006938452105718,10.645228414574278,14.242703207200318,12.452162697624297,18.504813392048934,5.194297440656581,26.001868857651864,13.577722377105019,8.620309507783757,11.102828096764139,11.166905885711603
35,6.621601824413045,4.955279739884789,8.364428801131421,8.470832680809636,9.819881621760693,15.995879111081644,17.61374323287136,28.88014017854623,5.116971330576027,28.015248505619766,16.836118386464793,8.891419725555416,11.966961899295402,12.196654694566574
36,3.572357982889971,1.2782864304184183,7.019368003391237,4.893676925588039,6.666939609276252,13.890691011256305,18.293875344884977,31.37316200398586,3.7031542645071385,22.67833326009166,15.66207332544466,6.233460488677356,9.315698194958742,9.510384061947082
37,-0.7485096043649463,-2.800516684782144,3.5457393025836748,-0.015586255028813296,1.7493840103898348,8.154436080184148,14.157321969345924,25.121306463593637,1.223654001749031,11.024296827204836,10.130641436198811,1.3417630406974463,3.789883394708541,3.8047115848992603
38,-5.204467489807954,-6.297560509068078,-1.0829559896347762,-5.155667960450203,-3.8795509581995895,0.0008236824210073305,6.154955835607639,11.740478825387228,-1.7344900435168302,-4.082017830649224,1.5776376044646228,-4.317731010710539,-3.075449253613045,-3.24665665022491
39,-8.532516892985251,-8.342388761802534,-5.53565742334985,-9.297995459294512,-8.916699501770657,-8.630091171893458,-3.7087419406468523,-5.126429081419562,-4.416558927339756,-18.710065172540833,-7.750536812468501,-8.98129291527289,-9.31550338004012,-9.517931461052891
40,-9.731298298140004,-8.423101204881588,-8.529717947378604,-11.406090062787209,-12.13181582752122,-15.555299340730336,-12.8951583625952,-20.843474897415593,-6.105190619455338,-28.960156144133695,-15.32827364231368,-11.164528234171962,-13.133674642835825,-13.106050710874172
41,-8.38591519943934,-6.538408744375584,-9.21832926228651,-10.921363252982092,-12.688712837850206,-18.9292624482373,-18.998846572080158,-31.093181876254736,-6.323463023804204,-32.06659079316015,-19.076259737643554,-10.149999187718324,-13.443803163672024,-12.935630672068022
42,-4.821108721958682,-3.207217161109596,-7.439090937917238,-7.9314253642248405,-10.376841960747731,-17.758869596702926,-20.384156073900076,-33.084070102925374,-4.9759991678175854,-27.179511196792422,-17.962377303903146,-6.222409558152897,-10.187770885902532,-9.097279658657149
43,-0.026380562549914523,0.6717989880907884,-3.7489019754387107,-3.16634251269245,-5.686506234979505,-12.202246464078263,-16.62166307965806,-26.309826521323558,-2.384790025569366,-15.59520577532042,-12.296160480933771,-0.5741750163686103,-4.333448736546536,-2.809985001426304
44,4.631300218524282,4.073080710465621,0.7615180030845445,2.1843011825051835,0.2984236147453048,-3.558892894557449,-8.608802628289885,-12.652932571970416,0.7931647992971768,-0.3724352904690541,-3.629004309227111,5.084863958270567,2.4392430673854286,3.978596071834111
45,7.8223264689642225,6.1370154675648285,4.811239081417834,6.788342661939736,6.1668537356668764,6.053604415363345,1.6569436058615583,4.1805623733077155,3.744259403102312,14.542836966000506,5.706365647829788,9.081496066497305,8.258466739842788,9.221908641066094
46,8.667857969602425,6.416116165574263,7.320405746347219,9.534955967873174,10.53765600664809,14.250175462224814,11.592324858846572,19.716642189396904,5.721663884486888,25.418047517678172,13.273649710976587,10.311951863291833,11.619254094584331,11.427725726127136
47,7.018824868421181,4.999480133657011,7.725889665119511,9.84046570843311,12.412391882611903,19.003908869420176,18.69472269082371,29.947159397866884,6.248877280059065,29.734521550277563,17.220448603713862,8.577962856789071,11.80651698662333,10.12152993374864
48,3.5063199639379943,2.4750430698009116,6.1240998809046365,7.8037906193150395,11.42731491548308,19.173089492992535,21.185787883911555,32.39099923641905,5.244502980987245,26.803804873128595,16.76965273062402,4.618413954836765,9.056603395638238,5.9700133057344535
49,-0.6599375072271524,-0.2625282650333418,3.200354410733875,4.161200071132732,7.934930344244759,14.785538939403882,18.463998329959733,26.6951587056868,3.0330682719438284,17.84152611053162,12.374846797747336,-0.16815005265573385,4.418951969633976,0.5271604278953065
50,-4.086747047162526,-2.302209662734834,-0.02656944427935184,0.05018258868778175,2.892736302617011,7.007030905543792,11.248871094529832,14.63112476348964,0.24103652644619109,5.508423051444076,5.507893421725768,-4.21155163523787,-0.6239509933060667,-4.309665166455997
51,-5.661548600794235,-3.0157841987974447,-2.556374101599639,-3.3473419276300618,-2.408346144109036,-2.1892339915491323,1.3816681528647765,-0.48109259288144235,-2.3886472721608634,-6.915274126226396,-1.838244346392521,-6.30062267110322,-4.645367752943802,-6.949894982205525
52,-4.932640899285203,-2.2692850045142645,-3.7365906638930957,-5.171162229891601,-6.697188497985818,-10.552684928363352,-8.661314135571603,-14.730706220962194,-4.206692929214734,-16.458379044328403,-7.763646281772315,-5.97630040714248,-6.7096046791630695,-6.646860798896966
53,-2.274078257452333,-0.47369634718050385,-3.458951939458367,-5.140235251470788,-9.055486167118476,-16.134646402811054,-16.411050564518547,-24.670310546645812,-4.829925138582999,-21.2148299086288,-10.99662640067264,-3.6557324408266445,-6.615968912776067,-3.7400396302408234
54,1.229299218834904,1.5493527617960448,-2.1582069472252456,-3.615591123302235,-9.136156275722655,-17.760311017757402,-20.032285344843693,-28.17322815868769,-4.227371248001964,-20.72469993411253,-11.189823913539188,-0.4489865136997197,-4.882319324439295,0.48044182882316666
55,4.1489844280048915,2.8511549432677548,-0.6168532686704742,-1.4453602291820002,-7.2086606551099575,-15.274827290097805,-18.770106151480597,-24.87652531195482,-2.699413429648571,-15.906775329507347,-8.902762308982366,2.26433181165346,-2.488538153541773,4.242130224904265
56,5.21669396811198,2.700690297634047,0.35321390905575006,0.35809269129639104,-4.0263718894771605,-9.513479104546187,-13.104249103746039,-16.123804426475107,-0.7627800321505707,-8.61097614608435,-5.302110876296985,3.3488683898026443,-0.4801281017970068,5.932534905094017
57,3.7968509335475766,0.8759541421463156,0.23733185450884775,0.9995520069028476,-0.5653326061815968,-2.023756030688376,-4.580142552255528,-4.467301501601459,1.017978705908415,-0.9675919545859296,-1.7008977894676605,2.3370566185043997,0.42399622539219445,4.695119570066946
58,0.16155476339703678,-2.2027319653570956,-0.9663237157070264,0.20733918229229778,2.2786245791449264,5.368427235556718,4.6265626021346105,7.095040630738949,2.198039905138001,5.245842647455064,0.8968499043186092,-0.38724545203174454,0.08164957017680285,0.7713201649174721
59,-4.538879536697967,-5.555895994155882,-2.7242216230923613,-1.6474624598236447,3.9384263949107035,11.02221682725112,12.285865947945513,15.916057506703433,2.568276611234447,9.02914927091644,2.0922799925893,-3.7121848202047207,-1.0491864841416954,-4.535847117577363
60,-8.617711932936157,-7.933701907578145,-4.153004563620764,-3.6694337725617023,4.296223738152381,13.852723474512397,16.671665949244773,20.31316177225058,2.1884980501965625,10.272901390417124,2.138917496837774,-6.189635596497639,-2.1168766546250084,-9.27435970628673
61,-10.40680492906473,-8.228551287279435,-4.353521981868904,-4.762964107403615,3.6476068201834178,13.524347846818374,16.95758535726015,19.858100134575473,1.3348046937813058,9.570906371325439,1.7426951668850397,-6.562969848528949,-2.2344910242095453,-11.501724416987168
62,-8.847084630626657,-5.881114101708881,-2.77767854884698,-4.054983431411512,2.5345986107524023,10.438492841993057,13.358093115448458,15.307767928472522,0.3850262701349386,7.840443999626752,1.7035973715419326,-4.249402546842999,-0.8584583848600231,-9.972874213377285
63,-3.9146118064818842,-1.1413286636286073,0.5050639551823508,-1.2680933990942531,1.514998393124835,5.545868830051594,6.997199977529806,8.244464577317896,-0.316126585612685,5.910907671224305,2.5403732899605966,0.39260858916110775,1.951459057160514,-4.625495368777863
64,3.2725645787327764,4.915909551384705,4.7458501799508195,3.094763508302361,0.9532513095800499,0.0560919808628918,-0.43917285154111557,0.5641631147994836,-0.5674090946894711,4.233134116740088,4.240936875465898,6.110849671409092,5.488926884688257,3.3074060195930106
65,10.721863554741345,10.645929841522205,8.696623678961023,7.834036585345157,0.905380037686588,-4.866485994734602,-7.158887319884667,-6.027831739858401,-0.36347601456681383,2.8006905377835905,6.231707595120124,11.11738569201651,8.597514202521324,11.60866276857811
66,16.14025847538962,14.297598149980976,10.98649527144119,11.39554355321027,1.1330491471564577,-8.343102019637321,-11.701358905662133,-10.38227328722428,0.12279879833831768,1.2861337100278765,7.577754270889094,13.648461445151538,10.046366435638737,17.7249043999463
67,17.64243022940032,14.549267919447331,10.577358341291491,12.369553742993139,1.2335815293730523,-9.910910435742803,-13.249599342953758,-12.061856338064189,0.6168289801473298,-0.6868819960363143,7.341427758398249,12.547957743399794,8.961160812595345,19.553068481225246
68,14.369594901629974,10.950161612670252,7.1480968117157895,9.985821862528221,0.8312177111755583,-9.535946777145588,-11.753605904319725,-11.28796282981794,0.8482943256787697,-3.2615991192750147,4.9697452639037145,7.684466848439667,5.164712092859284,16.11908145032317
69,6.817410080260227,4.121956429862149,1.2733477868058578,4.436420097207033,-0.24530127055513032,-7.534131401862767,-7.857890009812217,-8.736690282319822,0.649915149670961,-6.178799244793246,0.5696082637478642,0.06243046052805604,-0.6911245026742731,7.933159166726232
70,-3.2401170318916184,-4.354179253718869,-5.674423298208083,-3.0916298861151428,-1.8661846345278963,-4.443330047445761,-2.675674877349121,-5.27255993143379,0.01720960286247925,-8.792952732151683,-5.032079412493584,-8.416334891995161,-7.253662539801766,-3.0941944446319045
71,-13.21718740356619,-12.342812290451151,-11.88201204709538,-10.700268424154016,-3.620873257981432,-0.889572696645872,2.5164846061100286,-1.7062052705785848,-0.8880670605107607,-10.271284298713622,-10.47328052970451,-15.47428986503773,-12.82510077604708,-14.155498054928414
72,-20.436592980063335,-17.73730165242422,-15.608938993138487,-16.304255081414095,-4.9476346450219175,2.522714993911964,6.582322160316534,1.3650951690445945,-1.7892894176398568,-9.900884187881195,-14.23407451639734,-19.10770878123933,-15.839992983466333,-22.32047345734529
73,-22.887941318628386,-19.049267694812112,-15.701368145606356,-18.23853917133915,-5.325813206434388,5.285087292827124,8.759912795007793,3.6143455980489394,-2.382711365692245,-7.38648866511955,-15.08961285191075,-18.16921014336582,-15.32013849958373,-25.352065087375195
74,-19.79739233063868,-15.829876302940052,-11.947511341819064,-15.762712955576555,-4.4627953439867785,7.028102866247661,8.785122084147568,4.955481888121318,-2.433181880017498,-3.0236103838604387,-12.497051335696941,-12.709682041297064,-11.170176568285578,-22.32645564382892
75,-11.843168747145326,-8.799688104144812,-5.163678641918923,-9.305934997626988,-2.4109615837954634,7.544193798076584,6.893861214487456,5.465670945819634,-1.8487282943933376,2.3235537003239544,-6.7955405130350215,-3.9801661428945576,-4.227111800958486,-13.8825126574421
76,-0.9613230289960756,0.34746307451515274,3.0165335205945962,-0.375390067701308,0.4247630077280276,6.799839996666823,3.7188114668201204,5.300502102614954,-0.7128536669947911,7.439805389024332,0.8433091178331418,5.903103980237276,3.9480452890633075,-2.039174699013056
77,10.190480229447742,9.403884169806627,10.58625417957851,8.84531619667741,3.3906240201865208,4.9392894116835535,0.11405324327606745,4.631435482578844,0.7332216740975002,11.102798644969768,8.701059336342613,14.528593794519306,11.472702213830614,10.354402723272218
78,18.946166096749963,16.233002556420253,15.709211327743693,16.08782346307827,5.764638041689374,2.2746051614640255,-3.0504547060179936,3.6158266911777144,2.151732272301126,12.439240603403048,14.951308677529212,19.827388022485163,16.622124884764172,20.37004808359376
79,23.313928800946627,19.31167002103153,17.20348947689487,19.60619444519247,6.956736509585209,-0.7463944496419338,-5.082001655102539,2.392692184929067,3.1949934861412976,11.17581065117418,18.126789885242733,20.599095778140043,18.252691711430597,25.73975234776719
80,22.442722022351877,18.08275351373442,14.828555127074623,18.625410179442493,6.667949655285658,-3.599783804724977,-5.608786166369466,1.0885901724939913,3.593966313404995,7.704341045245494,17.48596124194842,16.78579283777846,16.059008385363594,25.385893623884495
81,16.761764469835647,13.034357555819337,9.302980494559156,13.510006104189292,4.9641198759512735,-5.770154165282599,-4.647249119773128,-0.18063318836730302,3.226186308575076,2.9448869931342885,13.183821535117488,9.432597338497448,10.607848773865165,19.61647679578678
82,7.783112071516902,5.50534928617102,2.063126757977747,5.618586826626517,2.247959046210352,-6.847576841574256,-2.580365367314689,-1.3178298358629326,2.146895940403931,-1.941820447361554,6.210167398872093,0.3649209971952564,3.156625794783823,9.959922469866987
83,-2.348634126254659,-2.7067931748208536,-5.1521508344389835,-3.0976849896820973,-0.8561214920471365,-6.616323063187689,-0.051338259131989576,-2.257680263084741,0.5769342779572089,-5.893216060684541,-1.8766484550109581,-8.31108793720265,-4.679191156790477,-1.287275280192168
84,-11.415666139605836,-9.812895558949368,-10.76166836642355,-10.625217964949485,-3.666658544131406,-5.112264890101983,2.204685123378532,-2.9744096154956656,-1.1486188756670108,-8.223943665202746,-9.340149539664537,-14.738354188686014,-11.31220270657446,-11.657733855931072
85,-17.639790368155914,-14.444448883093573,-13.715957266170077,-15.39243375049733,-5.61155639862863,-2.630421748447682,3.5525944544719645,-3.474842738992418,-2.658177347229489,-8.760928919496575,-14.673839274509636,-17.727528237386167,-15.522687083453711,-19.090193934444397
86,-20.026576494510792,-15.913267087212455,-13.691557856460172,-16.614427264512045,-6.353116308345052,0.3250501540229634,3.626079481707295,-3.7752485531311892,-3.6292369609901427,-7.80459088856141,-16.92485296886542,-16.967618248947176,-16.67656894906503,-22.345886974449552
87,-18.48086003596445,-14.274704901283268,-11.073384348555944,-14.400829936900399,-5.844206804946985,3.1418332649681857,2.4286142320074604,-3.870324655657139,-3.8617458485359917,-5.947321625833606,-15.86153923212008,-12.998448861739224,-14.788120046876898,-21.182759725116657
88,-13.701949471986032,-10.208852201361424,-6.757191366455116,-9.623303996639246,-4.308950208856979,5.231027724295913,0.33681208013439573,-3.7095320881504295,-3.321985686175173,-3.826222124126104,-11.958963371452109,-6.981646102208548,-10.43740113133927,-16.278472283089535
89,-6.920812185970006,-4.778520890771579,-1.8512398907250498,-3.6056897659018072,-2.161001309471198,6.159617933449204,-1.9991138832616546,-3.1960564624039263,-2.146445954708964,-1.9026975909789454,-6.223569812173961,-0.35461629662305716,-4.58550066162313,-8.957292481453093
90,0.4312338900556453,0.8565916989162813,2.6259780521642635,2.2588657017762883,0.11366645824722421,5.751873834852604,-3.8347841228371866,-2.2163276572060155,-0.6047329973627459,-0.3436348407560171,0.08482062623474403,5.530007774379536,1.6541280214668759,-0.8161445903095628
91,7.034080034813146,5.694323633380523,5.9681558436751025,6.852200581706213,2.076882567512597,4.133516606168522,-4.544199248864744,-0.695897906624615,0.9690590188332312,0.9636760773715077,5.756512141771195,9.68889433874799,7.2327879002206465,6.645442424947039
92,11.905525405290161,9.060175445828232,7.87567544194257,9.549897277935928,3.431291207636345,1.7052286333984596,-3.8068391708161333,1.3348038606954593,2.258497755727688,2.2812387038622433,9.885119100574027,11.659345148695476,11.332346950632392,12.305165995892333
93,14.511911839086206,10.67087177720322,8.418754445010853,10.273317814226075,4.0655226338298,-0.9509658673400101,-1.7152743235746837,3.688962061415778,3.0383280123859997,3.833438158052092,12.014016137013973,11.502437469872516,13.46061958350286,15.558163775890181
94,14.765154670071825,10.598462306355941,7.904869100825734,9.385415939614973,4.044344429714359,-3.2117388056196288,1.230398554079046,6.0100251395143225,3.2192999400036926,5.6394954528868055,12.151348470530253,9.681645438736343,13.475821629757172,16.3113957014586
95,12.934118148418987,9.163798513598664,6.709046381604748,7.483613828534715,3.551445992355554,-4.565163681079939,4.244092606155526,7.811826584289849,2.852628143518133,7.431153273659893,10.665105701619625,6.867165660431024,11.552232949070678,14.863953962698648
96,9.511835452134594,6.799591008510416,5.128173112182925,5.166284176241016,2.805366510223698,-4.7372593632260145,6.461264498018226,8.572645415724907,2.0949058735640014,8.689455650862454,8.101813777687026,3.726904735149278,8.105454226853274,11.72956498480878
97,5.081472139589827,3.9243213722085146,3.304713911926434,2.848772818746181,1.9767598670572482,-3.7585557133601024,7.1772989844632376,7.866737402296037,1.1470548544607846,8.792760566458739,4.992194738401168,0.7605388326151019,3.697391973735752,7.464501143796054
98,0.21513112759911115,0.8604307707784847,1.2378430910738578,0.6826190394867133,1.1351649644373392,-1.9514845978926005,6.051469771573658,5.502670212313648,0.1894507405959953,7.230795759139288,1.7087583032861795,-1.7836036771712793,-1.0595897537664862,2.5534976497473076
99,-4.576416350747212,-2.184800271735657,-1.1303750006546307,-1.4049246513477247,0.24470262910452328,0.1597357127399686,3.219251087399702,1.6305231812145033,-0.6636805428331347,3.817793209849964,-1.578214528205446,-3.8935990756444068,-5.582394851012597,-2.6184735283219727
100,-8.84452781866037,-5.077099470132734,-3.7911856310707375,-3.574303129349159,-0.7879797921802484,1.993526871247631,-0.7201512637608701,-3.2178201618866202,-1.3750657790464487,-1.163405084267191,-4.834850853418109,-5.693367744067085,-9.368955395288785,-7.71322314779782
101,-12.173953319574357,-7.674092369528122,-6.558502572796969,-5.896074968013591,-2.029507207166858,3.0705740622597038,-4.840756474848944,-8.179086514038326,-1.9586799276440725,-6.9363570566929225,-8.018539393160129,-7.294459724145387,-12.018842104850414,-12.341456423002105
102,-14.15663645367238,-9.743916744486562,-9.020262263799314,-8.20415315085002,-3.4315663401476404,3.1442382886816875,-8.117461151706356,-12.203579449743616,-2.43096775562523,-12.344314627333931,-10.919028498778781,-8.655335422076774,-13.230821347243465,-15.977469293359972
103,-14.40107431528205,-10.927708650721849,-10.583266791394513,-10.044746073186486,-4.777595038524157,2.2647278051046205,-9.6861325050426,-14.274408306344107,-2.7629394174497057,-16.085515039718747,-13.065469272173365,-9.505966326539696,-12.795700002943388,-17.946345195640458
104,-12.597679479862634,-10.779987864121852,-10.613993978829258,-10.756644001796795,-5.696088819577803,0.7583352089696375,-9.068932512663489,-13.657715620719964,-2.858319925159533,-17.022258619575965,-13.763499121053547,-9.379789947174826,-10.606628175809597,-17.523203816880173
105,-8.636478039771971,-8.895152629971866,-8.644454059259436,-9.674124381633732,-5.7514278773903635,-0.872759204789445,-6.306396995030787,-10.124895921365336,-2.5735353946451416,-14.49356465490763,-12.282166799055135,-7.76179789442855,-6.702038754984589,-14.143840421064233
106,-2.7447955575001504,-5.092941048308909,-4.584005104750563,-6.3970326922598515,-4.594223550208293,-2.101566265772257,-1.9616601711292185,-4.084803191857814,-1.7781249842387867,-8.553462455977153,-8.149976387351499,-4.31845440661,-1.3382615920314487,-7.67682622578202
107,4.410127964388568,0.3974324747447891,1.1352380094923245,-1.0388501397236276,-2.1258500581514586,-2.5345855083272997,3.0052327938815653,3.4229462020982004,-0.43544126512534964,-0.06581303686468838,-1.463635333846354,0.864278270377864,4.934955084404067,1.334464210776134
108,11.714604480845752,6.831871735384087,7.543424708910248,5.6439747491505035,1.3831912969045004,-2.031020813232157,7.462248703536837,10.893636736717811,1.3292515102139106,9.387942240269485,6.914927344689542,7.1286679140576386,11.241917074610795,11.567599375234222
109,17.74158277570869,12.992608464653456,13.281512004728627,12.313109305898683,5.276311371252416,-0.747376237597232,10.374232539824526,16.662668328996023,3.207066014498399,17.792306159265657,15.382151775059725,13.261447956963474,16.44045609577037,21.04084525344548
110,21.02712766702177,17.40550825545121,16.899221492152716,17.31769683970661,8.623840502148218,0.9068819642620045,11.049942896318354,19.290200500868263,4.751165649940108,23.129700079209265,21.885210181458778,17.71648424399397,19.30243352677432,27.483506561555533
111,20.44218744379603,18.70441359609618,17.237701908851427,19.121524390565927,10.452812525353226,2.391158496384044,9.307434435480578,17.934871546997275,5.48767519973564,23.873255663787408,24.44097902864361,19.013402523984507,18.80303252441472,28.899496052612527
112,15.564550629731578,16.05311274267242,13.79435653110485,16.77599575036678,10.036531141734205,3.1985711987535037,5.518480017166311,12.617090612885532,5.063863687887119,19.422347811181833,21.748729631463412,16.21107333795495,14.456042032778276,24.184640621742513
113,6.932357460646963,9.495745249199945,6.956669163718613,10.294126097738582,7.156709239573712,3.015543985810972,0.5223743607149832,4.290182535082605,3.386723819091811,10.358412320964602,13.706162073783215,9.30809155766651,6.591863776568118,13.608610158963042
114,-3.9262085854543787,0.10570028694284209,-1.9840887589912377,0.7917893037545551,2.2471071633079105,1.827621495538619,-4.569240864117632,-5.319184579721477,0.7010816515482322,-1.5724638979499936,1.640139727686365,-0.5790146163556122,-3.5355479352808885,-1.0203054586673002
115,-14.740133261577773,-10.15179119302481,-11.072732004452812,-9.68071027686775,-3.6450866236129564,-0.06300404245203627,-8.6295053416825,-14.080828872468791,-2.4294355689269804,-13.782600038303531,-11.867950350666744,-11.357353892669781,-13.895247504787822,-16.617272185993624
116,-22.992923462041404,-18.84609368917446,-18.143757475110476,-18.604301064397255,-9.091165113321734,-2.1175502566269326,-10.774673610380573,-19.961182106773286,-5.246037755716987,-23.42244908433145,-23.56266165293958,-20.422489775624356,-22.091292276689746,-29.497401935024367
117,-26.559082451478986,-23.70407498371656,-21.379288793054513,-23.645636562444277,-12.654486655671903,-3.7178537625705568,-10.563561804884902,-21.53105344424185,-6.995285044367285,-28.087652738811585,-30.36664032045072,-25.341661800840434,-25.961633080189614,-36.31724331456045
118,-24.308333897922722,-23.26019679921938,-19.8190384241083,-23.32065376923941,-13.302240618308842,-4.354944654115169,-8.092435552299378,-18.3465547199378,-7.149625761314568,-26.47037993428107,-30.266260734144925,-24.564817747779234,-24.205778290340625,-35.02588582484705
119,-16.49377662324146,-17.33548742263003,-13.670147025580349,-17.467046488964243,-10.729812705443878,-3.790802944126762,-3.9643321992655247,-11.094092297108054,-5.5789801513935755,-18.766551868393464,-22.95828600432234,-17.942601425773333,-16.846414746849476,-25.536309684619862
120,-4.786095229752605,-7.1813226799952306,-4.31225986300996,-7.36789094427292,-5.49014719915731,-2.140874814179027,0.8588663374842715,-1.4486432534894056,-2.614891348881738,-6.702572636325153,-10.038863601849195,-6.871948709173291,-5.356815539263541,-9.885987933696372
121,8.0883180931109,4.7838950242889124,6.022965367786227,4.5345761728944245,1.1244021226674603,0.15170420722163047,5.285887318927162,8.328815458086222,1.0201703918387073,6.854652556611108,5.353366899610093,6.004737417557556,7.625055347305484,8.203725293464755
122,19.028741738214766,15.593200759436591,14.822393064915866,15.272489693083468,7.424178443766556,2.4450395005819185,8.35210734498956,15.955185119111084,4.4036087317017785,18.619285512221936,19.3601637489114,17.482981141813593,18.947878918315695,24.277430315591587
123,25.380029466334754,22.536669740735352,19.95743332680102,22.159191439909154,11.792178993883354,4.0915255746498245,9.44083484713429,19.702114980384756,6.6694708477516595,25.749426591969534,28.461562659992733,24.672736521138994,25.792362680533383,34.346771332012565
124,25.655860525548643,23.91774282689268,20.255578128898488,23.533514422106865,13.141391116214548,4.634068339710111,8.416762068469744,18.82941676353242,7.253930021979649,26.607714979648826,30.455291638976874,25.808434481252092,26.46311692659485,35.992393811912734
125,19.947810283929915,19.52913734903257,15.809431684741352,19.216679347400515,11.219087562101134,3.9426164517002475,5.639952414478302,13.755418843714585,6.0538000838852914,21.19593847418909,25.06077142210992,20.744702313653235,20.881125689248247,29.032924316655393
126,9.891041306786322,10.698326625375584,7.9303227126379365,10.540770461186229,6.663756518915059,2.2474028265017685,1.8585276875294396,5.917333303583057,3.4488491813911897,11.13113552689421,13.963615654948425,10.98269544918053,10.615007435692563,15.552470529512576
127,-1.8090607947464898,-0.1145328747129968,-1.240173077980095,-0.06057240037637433,0.7982261155114402,0.05944869382705932,-1.9908903129712598,-2.6373498618440374,0.1816218823020506,-0.8328359190558583,0.29023429193840067,-0.7826331489976597,-1.5687833163566351,-0.7253162174961562
