,AF3,F7,F3,FC5,T7,P7,O1,O2,P8,T8,FC6,F4,F8,AF4
0,6.657768508735087,0.07541741020728504,3.3989341626937524,0.017123095944696905,-0.9346405198649583,-1.3055023470103562,-0.539922206172015,0.2542289693611216,-1.9636121155481279,-1.9391169892053328,2.548447370958704,1.3267116728623576,2.5553287013323818,-2.6722009231721437
1,6.085650843622961,-0.1486560100336927,2.9929073235500163,-0.20470072748962195,-0.8398617712963612,-1.3236097665639865,-0.25251567409056624,0.12668191801377326,-2.3612005135146807,-0.9300737326254868,3.385342104683122,1.009574616452192,3.429990424632156,-1.5672946072648568
2,5.571509373260576,-0.3402893985418631,2.6157280320478526,-0.41612482305808735,-0.7308453558265015,-1.3513740836982697,0.021831774324151624,0.0014016442022034986,-2.752435842298191,0.08036319207127049,4.225582618239311,0.7322483356458532,4.302737404566896,-0.4549429672873574
3,5.133371411417186,-0.4904624684491758,2.281740410040339,-0.6083622119664386,-0.6024014353548294,-1.3902554363668,0.27820841070327884,-0.11892650394843178,-3.13141764675477,1.084958050070619,5.069033503254177,0.5059717801542503,5.173015510064739,0.6639564516605327
4,4.786309627092692,-0.5919344136210459,2.0034017565957787,-0.7734043876414558,-0.45001020715157436,-1.4414973778083677,0.5117697497046946,-0.23182019671858076,-3.4929159928300804,2.0759838434373115,5.914752766865872,0.339764771394395,6.0403940020928815,1.7875676318115827
5,4.541905035624981,-0.6394296822545723,1.7908191975467205,-0.9042819992748309,-0.2699947252643028,-1.506114423224159,0.717764834439351,-0.3350972420373611,-3.8327002751410464,3.0452600351602537,6.7607919828412895,0.24011915975243978,6.904555776383391,2.913023939664149
6,4.407818803328314,-0.629748804729904,1.6513886023880338,-0.9952926599463162,-0.05966848813494603,-1.58487191990793,0.8916017001144387,-0.4269593377540127,-4.14778097981998,3.9842445333469265,7.604076536416321,0.2108008144667847,7.765298093410986,4.036398103145726
7,4.387488510349177,-0.5618012618594751,1.5895495520818836,-1.0421893085101692,0.18254607896170236,-1.6782574108479813,1.0289537508177253,-0.5060577816698106,-4.436547445915027,4.884183688706959,8.44037433236391,0.2527665492953026,8.622541626083096,5.152740179872992
8,4.47996080307957,-0.43656144156174115,1.6066646276975953,-1.0423222677878008,0.45703305082615026,-1.7864436759523972,1.1259030161190486,-0.5715373344523245,-4.69879516547197,5.736318099386554,9.264353249465916,0.3641922484901023,9.47634232587713,6.256185390194116
9,4.6798688091823974,-0.25695185424722583,1.7010264729636615,-0.9947272208424084,0.7629389248385535,-1.9092446554608735,1.1791112005830515,-0.6230559449196723,-4.935646569743615,6.532136300729516,10.069721218154807,0.5406038863930647,10.326899096994284,7.3401289300927335
10,4.977559195886491,-0.02765983687353488,1.8679916740270732,-0.900150910313412,1.0981767175790536,-2.046066489443178,1.1860053669406458,-0.6607798496826813,-5.149377996561812,7.263663397846547,10.84943790017024,0.7751009622289219,11.174550050036958,8.397459629185018
11,5.3593704812263905,0.24510537294782958,2.100236374154841,-0.7610074875365704,1.4594850178002314,-2.195856990363024,1.1449624257341693,-0.6853552478156552,-5.343171922248449,7.923767697789828,11.595983326030664,1.0586610409321264,12.019750412428404,9.420839399666917
12,5.8080610858691255,0.5539088750399618,2.388124884827525,-0.581261232067075,1.8425458340764047,-2.3570580563916903,1.0554759466170796,-0.6978590643211918,-5.520817683567411,8.50646600041116,12.301666621057791,1.3805142209985939,12.863026245650175,10.403012075981705
13,6.3033819686853105,0.8904338473796092,2.720179209476962,-0.3662353472076481,2.2421609051299236,-2.5275665988318314,0.9182904989994521,-0.6997322370307122,-5.686385904217744,9.007208163884348,12.958957018169325,1.7285771949673747,13.70490065368813,11.337124376495385
14,6.822783563073521,1.2458658960582372,3.0836336581189294,-0.12235130030978875,2.6524814346799093,-2.7047099203127773,0.7354924296563208,-0.6926996702295909,-5.843901227761433,9.423123935470018,13.560819174904275,2.089937232765489,14.545792839777436,12.21704295967377
15,7.342239704144775,1.611307904459128,3.4650540778162395,0.1431915507032594,3.0672813505535217,-2.885240691045993,0.5105505838608926,-0.6786815595362519,-5.9970343565315645,9.753218845497639,14.101035157599966,2.4513757972445753,15.385893777163501,13.037653423224905
16,7.837163075096622,1.9782109049748546,3.8509959070824484,0.4227809552460083,3.480259742651163,-3.0653549515195118,0.2483045310798968,-0.6597010210002091,-6.148828511782696,9.998510002778637,14.574496773166288,2.7999191728418875,16.225024456909157,13.795128362115705
17,8.283378964201823,2.3388026630077112,4.228670065017734,0.7087815059461084,3.8853548379699334,-3.2407347266184927,-0.045099490193973114,-0.6377927884302692,-6.301469169831789,10.162096267418866,14.977454448125656,3.123399745402045,17.062484038712732,14.487152162107428
18,8.658117952997708,2.6864932864683144,4.586581503845457,0.9939256949364076,4.277050149916678,-3.4066155354241268,-0.3623230854942061,-0.6149174149435155,-6.456101285258219,10.249160327564649,15.307711814257397,3.411007074256657,17.89689646444199,15.113090705650992
19,8.940983767264369,3.0162361690359267,4.9151030314661925,1.2716813867606895,4.650653403951338,-3.5578783687389577,-0.6949973901478802,-0.5928850331827201,-6.612696139876608,10.266902589066566,15.564757448118781,3.6538037524201807,18.726065090689637,15.674095161647822
20,9.114850116357932,3.324822853621754,5.206947688719363,1.5365719214656353,5.0025305172946695,-3.6891652501947427,-1.033927133887977,-0.5732920545976996,-6.76997013738531,10.224408530381941,15.74982667854113,3.8451788116232035,19.546845239703813,16.173130855600927
21,9.166640915687765,3.6110922202951956,5.457507098373421,1.7844286834468142,5.330280133399763,-3.7950170180170044,-1.3693312826224222,-0.5574730895177653,-6.925359001428271,10.132452574059574,15.865888161500974,3.981212411309654,20.35504455815109,16.614925265929124
22,9.087952649830378,3.87603780674253,5.66503041411196,2.0125613319442586,5.632838512255506,-3.8700313008614824,-1.6911142473947196,-0.5464691229502214,-7.075051178331213,10.003242983497831,15.917553195456613,4.060929788342126,21.14536124203289,17.005833445826326
23,8.87548488240563,4.122801838802434,5.830627456938806,2.2198369999023244,5.910509421359939,-3.9090375980544056,-1.9891618688546762,-0.5410119449048103,-7.214082502691562,9.850113883441363,15.910910246237314,4.086428284175432,21.91137004043399,17.35362348350443
24,8.531252976205616,4.3565504751405,5.958089034003061,2.4066658434082906,6.164918630601793,-3.9072846168102875,-2.2536562132064257,-0.5415240288027612,-7.336490301476812,9.687171917488781,15.853291374126611,4.0628664559122925,22.64556417649286,17.667187459375967
25,8.062564972667191,4.584231229638268,6.053527066506817,2.574895913248044,6.398897164205514,-3.860632464805104,-2.4754017547996745,-0.548132211607879,-7.4355201969972775,9.528906041693533,15.752980066652176,3.998307918037701,23.33945724726466,17.95618444008088
26,7.481753162741755,4.814219226678972,6.124847575960613,2.7276251806880496,6.616300955220988,-3.7657394969284255,-2.6461525985446825,-0.560692570188232,-7.503874494715318,9.389769472660669,15.618871494321201,3.9034158556341505,23.98374340588111,18.230622576157682
27,6.805661413700628,5.055863118911955,6.181081011513198,2.868942455254926,6.821776658799287,-3.6202319324773327,-2.758927212555028,-0.5788231664376219,-7.533988656807357,9.283742803306453,15.460097224435511,3.790999087839955,24.568508010479533,18.500388894342052
28,6.054902130088102,5.318945243419479,6.231606112845847,3.0036116797724586,7.020484436890489,-3.4228452319381635,-2.8082954961082613,-0.6019412639935355,-7.518322879049933,9.223886746850232,15.28562748346312,3.675418187739472,25.0834757829676,18.774738734106933
29,5.252911074344289,5.61307577367992,6.285313907390666,3.136715701625261,7.217789178019858,-3.1735298247359007,-2.790623796860618,-0.6293021595574398,-7.449658994605435,9.221892210157447,15.103865076820385,3.571870036586126,25.518280308295818,19.061761655408464
30,4.42484244264005,5.947047424585562,6.349765616806915,3.27327642707399,7.418932224423376,-2.8735185456733436,-2.704266236211149,-0.6600374950636699,-7.321397136464797,9.287635020077394,14.922245633624446,3.4955797692945665,25.862737582544806,19.36784564725892
31,3.596358360062851,6.3281836995130405,6.430400945881853,3.4178687142261848,7.6286961800581565,-2.5253569458218323,-2.5496941487099907,-0.6931914843741221,-7.127849531615749,9.428743101937988,14.74685866998831,3.4609384913715475,26.107106799784866,19.697165036924282
32,2.7923747699978487,6.761717686066818,6.529851634708754,3.5742458021529795,7.851075713152151,-2.132899340579969,-2.329558294691264,-0.727753906647149,-6.864529240677582,9.65018577084748,14.582103391473176,3.480632200654839,26.24232358679904,20.051219252164714
33,2.0358295205666423,7.250239681728096,6.647410401216984,3.7449946312386,8.088967710879032,-1.7012731777150616,-2.048680100779944,-0.7626892423892253,-6.528429783412213,9.953898865619458,14.430393144074555,3.564811909033606,26.260195451827236,20.428450590370993
34,1.3465392571343346,7.793251292041604,6.778698413599798,3.9312398673112465,8.343894971430213,-1.2368128095567958,-1.7139688767435393,-0.7969621390886026,-6.118287919699607,10.338466078816996,14.291923910977383,3.72035738286547,26.153557216140406,20.823970653297337
35,0.7402100963648768,8.38686151800068,6.915565460331811,4.132415315431539,8.615778723711024,-0.7469618531296256,-1.3342626661466856,-0.8295602765328325,-5.634816686911953,10.798884806677359,14.164525226161235,3.950287119816304,25.916394495883075,21.229427053179727
36,0.2276622593348748,9.023656071462735,7.046245650828887,4.346120213267272,8.902776161279823,-0.24014180855436607,-0.9200917834816377,-0.8595161364282062,-5.08089010661293,11.326451298385628,14.04361476941835,4.253364111908483,25.543952261426202,21.633042459240055
37,-0.18568098326485774,9.69276334101054,7.155776849037826,4.568075203770134,9.201199078988488,0.2744157591630878,-0.48336650756043614,-0.8859288786752431,-4.461657037775146,11.908801207753175,13.922277820356555,4.623938694518362,25.0328489441266,22.01985388429307
38,-0.5000060927748364,10.380128048141739,7.226673447410725,4.792188097250975,9.505527487348601,0.7868749658416583,-0.03699416023242055,-0.9079867363925431,-3.7845618594815513,12.53013507265678,13.791486943967556,5.052054868538717,24.381212502877077,22.372168807666537
39,-0.7210120076999065,11.068987384401037,7.23982075045505,5.01073258466705,9.808526767739396,1.2870382297739964,0.4055640371622385,-0.9249895140311089,-3.059254769727823,13.171643741092762,13.640465353642412,5.523825769133561,23.588844664207095,22.67023665916969
40,-0.8595154769726712,11.740527080466427,7.175538703600374,5.214634547658044,10.101468719234216,1.7646214201734391,0.8307800186020249,-0.9363701226873252,-2.29738342631741,13.812129484607702,13.457182104596974,6.022060770935783,22.657406724888737,22.89311296284838
41,-0.930793533239801,12.374679843272608,7.0147469707921415,5.393852077569041,10.374447463045364,2.209553479832405,1.2255679154786383,-0.9417136089545209,-1.5122687856394115,14.42879881988384,13.228952855827485,6.527104927454744,21.590608532793677,23.01967368025079
42,-0.9537139598172856,12.951018018821403,6.740154609057194,5.537828124155547,10.616772825843174,2.6122885634761515,1.5777887091679246,-0.940771855048541,-0.7184797793917559,14.998186048623618,12.943109472410795,7.01783386902238,20.394374222032717,23.02972212457016
43,-0.949714603237841,13.449686378929295,6.33739586911047,5.63598941761259,10.817417964232753,2.964115407508885,1.876721618850647,-0.9334721635321817,0.06866790946663155,15.497153873948369,12.587695926007603,7.472735516580292,19.07695536845853,22.905121421200803
44,-0.9416970611171722,13.852318833055365,5.7960382154472585,5.678262158273916,10.96549500354741,3.257447281828203,2.1134738697646815,-0.9199183615721285,0.8336563127235397,15.903910086685514,12.152145972298879,7.871004535654987,17.648964440497306,22.630881931955653
45,-0.9529008370582996,14.142884312081614,5.110398791970231,5.655574138845793,11.050731971499141,3.486077092973933,2.281304573493684,-0.9003838092612882,1.5613173378576148,16.198977501118712,11.627899025974113,8.193576238221135,16.123307422246064,22.196134718773973
46,-1.0058209200075778,14.308412507407418,4.280120335547062,5.560314424533947,11.063925594039345,3.6453848775733855,2.3758451786081496,-0.8752965974353634,2.2373587314926087,16.366057683760918,11.008914348032382,8.424033646835321,14.515002634706963,21.594928194864686
47,-1.121224405519696,14.339559905735541,3.3104756228932595,5.3867252818672045,10.997347104907703,3.732487407042022,2.3952066470769924,-0.8452180300337576,2.8488355173169606,16.392737353107034,10.292050775153406,8.549334902176916,12.840882561490993,20.82679561966512
48,-1.3173096956948662,14.230989937220754,2.2123894303511102,5.131206626580047,10.845082103368034,3.7463216693635935,2.339971206449329,-0.8108160147584088,3.384546929009458,16.270999587347227,9.47729035594235,8.560327429960452,11.11918727622316,19.89705667167353
49,-1.6090358747510929,13.981556262487452,1.0021869232432832,4.792520390236884,10.603290589008138,3.68765648348933,2.2130738964185634,-0.772835233841325,3.835347986620857,15.997518925482808,8.567798480414332,8.452037440460218,9.369070895846567,18.81683628374741
50,-2.0076327770720774,13.59429289973005,-0.29890492831346827,4.371889523489131,10.27037888747618,3.5590299805268852,2.0195855914479126,-0.7320660789242883,4.194372528765999,15.573737211230759,7.569827739915555,8.223743924948506,7.610053296287855,17.60280527752601
51,-2.5202871673933247,13.076226813603114,-1.665462958012722,3.872992385751354,9.847080320417483,3.3646151638384194,1.7664140775118635,-0.6893143906804456,4.457169674502253,15.005732534025775,6.49248510465604,7.878861595985148,5.861455524012892,16.276666500401458
52,-3.149989203635861,12.438036494503319,-3.068732156916506,3.3018576523719765,9.336445780185079,3.1100211323655618,1.4619430721773325,-0.6453740124619538,4.621758804686809,14.303905141312299,5.347390651043329,7.424666145759373,4.1418586729794304,14.864425009694687
53,-3.895516603266083,11.69358408142038,-4.477596797121409,2.666668200000785,8.743749034433609,2.802043147810362,1.11563105298613,-0.6010040544310323,4.688610026838659,13.482511454447666,4.148260523225153,6.87189875534243,2.4686231599073185,13.395490642019839
54,-4.751532079794399,10.859349722085947,-5.859607169888867,1.9774851658516925,8.076314697452208,2.448379036769362,0.7375920623880916,-0.5569125952754196,4.660557841142749,12.55908038600882,2.910446597709713,6.234285872409833,0.8574982295245396,11.901665319918616
55,-5.708772650532707,9.953796033846608,-7.182016366502895,1.2459054371392158,7.3432790389368146,2.057331073515917,0.33817879548808527,-0.5137481465289774,4.542655010927655,11.553744813802997,1.6504603777148974,5.528005092356494,-0.6776599503396089,10.416064822167026
56,-6.754315872491111,8.996688336072937,-8.412791009948252,0.4846671424749033,6.555295114510009,1.6375113648245867,-0.07241515586257696,-0.4720992581966925,4.341971830102535,10.488516010188352,0.385500499344406,4.771119520935871,-2.1250574211330653,8.97201651329287
57,-7.871914949757044,8.008393728348949,-9.521570435253713,-0.29278131014111575,5.724194925943007,1.1975658749268623,-0.4845203824936222,-0.4325011597261796,4.067344786305932,9.38652304192401,-0.867004974682598,3.9829940488386475,-3.475027724448869,7.601964860832448
58,-9.042398962886837,7.009180597918371,-10.48055714359395,-1.0727318515954585,4.862623240572138,0.7459287777723967,-0.8893125561664976,-0.3954468497725783,3.7290798635042908,8.271236556534182,-2.0898354295617496,3.1837008375999503,-4.720010428954953,6.33641035388594
59,-10.244134825354811,6.018540722093259,-11.265325616655582,-1.8416684804363492,3.9836598377554866,0.2906155279083773,-1.2790784234190153,-0.36139923818229935,3.3386193624102436,7.1656984106701636,-3.2663885460931894,2.3934196614027727,-5.854461924186148,5.202906417180841
60,-11.453544688446376,5.054558128611398,-11.855537403403266,-2.5866997822415447,3.1004480339754874,-0.1609398452407018,-1.647416862648091,-0.33080105664113474,2.908184943792793,6.091782816257357,-4.3810579237976865,1.6318407607031586,-6.874715421893611,4.225140961219585
61,-12.645668443572992,4.133350539457283,-12.235549785337172,-3.295951002116617,2.2258466398458507,-0.6020003194969511,-1.9893668883269673,-0.3040800964280781,2.450411138980949,5.069516843181811,-5.419568471646357,0.9175812126869626,-7.7788043253887285,3.4221309447016925
62,-13.794757798235404,3.2686090741159393,-12.394904913889457,-3.9588951829749464,1.3721201193613364,-1.026594119019809,-2.301458304908492,-0.28164856732785604,1.9779821381325875,4.116485594230268,-6.369261453963521,0.2676283971238451,-8.566261740436452,2.807557510958569
63,-14.874887103389623,2.471259171964293,-12.328686643992297,-4.566605716254818,0.5506780969542864,-1.4295383086090785,-2.581686064292516,-0.2638966639684167,1.5032817005327708,3.2473406606611586,-7.219325006581316,-0.3031747290876088,-9.237909105073959,2.3892652512830983
64,-15.86056632619001,1.749260157151945,-12.0377334000949,-5.111917543181018,-0.22812897698126053,-1.8064233884947822,-2.8294151665666036,-0.25118142344975,1.0380635435215038,2.4734221199082516,-7.960971246576157,-0.7825876124136998,-9.795647900528552,2.168942561816277
65,-16.727342424421515,1.1075529019685855,-11.52869730684744,-5.589490803893902,-0.9551557626576119,-2.153567166110728,-3.045227949600623,-0.24381242790339389,0.5931484816206404,1.8024969950117244,-8.587565665925887,-1.1613586127174613,-10.242269299379297,2.1419923910402647
66,-17.452376326964373,0.5481556660284197,-10.81394232195859,-5.995778227983105,-1.6225518347624655,-2.4679479476045176,-3.2307287631795787,-0.24203592376746827,0.1781545245772257,1.2386123168985204,-9.094716869543804,-1.433526084010058,-10.581296647864272,2.2975955477302117
67,-18.014983606385172,0.07039839871592644,-9.911276975713221,-6.328905043879452,-2.223801776712772,-2.747127189319837,-3.3883215763396795,-0.24601879005999977,-0.1987339063206217,0.7820587635039487,-9.48033436510811,-1.5966216173123724,-10.816874029190975,2.6189630946377975
68,-18.39712785468546,-0.32872374169804963,-8.843520739359867,-6.5884768342380315,-2.7537254021023028,-2.9891699758789367,-3.5209741966191226,-0.25583368101519377,-0.5309524802948739,0.42944010430330465,-9.744659357231944,-1.6517653051836572,-10.953710152669641,3.0837703200449784
69,-18.583857043225134,-0.6541054530817041,-7.637907688132345,-6.775336005992201,-3.2084501894839748,-3.192569186849401,-3.6319798311059324,-0.2714465539859956,-0.8136960055886673,0.1738431142048595,-9.890269303193117,-1.6036456789499267,-10.99708051834065,3.6647619939008047
70,-18.563675006554575,-0.9120293315414312,-6.325337499927889,-6.891290773644228,-3.5853687694912098,-3.3561775193899663,-3.724724318131771,-0.2927075516201194,-1.0440085069295242,0.005101981785488403,-9.922052621535517,-1.4603802114016482,-10.952883170584242,4.330516266433229
71,-18.32884251188742,-1.1096449211180914,-4.939491645143813,-6.938841197249056,-3.8830933945750865,-3.4791510213508725,-3.802466205372442,-0.31934577492235156,-1.2208225343210715,-0.08984905132501543,-9.847146591365098,-1.233256104092775,-10.827735771506788,5.046351541696753
72,-17.875604705752476,-1.254466783232603,-3.5158408275144986,-6.920924915332097,-4.101416905460057,-3.560907568972616,-3.8681365918469526,-0.3509679178104492,-1.3449436685939986,-0.12654087171768091,-9.674829818459914,-0.9363556775232461,-10.629095356345395,5.775356251189514
73,-17.20434356072295,-1.3539258393071893,-2.0905770762987363,-6.840701580975274,-4.2412863201245115,-3.6011028681063424,-3.924165644617759,-0.38706026962062756,-1.4189739932567855,-0.12245843482585661,-9.416360728247373,-0.5860758859641456,-10.365377754668895,6.4795158169216185
74,-16.319654814306812,-1.4150014681334004,-0.6995093267885512,-6.70139060218996,-4.30479147913322,-3.5996249998236713,-3.9723425088762676,-0.42699352343734986,-1.4471687765068275,-0.09646057639895056,-9.084755173235033,-0.20055663113120756,-10.04605187472041,7.120904893266211
75,-15.23034834715047,-1.443953224162541,0.6230358313060513,-6.506172074268443,-4.295167568509488,-3.5566069360777317,-4.013714730882021,-0.4700301828091571,-1.4352250762384027,-0.06814126915799269,-8.694499253523375,0.2009629676815869,-9.6816849799535,7.6629070662592165
76,-13.949368880627201,-1.4461615232749745,1.84526642748091,-6.25815561096011,-4.216806814688811,-3.4724554919785833,-4.048532245751392,-0.5153347926334865,-1.3900084253118352,-0.057148430916901985,-8.261197513641438,0.5988375303186918,-9.283918120452242,8.071419745978146
77,-12.493631103845967,-1.426076812929121,2.938890576622833,-5.96041570907607,-4.075271271052855,-3.3478948965450854,-4.076239443163224,-0.5619873581053488,-1.3192313849912305,-0.08248229498020392,-7.801161139463583,0.9737319705031082,-8.86535536706993,8.316000352806373
78,-10.883761572653887,-1.3872674407661034,3.879958508437956,-5.616085329233386,-3.8772958287051207,-3.1840228191733093,-4.095516681843374,-0.6090000960046505,-1.2311027378908985,-0.161799365005876,-7.330945036249524,1.3073342834862642,-8.439356364782402,8.370911720625974
79,-9.143740622516386,-1.3325490838529326,4.649548499394253,-5.228492346510817,-3.630768856412991,-2.982375261782277,-4.104369659823141,-0.6553372290215582,-1.1339671538920129,-0.31074869721280124,-6.866846598818684,1.5830366130971043,-8.019729104620703,8.216029130293391
80,-7.3004417762223035,-1.2641745246804241,5.234269063223071,-4.801317696898467,-3.344677371279992,-2.744993881664226,-4.10026132071753,-0.6999370031146355,-1.0359529890518426,-0.5423652083756931,-6.424382812862728,1.7865568681659927,-7.620328650884277,7.837576736820127
81,-5.383073065698784,-1.1840617527078998,5.6265564345702614,-4.338750681878399,-3.029004470606683,-2.4744860248390754,-4.080277066028583,-0.741734624679809,-0.9446422148274467,-0.8665417685188419,-6.017766114761631,1.9064741048199751,-7.254577417906313,7.228666094058459
82,-3.4225326139344063,-1.0940391669025524,5.824754923806939,-3.8456168438092964,-2.694569199716765,-2.174065677455335,-4.0413108362271615,-0.7796846248727685,-0.8667730103540238,-1.2895992130460234,-5.659402717608236,1.9346532350232872,-6.934932174530829,6.389614416928253
83,-1.4506978243769066,-0.9960871627792919,5.832977505245205,-3.3274572348557747,-2.3528032791350517,-1.8475638726616355,-3.980257936936288,-0.8127814045976857,-0.8079835285260909,-1.8139709638350001,-5.359439159331396,1.8665389369018148,-6.672330500769536,5.328026389648919
84,0.5003273982992729,-0.8925552668818153,5.660754058683942,-2.790544234664134,-2.01546491289053,-1.499400235757208,-3.8942008392005616,-0.8400772661734588,-0.772605288831035,-2.4380165292658864,-5.125383245130794,1.7013043755492958,-6.475654056460004,4.058631004413766
85,2.3989799070990196,-0.7863343012944253,5.322484624214087,-2.241827222339853,-1.694296455822846,-1.1345130114709625,-3.7805764922606397,-0.8606978405558888,-0.7635155330193966,-3.155975745725497,-4.961823975094369,1.4418466278453974,-6.351247541575736,2.6028734515229517
86,4.21499080620171,-0.6809647807303519,4.836725080237423,-1.6888097323735256,-1.4006389410449571,-0.7582517225510256,-3.637317028568461,-0.8738552821163292,-0.7820571910848416,-3.9580718663303776,-4.870270382677285,1.0946278555473998,-6.30252957299535,0.9882716023067829
87,5.920099000014765,-0.5806663115404986,4.225342535423115,-1.1393665506726967,-1.1450215569479372,-0.3762422530379254,-3.4629588832781892,-0.8788598152355216,-0.8280309402926364,-4.8307644699370424,-4.849120583963022,0.6693700755842197,-6.3297237509956,-0.7524420577520745
88,7.48870266274566,-0.4902787106195568,3.51258573211554,-0.60151386256286,-0.9367479738235813,0.005763199465144093,-3.2567178219103483,-0.87513012541225,-0.8997570032609281,-5.757142997897513,-4.893761228558494,0.17862090101635936,-6.429726382671076,-2.58235989078117
89,8.898430065408643,-0.41511424651775775,2.724119371650238,-0.08314867659153648,-0.7835041287258468,0.3820391756214973,-3.018529683574073,-0.8622027597760327,-0.994197758314812,-6.7174420213881545,-4.996787629572672,-0.3627848564831299,-6.59611569438803,-4.461576644485227
90,10.130612615617085,-0.36073107767127777,1.8860690712445614,0.4082238523070095,-0.6910135818851095,0.7470326436768313,-2.74905939147072,-0.8397403527543175,-1.1071284665761607,-7.689653896909326,-5.148329021443385,-0.9383393278702031,-6.819299454202961,-6.348456664206201
91,11.17064334854522,-0.3326485065456607,1.0241168763204884,0.8657551375087155,-0.6627662098967595,1.0954928768407364,-2.4496837683079717,-0.8075383599592417,-1.2333429820682469,-8.650214418970545,-5.336461716638452,-1.5305231837192856,-7.086794512806935,-8.200942727449679
92,12.008206367066487,-0.3360321807301871,0.16267919292063193,1.283490528794379,-0.6998428180109799,1.4225791288319902,-2.1224558874849526,-0.7655301124574007,-1.366883049933309,-9.574740362114598,-5.547693495416452,-2.1214881985913103,-7.383631039606268,-9.97786201888519
93,12.637368815267545,-0.3753795223917198,-0.6758074183726794,1.6565633418013814,-0.8008517123983702,1.7239424793605262,-1.7700587506648457,-0.713790188230046,-1.5012820019699464,-10.438800686839679,-5.767503090838284,-2.6937359832860284,-7.692873148991152,-11.640188424631603
94,13.056536252780758,-0.4542323176492996,-1.4714715158319935,1.9813347699571782,-0.9619841112768004,1.9957816657514498,-1.3957534347960174,-0.6525361499167379,-1.629815071559289,-11.218702851729821,-5.980917496834749,-3.230768710824392,-7.996243669567747,-13.15222207973669
95,13.26828219926735,-0.5749367911997095,-2.2074462180119583,2.255474272730931,-1.1771852399550868,2.2348761124845247,-1.0033227305193004,-0.5821287050117955,-1.7457491112854415,-11.892272321614996,-6.173107047694971,-3.717687395434052,-8.27483374931985,-14.482647518533428
96,13.279070524989331,-0.7384643917716402,-2.8701518997637696,2.477979498866128,-1.4384287756824852,2.4386018900310384,-0.5970082599000773,-0.5030704543169932,-1.8425851747937707,-12.439599728752864,-6.329975576696339,-4.141713420802228,-8.509870051479174,-15.605433344458952
97,13.09889404944823,-0.944300315410047,-3.4494193032384843,2.6491382836003257,-1.736075207154576,2.604937345543786,-0.1814388598526596,-0.41600348044650387,-1.914288936040941,-12.843728734064154,-6.438722158506701,-4.492611049047139,-8.683506174614177,-16.500541011897827
98,12.740854300929845,-1.1904015421817111,-3.9384589592078068,2.770438066681949,-2.0592904425924576,2.7324642369176066,0.23844996086764025,-0.32170587033501824,-1.9555057309826573,-13.09125869686845,-6.488351725410224,-4.7629929235086195,-8.77960148451771,-17.15441788751503
99,12.220706530605034,-1.4732217007794968,-4.333690625700342,2.8444304179727955,-2.396499726974216,2.8203676490041163,0.6575035883929249,-0.22108693192092,-1.9617577468780507,-13.172838384915352,-6.470112606826453,-4.9484960680742756,-8.784448716179694,-17.560258498901437
100,11.556391348305036,-1.7877966273755723,-4.634452748106005,2.874560291833577,-2.735852795039533,2.8684350475700606,1.070440395695174,-0.11518064213099415,-1.9296195504557636,-13.083528888625684,-6.3778389439947825,-5.047821356043243,-8.687410470814086,-17.718026163750462
101,10.767570152980978,-2.127882473500418,-4.842616946942742,2.8649711158706728,-3.0656781187772935,2.8770529157102933,1.4719466085917696,-0.005136946132351679,-1.8568650973711542,-12.823015701631887,-6.208176129889313,-5.062634772307795,-8.481424891521891,-17.634234678343727
102,9.875176270135112,-2.4861378381507637,-4.962136499090848,2.8202977243529386,-3.374906568497158,2.8471989748235025,1.8567731193063233,0.10778908966235405,-1.7425764097463574,-12.395653008791061,-5.960670375331963,-4.9973350947228905,-8.163344744109903,-17.321497639349914
103,8.900987937595579,-2.8543422708763413,-4.998560588238837,2.7454592634416413,-3.6534477991832546,2.7804286853094586,2.219833792675115,0.22224982153067574,-1.5872033428052887,-11.81032945800363,-5.6377111523312085,-4.858700779012862,-7.734083811645141,-16.797863057356768
104,7.867223507363569,-3.2236448971475866,-4.958547414230605,2.645463202456776,-3.892506294502887,2.6788560099355747,2.556304814022261,0.33681871972802174,-1.392566175280809,-11.08015498798821,-5.244327440158195,-4.655438239307999,-7.198559612868576,-16.085963575462227
105,6.796153852628853,-3.5848383500935928,-4.849408648629509,2.5252293010575833,-4.084828155795505,2.5451296428244476,2.86172463363167,0.4500051271814914,-1.1617975217007173,-10.221981602566963,-4.787853006942034,-4.397662481710241,-6.5654394277209605,-15.212025848357744
106,5.7097228484476075,-3.928654138024508,-4.678714709222039,2.3894392235381248,-4.224874083724751,2.3824062854778694,3.1320938486374734,0.5602707780001249,-0.8992260490191343,-9.25578470971073,-4.277489276250158,-4.096347389616533,-5.8467141069989275,-14.204793478732075
107,4.629165573979115,-4.246074977300395,-4.453984383389246,2.242414401993096,-4.3089180753147325,2.1943214846737122,3.3639732371167734,0.6660493312830016,-0.6102106578776709,-8.203942879213866,-3.723804174740796,-3.7627857078339213,-5.057138071718963,-13.09442416724351
108,3.5746171028920077,-4.528656509916328,-4.18247317664494,2.088022579099371,-4.335074640508215,1.9849560342951016,3.5545759134356087,0.7657702092266675,-0.30093913793288585,-7.0904603033217235,-3.138209960583095,-3.408096770651415,-4.213581678864397,-11.9114220383126
109,2.564712473916954,-4.768845562488574,-3.8710628792189077,1.9296125573179774,-4.303259526823354,1.7587929873802566,3.7018472811767187,0.8578874982072318,0.021791719350079636,-5.9401763693485945,-2.5324611113506217,-3.0428123901600617,-3.3343421515721516,-10.685659346031928
110,1.616188712102913,-4.96027653859262,-3.526242072741238,1.7699769006104633,-4.215090164889747,1.520658613692248,3.804525856161176,0.940913740398948,0.35079855082215405,-4.778000444937269,-1.9182048250569903,-2.6765588431615868,-2.4384521753125092,-9.445528174439389
111,0.7435093622199339,-5.098024117711804,-3.1541565044666955,1.6113430906347195,-4.073732862178501,1.2756413003793579,3.862179790808498,1.0134574551865871,0.6787255100649167,-3.6281991883769975,-1.3066036279692537,-2.317838508530051,-1.545014402890007,-8.217245184514157
112,-0.041462069171126305,-5.178791073576344,-2.7607017808499736,1.4553939560931244,-3.8837047741189012,1.0289851844598958,3.875216956849156,1.0742625869897164,0.9982464291142694,-2.5137519103836112,-0.7080360154499751,-1.9739022940799495,-0.6725799605723566,-7.024315278214244
113,-0.7297125097128154,-5.201015103684762,-2.351629382462083,1.3033171085033857,-3.650640181239719,0.7859591339661903,3.844869135955585,1.1222479595315793,1.302257791462822,-1.4557800584877298,-0.13187119049773655,-1.6506963856294055,0.16141750577345867,-5.8871465825777864
114,-1.315230348098963,-5.164886741204379,-1.932639979445773,1.1558804089657,-3.38103251781551,0.5517055070978687,3.773152628585703,1.1565450657036214,1.584067922485508,-0.47305169064398617,0.41369022977594505,-1.3528645265022483,0.9411635444940515,-4.822800733361451
115,-1.7950418458513342,-5.072279656258343,-1.509444285763282,1.013527001894443,-3.0819654204615907,0.33107622604003195,3.6628087976073354,1.1765328421664347,1.8375860305528322,0.41843893984442304,0.9217174717886646,-1.0837885371482265,1.6528922579663825,-3.844859063378692
116,-2.1691282952203705,-4.926603308943611,-1.0877799311902976,0.8764804882487064,-2.760847021482875,0.1284657970232051,3.517228975866409,1.1818683125901113,2.0575098912166387,1.2058140660165768,1.3865989971312154,-0.8456533226423042,2.28523483877006,-2.9633863262864217
117,-2.4402309399823237,-4.73259485825126,-0.6733817861968044,0.7448492492070672,-2.42516127146738,-0.0523479953340865,3.340368366492553,1.1725121399006997,2.2395053363739037,1.8795707961915944,1.8040447259693202,-0.639527107811507,2.829478215706156,-2.1849779259425723
118,-2.6135613107749354,-4.496071470451082,-0.27191149693576244,0.618719039126988,-2.08224813175403,-0.20834477093703735,3.1366525239781713,1.1487481583281967,2.3803658905871434,2.433744784997922,2.171044890859982,-0.46545253256406544,3.279724592847514,-1.5128827561342506
119,-2.6964419427125272,-4.223664876892347,0.11114202265436741,0.49822485877676226,-1.7391209252944353,-0.3373732571247607,2.910877966325211,1.111195665027261,2.478137647529998,2.8659662721196946,2.485789088668195,-0.32254872616021446,3.6329441280983863,-0.9471993877622119
120,-2.6979047070559767,-3.922556857130062,0.47057731247734125,0.38359683757075325,-1.4023239136913714,-0.4382251415010953,2.668106562949969,1.0608125850772687,2.532193673420237,3.177396249864378,2.747550460882986,-0.20912701998733915,3.8889173552526137,-0.4851455410895206
121,-2.6282710884558225,-3.6002279967587976,0.8015985129652847,0.27517971231098487,-1.077827148092619,-0.5106648804424588,2.4135527848847893,0.9988869787734557,2.54324503006018,3.3725360383391876,2.956543696341531,-0.12282215095669638,4.050071429412911,-0.12139783872078573
122,-2.498732668797687,-3.264224867800289,1.0999295708805212,0.1734298072225756,-0.770950796990696,-0.5554132077555624,2.152464058379768,0.9270143588857656,2.5132823206500188,3.458913514356498,3.1137705930039914,-0.060737176631813355,4.121223143580264,0.15150773908809534
123,-2.3209440025574706,-2.921945656002118,1.361921235909918,0.07889556064046997,-0.4863092164607993,-0.5740864237117933,1.8899965864631678,0.8470591996421417,2.4454511566021493,3.4466605728133017,3.220870189643826,-0.019596534516036507,4.109248929678684,0.34273065585205825
124,-2.106636328929153,-2.5804428529692776,1.5846493520021503,-0.0078126667769956,-0.22776619756949476,-0.5690967858048435,1.6310907898116227,0.761100546173104,2.343874320219552,3.3480053967017636,3.279989459505178,0.0040997187693508266,4.022705425317127,0.46265511987294733
125,-1.8672593758810891,-2.246243326934702,1.7660020797201514,-0.0860594533106978,0.0016040399999459702,-0.5435207335279484,1.3803510589172174,0.6713632626440945,2.2134395655966728,3.176707864823776,3.2936853938708675,0.013926155885492944,3.871423421742239,0.5224131068664636
126,-1.6136585049361234,-1.925188894770339,1.9047515102959023,-0.15522547677225557,0.19955187527512805,-0.500941879004953,1.141934002317519,0.5801379144608555,2.059573091594105,2.9474671915156203,3.2648623137002892,0.013390162830157759,3.6660945996849357,0.5334185160468634
127,-1.3557942805953247,-1.6223024943090416,2.0006036903450437,-0.21475137433417163,0.3646818566002066,-0.445275834012548,0.9194488008160259,0.48969350389173355,1.8880150075228783,2.675328994550093,3.196741780119083,0.005800468297610902,3.4178664019003557,0.5069278889702569
