,AF3,F7,F3,FC5,T7,P7,O1,O2,P8,T8,FC6,F4,F8,AF4
0,3.1854858852417736,-2.5138035189620456,-3.4336124913594728,-2.019145695470968,-2.543436394787294,-0.7142752711718436,-1.053171776798698,-0.36921207357457436,1.8485846213665156,7.068324929184077,1.4705634131890888,0.4740665870664904,-0.7225833564411724,-3.632516206548671
1,3.1363132832711473,-2.0158496114060855,-4.36485028574892,-2.233543963020865,-3.045367268545157,-1.7508494483170691,-1.184312715316641,-0.4433472098448605,0.9863331086706398,6.651094799001044,1.0054326226109613,0.28563649293924076,-0.40124337311255276,-2.6726283348572966
2,3.0563052045586803,-1.5440025272671807,-5.373344200161078,-2.4619396092534753,-3.5622664453659287,-2.781752351905154,-1.3204121355042235,-0.5183065332394355,0.1348788978265424,6.219313859530006,0.5409247793792449,0.07312690883178474,-0.10004981833293311,-1.7513909257579432
3,2.938995124906659,-1.1064936127942466,-6.473476423177429,-2.7008120456248284,-4.087100418708808,-3.7880116621847986,-1.4575734716863193,-0.5932793445804184,-0.6905983770563968,5.785144153119136,0.08780177821387895,-0.1598013675472283,0.18764485766291364,-0.8663930637905122
4,2.77925523872907,-0.7105350601074331,-7.675453785677322,-2.946231109125804,-4.612560400370516,-4.751485941329154,-1.5915114327482396,-0.6674689977845994,-1.4753604972036158,5.3612681337136125,-0.3430133222860874,-0.4085702958145791,0.46891088171821055,-0.013870906773314786
5,2.5735310085391974,-0.3620394517618186,-8.984520531453763,-3.1939188818266073,-5.131237520512823,-5.6554247620891624,-1.717543925464201,-0.7401163891192452,-2.205488572603881,4.960661282147594,-0.7406705978822835,-0.6677662397245759,0.7509686614643402,0.8110550099470427
6,2.3200431170095515,-0.06535481188273132,-10.40033932650292,-3.439310047718579,-5.635771491765572,-6.484943594835234,-1.830620613974736,-0.8105178026196131,-2.8682209375562513,4.596331695165187,-1.0946262699487301,-0.9312449560046412,1.040914505559383,1.614125656392205
7,2.0189466193297516,0.1769761428677247,-11.916572049012244,-3.677609235381057,-6.118966756249743,-7.227394788945759,-1.9253916496792487,-0.8780360142249046,-3.452243674085016,4.281028787057714,-1.3948697740706828,-1.1922587105443572,1.3454537672371925,2.4016839622474366
8,1.67243701621388,0.36442163745379885,-13.520683031952956,-3.9038450258448716,-6.573874590261673,-7.8726235613777344,-1.9963147391118776,-0.9421037189473577,-3.9479331899235555,4.026925079779013,-1.6321411566611095,-1.4436031589799236,1.6706513625081423,3.180420238777327
9,1.2847949825770233,0.498618569345268,-15.19397749047769,-4.112921732727553,-6.9938443187333545,-8.41310570804295,-2.037794020322152,-1.002218822122717,-4.347555052851427,3.8452771718873278,-1.7981355795191274,-1.6777803574110781,2.021709610766534,3.957130821182433
10,0.8623641175004885,0.5834682863066228,-16.911878201831104,-4.299671542622076,-7.372551030835315,-8.843971345088928,-2.0443411314160422,-1.0579323138977632,-4.645424577656271,3.746074491143224,-1.885691488962616,-1.8871730882579012,2.4027825048606983,4.738495204949098
11,0.4134577499656459,0.6251559189698147,-18.64443561921313,-4.458910881650331,-7.704010199227215,-9.162925647933223,-2.0107477820223303,-1.1088309303787591,-4.838032322128411,3.7376869688662713,-1.888958317753204,-2.0642251480319715,2.8168336614497447,5.530873130369954
12,-0.05180875009919857,0.6320795260197944,-20.357060993791542,-4.585505651447743,-7.982591001493602,-9.370082701476017,-1.9322600973725716,-1.1545177338344392,-4.92413294322443,3.8265250226999488,-1.803539150057054,-2.201623253676934,3.265542424202515,6.340118576876835
13,-0.5217636025978568,0.6146778627473282,-22.0114676336873,-4.67445001940967,-8.203039854432125,-9.467731862695418,-1.8047473728559122,-1.194593774908723,-4.904790861355964,4.016727017480839,-1.6266041976115575,-2.29247911518037,3.749259295867419,7.171403394210091
14,-0.9835046609320391,0.5851504801589237,-23.56680042942594,-4.720962605055581,-8.360523805260504,-9.460057327916145,-1.6248604704336078,-1.2286435013080355,-4.783372940141623,4.309890171600654,-1.3569723579992092,-2.330513696077444,4.267008395258384,8.029040731645829
15,-1.4233057713779675,0.5570708923964706,-24.98092738933864,-4.720602221055659,-8.450700563643585,-9.35283115343941,-1.3901769766751906,-1.2562259489545995,-4.565478446053827,4.704859759801827,-0.9951603071386166,-2.310247525716586,4.816531052189951,8.916298425677963
16,-1.8270989966932347,0.5449014911297694,-26.21185940045924,-4.669403109518369,-8.469818819337329,-9.153098214711928,-1.099330952849171,-1.2768730935112258,-4.258800296894047,5.1975880173393065,-0.543400927266151,-2.2271999588826747,5.394361266304406,9.835195117087785
17,-2.1810221185799077,0.5634264182764556,-27.21925623238251,-4.564027177468708,-8.414848942495448,-8.868868561481873,-0.752124160139074,-1.2900961096619643,-3.872917670496527,5.78106959073474,-0.005634483737816043,-2.078096921497865,5.995921622580022,10.786276985036439
18,-2.4720130540392447,0.6271254393804881,-27.965968323513238,-4.401928173302595,-8.283639548410124,-8.508828497030432,-0.349613109959565,-1.2953997443830045,-3.419026060928069,6.4453569712998755,0.612523850480717,-1.861081901503874,6.615628616538641,11.768380519435706
19,-2.6884243705755226,0.7495182336199714,-28.419556072241736,-4.181520171551775,-8.075090072269164,-8.082077593955264,0.1058362303170223,-1.2923044028658435,-2.909615468100347,7.177657988267085,1.303837466525613,-1.5759197767385784,7.246999133283292,12.778395567251563
20,-2.8206243997837297,0.9425136469004955,-28.553722996893157,-3.9023406098553126,-7.78932509984716,-7.59789626581449,0.6105344950067325,-1.2803746349878602,-2.358110899815133,7.962516434473737,2.059521067508608,-1.224179107402514,7.882753284956971,13.8110502870033
21,-2.861549295020611,1.215800468405879,-28.349597910791555,-3.5651970368945416,-7.427854210850176,-7.065547782835543,1.159501246723283,-1.2592516346790343,-1.7784922278078332,8.78207409860672,2.8693312029249296,-0.8093775615431633,8.514911117058771,14.858742881016076
22,-2.8071734581943546,1.576314072581986,-27.79680440788814,-3.172286838983733,-6.993701641102624,-6.494118419156427,1.7465441544473896,-1.2286866547148696,-1.1849118550230389,9.616408244408058,3.7216732547543194,-0.3370776223378162,9.13488172148628,15.911443551913662
23,-2.656871932026832,2.0278075227789767,-26.894262245500258,-2.7272801427617046,-6.491492340607284,-5.892397955578287,2.3643808532193975,-1.1885722537616223,-0.5913270904518922,10.443935543422702,4.603724849621357,0.18507614202610334,9.73354435217369,16.956686308133328
24,-2.413654716706643,2.5705480904814113,-25.650673403193846,-2.2353574030545023,-5.927484067624956,-5.268799323414964,3.004796454494973,-1.1389688749581461,-0.01115926597563938,11.241873502859667,5.501578493252818,0.7473838023614822,10.301323406835012,17.979666863413986
25,-2.084258221874713,3.201152219847783,-24.084655487787725,-1.7031947057399417,-5.3095382023316535,-4.631311554256916,3.6588289873001063,-1.0801249959385477,0.5430145907954608,11.98675279604351,6.40040960739943,1.3381852961233953,10.828262859183758,18.96346075262387
26,-1.6790836549966617,3.9125651827572403,-22.22449731094061,-1.1388915522562406,-4.647024508591513,-3.9874760751192824,4.316975596407433,-1.0124896706289574,1.0597361978145259,12.654976165547005,7.284678499898872,1.9440287874087745,11.304110186958647,19.889373317200786
27,-1.211977175481449,4.694186583340393,-20.107526558474635,-0.5518379536997137,-3.9506575241089137,-3.3443744454992292,4.969413070700081,-0.9367165938733689,1.5289059801575027,13.223419301172344,8.138374509423821,2.549916309678158,11.718423283131242,20.73742793462447
28,-0.6998530856344028,5.532138561646465,-17.7790978203986,0.0474796983389966,-3.2322657086467106,-2.7086166918579737,5.606226776990175,-0.8536589780292345,1.941985233328333,13.67006513383886,8.945306711607904,3.1396284161210217,12.060714084324585,21.486989226232495
29,-0.16216932370249082,6.409668789866179,-15.291230321829438,0.6477310903283209,-2.5044994092356574,-2.0863229916719805,6.217642252910773,-0.7643547850280833,2.2921530767422107,13.974656335511327,9.689438960625626,3.6961247693554404,12.320638847791914,22.11750457793124
30,0.3797271464695851,7.3076752637574955,-12.70094683538662,1.2370458215405113,-1.7804891602200708,-1.4830964723798041,6.794253523054952,-0.6700023928114234,2.574407907238938,14.119344261749228,10.355260195906283,4.2020113621358455,12.48823858371888,22.609333006600153
31,0.9033606027457476,8.20533545051023,-10.068386024002386,1.8033575001079574,-1.0734701823112067,-0.9039903080081652,7.327241654937268,-0.5719275900088999,2.7856031982542477,14.089308605374283,10.9281762409397,4.64005931955104,12.554226656479745,22.94461873382547
32,1.3859635250433133,9.080818844658236,-7.454777015439946,2.3347734220117125,-0.39639113496088485,-0.35347700264083437,7.808576326447352,-0.47154369590881,2.924410811751268,13.873321108631519,11.394907296142916,4.993756424800426,12.510315654247307,23.108160006994524
33,1.805358383385374,9.912058823568474,-4.9203745660571405,2.819952936837249,0.23847478335080627,0.16456976044275484,8.231192590005293,-0.37030731757599455,2.9912101843003867,13.464227727799038,11.743875014729069,5.2478704869505455,12.34957208243853,23.088222038091814
34,2.1408495045682288,10.677556296930149,-2.5224542432126227,3.2484772489555644,0.819899753833953,0.6468712939012617,8.589135202241453,-0.26967259959664386,2.987907426376501,12.859325761788108,11.965563304054884,5.389002393566899,12.066784044806642,22.877245362543423
35,2.374086212935998,11.357183736697888,-0.31346046573645986,3.6111947049226623,1.3380378616737687,1.0907132691659853,8.877664528955137,-0.17104678169083573,2.9176943311492334,12.060615579940183,12.052837149417565,5.406105452303886,11.658823166643868,22.472405746116205
36,2.4898537484108774,11.932953962294581,1.6606118277825166,3.9005276919382506,1.7847162746993208,1.4938903597006465,9.093321268865441,-0.07574953698202967,2.784763806540851,11.074910575442534,12.0012037135564,5.290946426016264,11.124977981423958,21.87598756024014
37,2.4767457821850987,12.389714840557534,3.3615370894170464,4.110729378154799,2.153671591846267,1.854635082915664,9.233951180986935,0.015021985656336726,2.5940044294975086,9.913793238202798,11.809000296916059,5.038483220646976,10.46723278044822,21.095539360011788
38,2.327674989300015,12.71573114706289,4.759835172239856,4.238080629039464,2.4407242153451074,2.1715437861386357,9.298694179558092,0.10022117046895103,2.3507006454558455,8.593409952218279,11.477495522143375,4.64713598164914,9.690464815094877,20.14378990563657
39,2.040187743682632,12.903120066102375,5.8353798076946495,4.281019850040178,2.643885708105084,2.443512535203726,9.287943576886006,0.17897246691200352,2.060264993303427,7.134103576530641,11.010894174245616,4.118934020787411,8.80253538245173,19.038316646810888
40,1.6165643403721415,12.948117108514225,6.577638371762066,4.2402013761197805,2.763396099379273,2.6696918700461616,9.203281106246472,0.2505844936944979,1.7280241220628165,5.559891466000259,10.416242342048731,3.4595306696806585,7.814257569160582,17.800976195430987
41,1.0637036451593873,12.851162533139451,6.985562082324462,4.118481231058072,2.801690374251788,2.8494640387851753,9.04739281557613,0.31455602870723404,1.3590715649639125,3.8978053743211523,9.703236543372896,2.6780894160227136,6.739233949156952,16.45712460706395
42,0.3928064994132935,12.61681150582667,7.067161404908948,3.9208322665764594,2.7632960191648404,2.9824416511916754,8.823971041769767,0.37057522166664864,0.9581888101230592,2.1771160940316743,8.88394649237717,1.7870537674260152,5.593568276039577,15.034670680001513
43,-0.38111721639453083,12.253481200849668,6.83881119328352,3.6541933415749064,2.654665864382481,3.068484002667522,8.537608423695458,0.4185124196227432,0.5298255920680913,0.42846908711234555,7.972464840077886,0.8018178612582836,4.3954635235024435,13.563015439562514
44,-1.2398874220440292,11.773053501635749,6.3243344814532385,3.327258889976006,2.4839517775545596,3.1077265580087787,8.193690314827306,0.4584072487597934,0.07812421658706883,-1.3170410163509036,6.98449870930638,-0.259684667789881,3.164723710767166,12.07193496443617
45,-2.1629060637579776,11.190354130165172,5.553914320553143,2.950215942287768,2.2607251522827174,3.1006193379664992,7.798291017399824,0.4904510157043122,-0.39302768645578007,-3.0288280078161467,5.936918145963025,-1.3774576590040488,1.9221796026817657,10.590462755327092
46,-3.127989848077259,10.522530626998476,4.562881128804759,2.534435872413341,1.9956507389048364,3.047970306664122,7.358076743319819,0.5149659556305598,-0.8799280053150684,-4.677773389131384,4.847276743939725,-2.529971298214854,0.6890600998196913,9.14582369319579
47,-4.112250633086134,9.788354444830423,3.390420113760973,2.092128531669333,1.7001222270932048,2.9509899338550807,6.880214883515258,0.5323831577134984,-1.3789817435934002,-6.237155092301049,3.733320361399626,-3.694730088171453,-0.5136666296566609,7.762466003014396
48,-5.092990125237993,9.007476416893727,2.0782405636138996,1.6359675208650648,1.3858711129741255,2.811332969618625,6.372286290859049,0.5432208976800929,-1.8866169786948173,-7.683511134195082,2.6125010050612976,-4.848866567372129,-1.665955095028163,6.461231478987038
49,-6.048574407338815,8.199668805275092,0.669246595192747,1.178697148507611,1.0645637707468198,2.631133212186485,5.842195563812987,0.5480645733927726,-2.3991984848653534,-8.997402521394624,1.5015137107557914,-5.969745231176487,-2.749317519100639,5.258697433282096
50,-6.959252917571858,7.384089724117238,-0.7937529035698531,0.732733710939599,0.7474040662999021,2.4130266715828466,5.298073602231121,0.5475487539707462,-2.9129451625621026,-10.164041345487544,0.41587376510135693,-7.035558459464237,-3.7474012480059797,4.166715993352177
51,-7.807886756862733,6.57860602768111,-2.2692591634376695,0.309775630550485,0.4447596345992723,2.160158189472275,4.748166683238742,0.5423413386358549,-3.4238608043575653,-11.173754858129442,-0.6304498657846591,-8.0258945802463,-4.646479791441178,3.192167708152789
52,-8.580553086573588,5.7992083842638555,-3.718189261014551,-0.07956164485464727,0.16582920590155417,1.8761666174896166,4.200707018215622,0.533129577375046,-3.927688929946965,-12.022263249660144,-1.6253307818210048,-8.922258126418843,-5.4358327996536575,2.3369375769152514
53,-9.26699611281136,5.0595474279506565,-5.104841423307625,-0.4260695394702734,-0.08163347941238289,1.5651443409633372,3.6637613164742744,0.5206076388815765,-4.419900887268551,-12.710756645842178,-2.558698875451212,-9.70852375754591,-6.1079956247542775,1.5981128698198974
54,-9.8609009748649,4.37061303843227,-6.397692758022345,-0.7222131719488741,-0.2915263337301877,1.2315682974794895,3.1450561936066235,0.5054654063219938,-4.895723302384807,-13.245765051571443,-3.4226619843866497,-10.37130796189039,-6.658865442138106,0.9683932829303821
55,-10.359974900190677,3.7405703296164767,-7.570008084717541,-0.9623270899795542,-0.4595268251680657,0.8802016111809762,2.6517821168461353,0.488378181172389,-5.3502074146182,-13.63882362852582,-4.211529730327949,-10.900246400082759,-7.087658181672053,0.43669486659617845
56,-10.765830192520342,3.1747561185922057,-8.60024611804414,-1.1427290926746467,-0.5831360135275756,0.5159674764214804,2.1903808143211085,0.4699969663260573,-5.77833936186466,-13.905944791654747,-4.921738915328941,-11.288169550597033,-7.396718669152797,-0.01108018658736438
57,-11.083675733902723,2.6758287950925608,-9.472258435712124,-1.2617457881965524,-0.6616384734861537,0.14379990317025038,1.7663245672916774,0.4509389872151952,-6.17518723721155,-14.066918018876574,-5.551686172110071,-11.531175086654772,-7.5911952629858375,-0.39114522550041275
58,-11.321837102471754,2.244053103688711,-10.17528711659439,-1.3196491826732897,-0.6959831558561892,-0.23152077471899232,1.3838994448434787,0.43177813001407905,-6.536077688824077,-14.144467653799902,-6.101480842114402,-11.628601871665065,-7.678599657203075,-0.7208487033103506
59,-11.491138756456088,1.8776903299771701,-10.703777919521258,-1.3185101687214877,-0.6885955946512405,-0.6055364631159428,1.0460081496672349,0.41303512347325677,-6.856791692203151,-14.16330751868764,-6.572638604130903,-11.58291686894363,-7.668281876931045,-1.0176658086489827
60,-11.604192721106488,1.573455315188673,-11.057036087538647,-1.2619816175397611,-0.6431366815498825,-0.9742700868621464,0.7540111610602561,0.39516766948220833,-7.133765566118343,-14.149137342546881,-6.967742768799437,-11.39953136562776,-7.570858489674976,-1.2982210726748042
61,-11.674644287908926,1.3269966276137586,-11.238759569367183,-1.1550295872904108,-0.5642266958724416,-1.3343593204078512,0.5076260679573894,0.3785613103722277,-7.364279660419548,-14.127628008206013,-7.290103309550839,-11.086565226585577,-7.397636312424277,-1.5774002781271825
62,-11.716424636890258,1.1333569147468154,-11.256487963204307,-1.0036343898700442,-0.45715454333742156,-1.6831506985924511,0.3049029549823211,0.3635224075941725,-7.546614803280954,-14.12343920413589,-7.543441796374977,-10.65457621296525,-7.160072015393319,-1.8676025475279356
63,-11.743052878159142,0.9873774083761823,-11.121004030026771,-0.8144831339570391,-0.32759080038856314,-2.0187430633626415,0.1422878848095014,0.35027497567791127,-7.680157409809196,-14.159304776896958,-7.731623283772246,-10.11626558975985,-6.869299744946478,-2.1781696166434052
64,-11.767017601503428,0.8840219938164233,-10.845719075372257,-0.5946725465766375,-0.18131975225427965,-2.339975686694231,0.014777794186111153,0.3389631301580146,-7.765439211726598,-14.255210701813228,-7.858446160667995,-9.486163092099419,-6.535746887273188,-2.515011902470034
65,-11.799253897816566,0.8186090231365254,-10.446065998211104,-0.35143681646646047,-0.0240014689117298,-2.64636427071942,-0.08383956283718454,0.3296604251347114,-7.804106264368307,-14.427681863962746,-7.927491706250085,-8.78028707770177,-6.168846138827842,-2.8804341550183703
66,-11.848719210923855,0.7869505190073903,-9.938916365214729,-0.0919109732674834,0.1390288311180862,-2.9379948182064552,-0.16067535828285703,0.322386237300572,-7.798821971202772,-14.689188986970015,-7.942029412383467,-8.015772097584842,-5.776842775820552,-3.2731504549214296
67,-11.922062183138056,0.7854072745035915,-9.342031619344482,0.17706370815373124,0.3029199957885164,-3.2153888294281012,-0.22337923088040457,0.31712774002384914,-7.753117471718431,-15.047685493719307,-7.904972334420987,-7.210456920804812,-5.366690399448956,-3.688470239095347
68,-12.023373378536881,0.8108741108183776,-8.673553963925832,0.44908957553924267,0.4634212444282601,-3.4793528535261204,-0.27975082217905695,0.31386446224722053,-7.671207573367638,-15.506283612121539,-7.818877083472103,-6.382430421228329,-4.944025999393593,-4.118633132215044
69,-12.154005327544791,0.8607122883508225,-7.9515396080874075,0.7183186683262964,0.6169566447029944,-3.7308222542615956,-0.3373450647387991,0.31259157093934997,-7.557790421940291,-16.063077693401414,-7.685983442410009,-5.549539294799584,-4.51321425208974,-4.553268626444246
70,-12.31245154453509,0.9326465200421998,-7.193535551634486,0.9795193531709799,0.7606615102986103,-3.9707049283759344,-0.4030908033882507,0.3133380605556956,-7.417844845381886,-16.71111969346665,-7.508287772733201,-4.728868890564724,-4.077449789879997,-4.979955020564528
71,-12.49427950153851,1.024643171759277,-6.416200640291688,1.2281106042180618,0.8923867537734658,-4.199727280638561,-0.48293900811934803,0.3161767537898726,-7.256432942107295,-17.438547367938842,-7.28764249769812,-3.9362153381100904,-3.638904279506976,-5.38484983506064
72,-12.692119903184334,1.1347845569915602,-5.634972361233652,1.4601722632283396,1.0106783368063712,-4.4182833308961,-0.5815532329149044,0.32122417884077453,-7.078509957460126,-18.228860979979732,-7.025872035919137,-3.185573112558154,-3.198903633093638,-5.753362341053158
73,-12.895722507065761,1.2611516491925714,-4.863782874124847,1.6724393302400327,1.1147386533262758,-4.626289037801378,-0.7020522251001624,0.32862990588218083,-6.8887410682695105,-19.06134054101013,-6.724894827529545,-2.4886671431429157,-2.7581212667050194,-6.070839691880739
74,-13.092095419862062,1.4017238757776613,-4.114830420080402,1.862287191765078,1.2043755356233834,-4.823047217816317,-0.8458134068643868,0.33855658064005656,-6.691325970823196,-19.911593661632878,-6.386842192905472,-1.8545620961388776,-2.316776798593244,-6.323242085324604
75,-13.265748382070184,1.554300342170264,-3.3984139993866935,2.0277132584320623,1.2799432837938165,-5.007132354821651,-1.0123460155383481,0.3511532402694925,-6.48983602546055,-20.75222358541067,-6.014167326071449,-1.289382148295475,-1.8748345681269927,-6.497788108863716
76,-13.399059539051585,1.7164429346079992,-2.722838623288572,2.1673186777549502,1.342278819535707,-5.17630768992885,-1.1992428503760157,0.36652523791589275,-6.287073013601062,-21.553606274006114,-5.609740527906188,-0.7961706380770559,-1.4322000342136003,-6.583556434553054
77,-13.472779078091294,1.8854393283385247,-2.094395301205756,2.2802914402876784,1.3926345269019633,-5.327488304095799,-1.402218802167031,0.38470428361493686,-6.084961270703776,-22.284762870080936,-5.176928577618927,-0.3749095350518955,-0.9889124943541595,-6.572032224987866
78,-13.466672499541827,2.0582833522808506,-1.51741522334149,2.3663897861934258,1.432607706504575,-5.456762879349658,-1.6152423511411265,0.4056218225834295,-5.884485136662074,-22.914309258581962,-4.719656507548937,-0.02270462370837264,-0.545329908764272,-6.457585353602633
79,-13.360292880865137,2.2316709809534014,-0.9943926046742771,2.4259232654797187,1.4640655262776872,-5.55948316520724,-1.830763024685094,0.42908819821674266,-5.685681477990584,-23.41145897829531,-4.2424495118180685,0.2658735695458025,-0.10229778830251475,-6.237863758838558
80,-13.133857870778737,2.4020115022725634,-0.5261662334923677,2.4597285678641185,1.4890644788372653,-5.630424011308,-2.04003316605274,0.45477896835832704,-5.487692810983345,-23.747050541564388,-3.750452058338048,0.498317353862938,0.3387088133753232,-5.914080942429986
81,-12.769195794834012,2.5654542359845958,-0.11214635256965695,2.4691379232897908,1.509764571318589,-5.66400880880481,-2.233516090232728,0.482228840565736,-5.288880334966081,-23.894565310626838,-3.2494208207267166,0.6836126007380574,0.7754818794898121,-5.491174198534295
82,-12.25071722541556,2.717931133821024,0.24942885836703096,2.455938751604335,1.5283402439148697,-5.654586620437436,-2.4013652621300956,0.5108332462835825,-5.086988371036089,-23.831097188868355,-2.745687751845192,0.8316133161946676,1.2050256460218831,-4.977811540619126
83,-11.566363188242839,2.8552148409556453,0.5612244990946691,2.4223238329699526,1.5468917473187647,-5.5967400695398615,-2.533951564518919,0.5398573428524381,-4.879343734150823,-23.53823145721203,-2.2460895615204137,0.9524030090763338,1.6235573627775963,-4.386230947717908
84,-10.708478048252783,2.972990718346693,0.8265461309967883,2.3708314596498354,1.5673617578650385,-5.485599116760342,-2.6224090811991814,0.5684518682011646,-4.663067749299272,-23.00278919280224,-1.757860379159987,1.0556849391517866,2.0265667838312833,-3.731904382620766
85,-9.674553964983257,3.0669402515785054,1.0491013399389444,2.304274957347961,1.591461701501542,-5.317136206539588,-2.6591649807774695,0.5956748011212426,-4.435277152071096,-22.217397446757275,-1.2884857097518345,1.1502400475897334,2.4089339427486154,-3.0330293821786545
86,-8.467795197271215,3.13283266592994,1.2328029443137578,2.2256609682823005,1.620610521813599,-5.088422469610153,-2.638417026290581,0.6205174645487654,-4.1932538299730515,-21.18085354051293,-0.8455177992483148,1.243486328977987,2.765101588624283,-2.3098617231958323
87,-7.097455245156498,3.1666219353674507,1.381628100123114,2.138096352507286,1.655886447588397,-4.797831160546733,-2.5565240680808743,0.6419337166750514,-3.9345711879701484,-19.89826279558889,-0.4363549663108765,1.3411665618935307,3.0892959191976517,-1.5839133005484938
88,-5.578908783259387,3.1645475381000763,1.4995419449340717,2.04468465052621,1.6979909683528005,-4.445181628574689,-2.4122812844511152,0.6588712067885735,-3.657174647089288,-18.380941187229578,-0.06799041322600644,1.4471817457658958,3.375786288145118,-0.8770499693394255
89,-3.93343443392294,3.1232381643345883,1.590485692797853,1.9484145369914188,1.7472240478932224,-4.031823662495761,-2.2070625159198434,0.670304152777092,-3.3594233004051985,-16.646087480137027,0.25325998601595473,1.5635746293116732,3.6191704098371,-0.21053474245703835
90,-2.187703392117403,3.0398170809095464,1.6584181763667911,1.8520441874848776,1.8034699111520553,-3.5606669715133696,-1.9448250726604726,0.6752673656338323,-3.040107311247783,-14.716243445930228,0.5220360852806413,1.690652523860743,3.8146662919573986,0.39592849283331577
91,-0.37299037821841574,2.9120061122802694,1.7073897249076024,1.7579868170457702,1.8661928087528974,-3.036162857410716,-1.6319850970155787,0.6728910612202623,-2.698459284277016,-12.618574517604493,0.7341975497237466,1.8272242920975967,3.958387660650829,0.9250892198756775
92,1.4758565007022464,2.7382234186272494,1.7416215956164598,1.6682039534214157,1.9344419578760934,-2.4642444754163892,-1.2771810045773007,0.6624355529664983,-2.3341756722183513,-10.384013907652813,0.8870498517888733,1.9709164699004107,4.047578722822867,1.362921416833499
93,3.3216349149939774,2.517669785791974,1.765564842522955,1.5841142660623553,2.0068648818769566,-1.8522292736405073,-0.890947051028881,0.6433246157756366,-1.947456190143164,-8.046318482039466,0.9795102799423419,2.118529962508973,4.080787984152171,1.6992195338555802
94,5.126134539290504,2.250399308090103,1.7839185202237189,1.5065264618878151,2.0817289752668593,-1.2086838381572618,-0.48531916978369616,0.6151762768749142,-1.5390581447038523,-5.641084551067095,1.0121991247946356,2.2664013944406296,4.057968314984807,1.9279834286963935
95,6.851542828813811,1.937372015322906,1.801595356224316,1.4356040180735452,2.156951973295656,-0.543249301306181,-0.07339306267208055,0.5778298099647108,-1.110353356662681,-3.2047680350431085,0.9874502459279114,2.4107395122857547,3.9804987702246017,2.0475753011309514
96,8.461839800171981,1.5804866556098611,1.8236303410226935,1.3708668158854684,2.230142390341365,0.13357381507471747,0.3311475304735775,0.5313676072409576,-0.6633717847375467,-0.7737480349039076,0.9092423321029542,2.547913600028579,3.851130139026016,2.0606488728265244
97,9.924110368156418,1.182591071111586,1.8550329809968387,1.3112305061740461,2.2986506084322023,0.8106787626184417,0.7145153830382034,0.47613046230298056,-0.2008189049294733,1.6165333326257687,0.7830558067754431,2.67467564401888,3.6738597201341103,1.9738640293212653
98,11.209705838689468,0.7474663126808448,1.9005885071191897,1.2550800992473081,2.359630534266399,1.476636070921872,1.0633007705395636,0.41272479686057706,0.27393873368333876,3.9323288460881334,0.6156619700194695,2.788302237960522,3.4537426421140687,1.7974093598080887
99,12.295195643680197,0.27978044700068655,1.9646190137681243,1.20037141382173,2.410111188223738,2.1199955086416575,1.3649341764566865,0.3420205658907304,0.7569171600559288,6.142224187534165,0.4148533590499298,2.886649379644154,3.1966498830966743,1.544363018987249
100,13.163066765627615,-0.21498965349205554,2.05072263378292,1.144753248524227,2.4470774580207353,2.729592719730701,1.6081186525540088,0.2651389009641058,1.2435793549245344,8.217648710261422,0.18912889846747263,2.9681249680073196,2.9089884628990834,1.2299307254847134
101,13.802148842545638,-0.7306654488775243,2.1615155217548945,1.0857037156931226,2.4675592841478653,3.2948472052929993,1.7832219252774988,0.1834288876161128,1.728909866455115,10.133262691435142,-0.05264716413345845,3.0315969317652187,2.5974052763761013,0.8706071654030061
102,14.207763411744757,-1.2604945652621269,2.298404811400572,1.0206748668121761,2.468728358992817,3.8060405170320593,1.8826189750384708,0.09843320659086387,2.2074912226898267,11.867234145495846,-0.3015900830594389,3.076264176076268,2.2684991222368853,0.48331115113974643
103,14.381612740492237,-1.7972882301803568,2.4614192586823793,0.9472398544099152,2.4480008659325447,4.254566995513979,1.9009756628169345,0.011842868564655497,2.673579116043712,13.4014242984181,-0.5491206263670695,3.1015201428040253,1.928563956643217,0.08454523082243164
104,14.331435767790364,-2.3335579115279983,2.6491184919890225,0.863236488408938,2.4031439746616066,4.633153623476887,1.8354647071704437,-0.07455787038646608,3.1211805301948488,14.721503516344576,-0.7872522022568144,3.1068359352655484,1.5833816672599825,-0.31037179314533053
105,14.070466036652872,-2.861644703251435,2.858593329098215,0.7669006286168576,2.332382941615052,4.936049519234771,1.6859078879317195,-0.15895419777272504,3.544145391049713,15.817019220707435,-1.0088230624217325,3.0916841822622367,1.238076889037487,-0.6879558128392828
106,13.616730239072394,-3.373840716494736,3.0855602083142317,0.6569828279810015,2.234504821104703,5.1591876428107355,1.4548420579625385,-0.23956779429867342,3.936285483046445,16.681433977808357,-1.2076626290832289,3.055517717169757,0.8970404780895773,-1.0370565659207929
107,12.992227636803456,-3.862506741588834,3.3245440469183367,0.5328420525680091,2.1089538812036634,5.300319970035239,1.1475094264280297,-0.31472437625791555,4.291532870010435,17.31214551078401,-1.378686786319579,2.9978094162083244,0.5639223729000213,-1.3491811775586733
108,12.222031477628413,-4.320192184570225,3.569137215140922,0.39451109845473864,1.9559128719554095,5.359122671494567,0.7717731282648125,-0.3829176819755096,4.6041436077243505,17.710491705829792,-1.5179230657488954,2.918151531867704,0.24168897750727464,-1.6186310603467777
109,11.333353926865641,-4.739760954391684,3.8123182415241645,0.242729803324407,1.7763638055494242,5.337261726004197,0.33795759592790936,-0.44286599601012705,4.8689419971145735,17.88173421917021,-1.622472762663692,2.8164049098723893,-0.0672649667794848,-1.8424539510518578
110,10.354614891734238,-5.114522519480775,4.046811343664536,0.0789445275977414,1.5721224083953294,5.238404813339043,-0.14138874261078974,-0.49355767461831884,5.08158834731729,17.83500532503098,-1.6904228998938278,2.692881079123192,-0.3609649596215687,-2.0202254466557283
111,9.314550686278453,-5.438364073370418,4.265465380595057,-0.09472501413146266,1.3458416837019864,5.068164233242069,-0.6518120590013139,-0.5342827264228743,5.238842650154779,17.583195202493226,-1.720726125620774,2.5485338980908097,-0.6376852072776799,-2.153686708636207
112,8.241390214247035,-5.705879507885472,4.461627841095178,-0.2755487390298565,1.1009813909938166,4.833958548763401,-1.1773563268120442,-0.5646483648354959,5.338790989006237,17.14275233947426,-1.7130701878232788,2.3851328416233843,-0.8957797188385151,-2.2462763873716636
113,7.1621160595067614,-5.9124927784771595,4.629487030877954,-0.46027552876033667,0.841741536640415,4.54478733815809,-1.7010523422115242,-0.5845776690740695,5.381002770675099,16.53337021600169,-1.6677594014108155,2.205388065460065,-1.1335397705412023,-2.3026036454313297
114,6.101818580634797,-6.054575224781119,4.764355337952884,-0.6452453178768823,0.5729595140744803,4.210922555630204,-2.205489563551295,-0.5942921050194028,5.366594807585568,15.777540581652444,-1.5856277392784708,2.012999106180611,-1.3490992907359571,-2.32791326543214
115,5.083144717630918,-6.129557479027016,4.862869471535299,-0.8265203083550515,0.2999722823194515,3.84352915417712,-2.6734614015637823,-0.5942804196280452,5.29819085732786,14.899967003650751,-1.4679970802421425,1.8126049768062837,-1.540404320455038,-2.327591831204025
116,4.125839903449312,-6.1360367766849615,4.9230901153987405,-1.000031728578839,0.028446530399270097,3.4542345833678354,-3.088666238555101,-0.5852578005451878,5.179779448687724,13.926849223790217,-1.3166857416956466,1.6096235901262592,-1.7052548567945862,-2.3067559830208544
117,3.2463807719466757,-6.073879553586986,4.9444930078083695,-1.1617385000714076,-0.23581865976039293,3.054670950349289,-3.43643640816747,-0.5681198078850505,5.016485824149457,12.88506599976444,-1.134062797423976,1.4099824577968103,-1.8414179680736478,-2.2699508592760016
118,2.4576978977074533,-5.9443164853022905,4.927855020897331,-1.3077933866897147,-0.4871097695290186,2.6560159538170076,-3.704456409634577,-0.5438954419248724,4.814283644201649,11.801299101955234,-0.9231339892120305,1.2197585929241483,-1.9468010375568905,-2.2209707687893667
119,1.7689909568432527,-5.7500225563657485,4.875050780685179,-1.434710240711289,-0.7200271397565852,2.2685601004641915,-3.883421681927895,-0.5137029119133223,4.579677856313374,10.701152088294684,-0.6876370164972789,1.0447600693194974,-2.0196649908813202,-2.1627975911465516
120,1.1856422999089986,-5.49516975935547,4.788785625567047,-1.5395233552770855,-0.9297099589939944,1.901327793415041,-3.9675835023649815,-0.47871031953969473,4.319391469708895,9.608322468970579,-0.4321197035818966,0.8900915087035155,-2.0588513017372336,-2.0976386652203725
121,0.7092377576600424,-5.185436720107793,4.6722972119524435,-1.6199280770576319,-1.1120425251755368,1.561777109692967,-3.9551271994372676,-0.44010189612564576,4.040085377359794,8.54388349650394,-0.16197514188331524,0.7597493946249779,-2.0639943105901097,-2.0270373081699344
122,0.33770472273382646,-4.827959122318186,4.52906000569974,-1.6743918777368931,-1.2638269454379856,1.2555964887809623,-3.8483409753745286,-0.3990491304276902,3.748131709904282,7.525722183296112,0.11658728335423998,0.6562909192779948,-2.035691499187564,-1.9520258455587534
123,0.06557648127108469,-4.431207118292384,4.362524861866455,-1.7022270083091273,-1.3829099209433091,0.9866070685597526,-3.6535493922031437,-0.35668542412713433,3.4494490110716236,6.568165087862541,0.3966486986586523,0.5806133682416103,-1.9756081997093438,-1.8732918633663251
124,-0.11561246834942245,-4.004780504689141,4.175920730317073,-1.7036188300761679,-1.4682547606968255,0.7567692491484744,-3.380805646639556,-0.3140828590470239,3.149395006611912,5.681805748065937,0.6707702305836358,0.5318709330988795,-1.886499756456885,-1.7913320935780939
125,-0.21680352033327016,-3.559119372049789,3.972137244800981,-1.6796072981240908,-1.5199537780307462,0.5662832806153739,-3.043357085281052,-0.27223008269901583,2.852703598955737,4.873530298841124,0.9312600373897668,0.5075425949232389,-1.772143524986634,-1.7065746141773794
126,-0.25077875585242043,-3.105137249659192,3.753695540614411,-1.6320227394433198,-1.5391806540375477,0.41376763626507423,-2.6569167964061102,-0.23201095003826253,2.5634497387281505,4.146723199344143,1.1705026645781038,0.5036486875353076,-1.6371842625525754,-1.6194586588838966
127,-0.23144247193890477,-2.653794331140735,3.522801569600854,-1.5633808278087098,-1.5280870813980736,0.29649646061507107,-2.238788999235822,-0.19418423128058349,2.285029573812565,3.5016245816889087,1.3813274824336959,0.5150968234733423,-1.4869067929659319,-1.5304706740546272
