,AF3,F7,F3,FC5,T7,P7,O1,O2,P8,T8,FC6,F4,F8,AF4
0,-2.186684322669853,-2.294019456008594,2.595986732848426,-1.5171167013909492,1.0379955577612667,-2.082338630202751,-3.754132490132829,-9.268659312772579,-15.188421000871475,-8.037684638055467,-67.90473069882681,-6.973907796003186,-8.342069456577121,-11.293365086481536
1,-2.39230898269473,-2.8484958543540584,0.866871400504886,-1.8352563756545264,1.152045376569919,-1.0332224178169307,-4.410519276689084,-11.31435880887802,-19.36331327969061,-12.169738704878371,-65.91002571938206,-9.040367759570765,-10.492656170076039,-13.936042218386516
2,-2.574321518171912,-3.371109407511671,-0.8094199835620116,-2.150226274006052,1.2636315927699102,-0.01187379922163444,-5.07087683639646,-13.381215476741508,-23.54319552461079,-16.27118275537042,-64.14225545749295,-11.088110404893705,-12.63062110405397,-16.548137491323452
3,-2.7289136599838777,-3.851172543631711,-2.4123817402104644,-2.4603932759322165,1.3670313613902745,0.9560435622785037,-5.728075127225267,-15.43305293079814,-27.654410048822943,-20.285905244421883,-62.552332267076046,-13.090955581375537,-14.722873518885663,-19.094259694502203
4,-2.853449529910156,-4.279589282192718,-3.923544476435577,-2.7642679629777835,1.45702254532033,1.846719893410744,-6.375103015976388,-17.4345588808214,-31.625414475628503,-24.159667948310137,-61.09077775947704,-15.024141153907491,-16.737478191501754,-21.540574843751294
5,-2.9466973840694846,-4.649310299996411,-5.327057138539948,-3.0605849217645646,1.5289994344054176,2.638977178259662,-7.005371358146157,-19.35267524192394,-35.3894000949304,-27.841821676864328,-59.709095100023646,-16.865196467828998,-18.64467639030308,-23.855854898541477
6,-3.0089863439501094,-4.95569167566418,-6.6101884479151485,-3.348359622151022,1.5790673663198878,3.3149353340227505,-7.612962451982036,-21.157738565021518,-38.88649270315956,-31.28676693864867,-58.36088570589363,-18.594661136988567,-20.417764899921448,-26.012379353069118
7,-3.042275007228833,-5.196736830300469,-7.763725981713986,-3.6269182923557914,1.6041153102283299,3.8605381072193077,-8.192811508407804,-22.824321507819175,-42.0654505324595,-34.455102835613815,-57.0026861791405,-20.196614059241927,-22.033796517274446,-27.986649459120905
8,-3.050125777741722,-5.373210011892276,-8.782254820742605,-3.895900043452486,1.6018657882772942,4.265919552073175,-8.74081272554494,-24.331760811138142,-44.884831253148015,-37.31444116965285,-55.59452566646542,-21.658994309088712,-23.474081418250712,-29.75989033292152
9,-3.037586438910562,-5.4886195321201825,-9.6643031105916,-4.155233006792897,1.5709016605152417,4.525603872432397,-9.25385005819893,-25.66438931474234,-47.31364997649623,-39.83989331993384,-54.10022559686337,-22.97371297181907,-24.724485231386144,-31.318334076643467
10,-3.0109877670530985,-5.549077889039996,-10.412348181044438,-4.405087904437533,1.510669483036294,4.638543339409243,-9.7297592684835,-26.8115129023463,-49.331583972682175,-42.014259605162266,-52.48748005458659,-24.136570454825463,-25.77553385801473,-32.65329353025747
11,-2.9776712349024987,-5.563051906142065,-11.032682472607538,-4.645813024569448,1.421459410134382,4.608008417249505,-10.167231851126546,-27.767184200727563,-50.92879403185349,-43.82796203797191,-50.7277640834299,-25.147004931158516,-26.622344809122534,-33.76104756415452
12,-2.9456633408531117,-5.541018303730754,-11.535142525828627,-4.877854719342624,1.3043617537150267,4.441349635170852,-10.565672676520718,-28.52982378087184,-52.105429402800446,-45.27876239553871,-48.796118923336955,-26.007703389041403,-27.264409673759438,-34.642563897146445
13,-2.923313554830782,-5.4950396792379665,-11.932707127672066,-5.10166827873399,1.16120025760167,4.149651964925881,-10.925022986434957,-29.10173046513448,-52.870869411055914,-46.3713017744575,-46.67085942052465,-26.72410838317992,-27.705253744804434,-35.30308635573463
14,-2.918912472773324,-5.438274822316567,-12.240973687912486,-5.317625352401737,0.994442225620863,3.7473006652371117,-11.245560315484385,-29.488510380386955,-53.2427379002773,-47.116489576970956,-44.333242353934544,-27.303853144436452,-27.951998526566246,-35.75161316509312
15,-2.940306014368048,-5.384437329242252,-12.477526142381743,-5.525924820186442,0.8070863870608269,3.2514748016409047,-11.527687391454004,-29.698444514995316,-53.245714271462276,-47.53076300554266,-41.76712760778555,-27.756156587539937,-28.014851632621916,-36.000292863712104
16,-2.994520308671618,-5.347217911954368,-12.661213128007082,-5.726513126347828,0.6025310187473635,2.6815827583620604,-11.771722375596221,-29.74181045240379,-52.91016377938099,-47.635235369112905,-38.95865875081728,-28.091207887924437,-27.906546601883193,-36.063764661566495
17,-3.0874103245813145,-5.339687988035233,-12.811360865343149,-5.919017941857742,0.3844270323160468,2.0586536030861398,-11.97770249176913,-29.63017718630065,-52.27062270593625,-47.45475423212527,-35.895986641232206,-28.31956720932242,-27.641752842465856,-35.95846955760627
18,-3.223343681914314,-5.373704435687511,-12.946950230584642,-6.10269706590227,0.15652272436363993,1.4046986636788796,-12.14521277961275,-29.37570108900474,-51.364197426567905,-47.01689828964407,-32.5690590693268,-28.45160535619505,-27.236474310336106,-35.70195673345835
19,-3.4049296748361915,-5.459337296921516,-13.08579147426168,-6.276403840277657,-0.07749194294781997,0.7420585217826079,-12.273252256882964,-28.990462304423254,-50.22896106622511,-46.35095207406564,-28.969499747113222,-28.497001686586568,-26.70745533527229,-35.312207032612555
20,-3.632801999510819,-5.604343008986709,-13.243732212932064,-6.438570637266741,-0.31413319109418386,0.09275172113854638,-12.360150718128812,-28.485888798018532,-48.90244689112766,-45.486905380423195,-25.090598669921313,-28.464316591357452,-26.071612186848867,-34.80699228850528
21,-3.9054613179813935,-5.813704584676955,-13.433933476201323,-6.587211645879882,-0.5502545158396817,-0.5221568977582588,-12.403548565805293,-27.872315036136584,-47.42033631446493,-44.454525063424946,-20.92743054750816,-28.360651022198127,-25.34550743050792,-34.20328596413233
22,-4.219180597535503,-6.089256854286325,-13.666244402082118,-6.719944210175861,-0.7831510538200254,-1.0831481280371915,-12.400447240561764,-27.158711257895874,-45.81541960826073,-43.28253908693763,-16.477107474803564,-28.19140015688678,-24.54488020872459,-33.516737134498946
23,-4.567973369782733,-6.429410586848475,-13.946700140136791,-6.8340251806664325,-1.0106263791843144,-1.5727782805848673,-12.347328767425404,-26.3525990016663,-44.116873271962824,-41.997958531271856,-11.73915698776625,-27.960101982315173,-23.684240878298635,-32.76121686229074
24,-4.943624265786803,-6.828985788759846,-14.277161866574879,-6.926397016685202,-1.2310117148615938,-1.9761236991154914,-12.24033198644822,-25.4601437813696,-42.34985753377329,-40.62554667670567,-6.7159993635563975,-27.668375697280787,-22.776534673960555,-31.948443894193336
25,-5.335782768590073,-7.279162466975411,-14.655113609222221,-6.993738729294088,-1.4431310246148923,-2.28111821703351,-12.075463819960529,-24.48639235344685,-40.535399249446414,-39.187429018192816,-1.4134814758224756,-27.3159405367124,-21.832876532003755,-31.087695092537246
26,-5.732123641601982,-7.767555897237462,-15.073627132244077,-7.032518606622045,-1.6462111174099412,-2.4787672426617404,-11.848819535794808,-23.435604503725873,-38.690496386162,-37.70282657942313,4.158588353420347,-26.900703662282343,-20.862357415710918,-30.185604584232376
27,-6.118578811799797,-8.278421793718731,-15.521501779837426,-7.03904793037179,-1.8397424436744438,-2.563231302238668,-11.556787739260066,-22.311620799425285,-36.828365282338545,-36.18788860646163,9.985966906166235,-26.418906265495647,-19.871921182974738,-29.24605400115864
28,-6.479644342813566,-8.792994139368545,-15.983579713424344,-7.0095369687844045,-2.0233026011691444,-2.531783332063109,-11.196223111946535,-21.118210173480286,-34.95875425672453,-34.65560088682302,16.049625593367722,-25.865319353086377,-18.86631044667053,-28.270154835277573
29,-6.79876272117401,-9.289954852103072,-16.441228837502422,-6.940156230890382,-2.196359935552445,-2.3846551152213227,-10.764580322879224,-19.859354604694047,-33.088266981112554,-33.11575333652721,22.3255752764667,-25.233484138341087,-17.848080706209203,-27.25632381225005
30,-7.058776151583924,-9.746030215460864,-16.872977819778047,-6.827107100252247,-2.3580781016048697,-2.124796100006679,-10.260012634394274,-18.53944959926477,-31.220670866286607,-31.574963522152792,28.784902020701065,-24.515996123118036,-16.81768458073016,-26.200453500010916
31,-7.2424421913229216,-10.136704316887183,-17.25528179921687,-6.666706273912453,-2.5071432503872897,-1.7575707697551544,-9.681445510815513,-17.16342290821564,-29.357199235714493,-30.036766836001014,35.394028281634675,-23.704835952493205,-15.773630888381694,-25.096181563498337
32,-7.332999700751222,-10.437034771828168,-17.56339402287681,-6.455487858196742,-2.6416337764821036,-1.2904192363646643,-9.028637884073216,-15.736793334729002,-27.496880431825144,-28.501793837460156,42.11519218764343,-22.7917523045246,-14.712724255605778,-23.935261202160707
33,-7.314770741154824,-10.622550803362515,-17.77231674424886,-6.190325769983268,-2.758949157947228,-0.7325017147119041,-8.302242265804855,-14.265701488582476,-25.636934998541275,-26.96805726154124,48.907118048058,-21.768700761371868,-13.630388611985456,-22.70803189010815
34,-7.173781717541646,-10.670207994878163,-17.857802820984325,-5.868577453168147,-2.855809782416433,-0.09434291673693482,-7.5038708389394975,-12.756942881420704,-23.773271866232953,-25.431364066888655,55.725836309039245,-20.628337126580803,-12.52107256464817,-21.40398425212754
35,-6.898383623317343,-10.559367466494463,-17.797376675702665,-5.488247730169264,-2.9283336940145426,0.6125115813604778,-6.6361693719035895,-11.218022418510968,-21.901089745984276,-23.885852906578315,62.525602645090856,-19.364555054773728,-11.37872721958279,-20.01240629389295
36,-6.4798467022754975,-10.272760462460614,-17.571339606914524,-5.0481687794675905,-2.9721893135365356,1.3758176904702109,-5.70289577457796,-9.657232480009885,-20.015558703580766,-22.3246386315546,69.25986394689063,-17.97304850865139,-10.19733887457858,-18.523090596978093
37,-5.912900474778843,-9.79739383966742,-17.16372045719235,-4.54818896973492,-2.98281638718362,2.1829261101954662,-4.708996328885397,-8.083739440037297,-18.11252830281481,-20.740527926306548,75.88222228560103,-16.451871471276398,-8.971491544607595,-16.927073981919985
38,-5.196187574313335,-9.125349059459882,-16.563129418488813,-3.9893599050995037,-2.955701470004422,3.0210397641160456,-3.6606700815670976,-6.507650010394671,-16.189190465145273,-19.12675750573689,82.34735490096881,-14.80196117030561,-7.696928355586458,-15.217373234691514
39,-4.332600512000145,-8.254427891590698,-15.763471844523954,-3.3741079601677177,-2.886689439756734,3.877429666017237,-2.5654103301223743,-4.940022978947551,-14.244622793140364,-17.477700616049543,88.61185751697153,-13.027587011552606,-6.37107704240688,-13.38967409615143
40,-3.329474612937876,-7.188602710750952,-14.764481938630615,-2.7063745283471325,-2.772309215896153,4.739605307091035,-1.432011824870118,-3.392796573013303,-12.280154111412445,-15.78949059330483,94.6349880132266,-11.136686457025608,-4.993504161229268,-11.442928003474854
41,-2.1986170793511683,-5.9382377132050115,-13.572043674545299,-1.9917089224533473,-2.6100905463453343,5.595438458763077,-0.27053384975651223,-1.8786168092911766,-10.29952571983512,-14.060522164538495,100.37929557260023,-9.141052786509677,-3.5662663445768352,-9.379814027658082
42,-0.956160367659103,-4.520058321491254,-12.198277459616522,-1.2372996434979477,-2.3988496730181885,6.433243280750442,0.9077870312699502,-0.4105733824044958,-8.308860236055066,-12.291809084544495,105.81112566171002,-7.056348922660811,-2.094135003523286,-7.20703234444322
43,0.37776242636988866,-2.956858533663327,-10.661384369276885,-0.45193345586600153,-2.138924627867216,7.241820442686999,2.090675673079487,0.9981305465477625,-6.31648236435917,-10.487195214525432,110.90099381498041,-4.901935442725024,-0.5846816632086541,-4.93540874403035
44,1.7795115747425843,-1.2769500248596104,-8.985253997670457,0.3541229024376075,-1.8323451874742214,8.010477408039037,3.265004257256877,2.3345364728647557,-4.332652387662251,-8.653430170840718,115.6238227207548,-2.700517046466837,0.9517777207148722,-2.5798046584370424
45,3.222583926032849,0.4866280752676034,-7.198856091786517,1.1693170484267383,-1.4829273709763944,8.729039628602981,4.417016772553219,3.5862772874003874,-2.369270453390505,-6.800127493353209,119.95903986182702,-0.47762697746443944,2.5023712579024826,-0.1588417340867619
46,4.678374691628655,2.297105658487557,-5.335448888697488,1.981073357302822,-1.0962872275004516,9.387867397675636,5.532580730068782,4.741881754966285,-0.4395914575309743,-4.939622989301807,123.89053875337918,1.7390191619008473,4.051976386988686,2.3055377333560396
47,6.117020150299754,4.115140492154479,-3.4316466149945657,2.7761098998972695,-0.6797731684066605,9.97789058590182,6.597453965514809,5.791020114774814,1.4420358653694538,-3.0867456855393973,127.40651551911976,3.9202611462457435,5.583620474027398,4.7886446860856156
48,7.508281645616415,5.900089361459123,-1.5263930198880769,3.5407930830554797,-0.24231992841683883,10.490668791188043,7.59755500573259,6.724689209284666,3.260417233005781,-1.258506894368855,130.49920212979006,6.036281616322518,7.078953234682935,7.26371794952662
49,8.82243459121835,7.611339707169365,0.3401139400919424,4.261512930482023,0.2057699147788562,10.918478145588413,8.51922679912911,7.5353461701026525,4.999775995542692,0.5262925954974376,133.16452567237246,8.057404394831568,8.518769685859448,9.702667103157392
50,10.031133248900359,9.20965166434378,2.1275083944616595,4.925064343449127,0.6531090312896212,11.254419362479695,9.349485245754252,8.217002865742092,6.6440600214274665,2.247539086860569,135.40172778199,9.954872913580916,9.883568299801674,12.076855667913378
51,11.108229921493464,10.658463702100743,3.796326099406795,5.519023046367386,1.0875637020515263,11.492536355360714,10.07624587360257,8.765289717351635,8.177307680827408,3.8843655782546556,137.21297884068767,11.701588836075603,11.154135596115918,14.357902479234165
52,12.030533052643271,11.92511820962849,5.3090389147152335,6.032107412460391,1.4966362713791415,11.627932408944462,10.68852416831759,9.177490965116116,9.58406614281656,5.415786886876373,138.60301745432602,13.272800346410724,12.312151488913647,16.51848330259568
53,12.778490903058591,12.981965402441558,6.631041710310794,6.454517959316772,1.8678779724016603,11.65687197184375,11.176607702367326,9.452548827920022,10.849834355440127,6.821393463050056,139.57883773188823,14.646735047463125,13.340807334281433,18.53311584068628
54,13.336785916908712,13.807304739693551,7.731580212567294,6.778244931842229,2.189315484140452,11.5768603900935,11.532202028021155,9.591034449449529,11.961492964615289,8.082077992631401,140.14943634647383,15.80517353630415,14.225421738022442,20.378909224169448
55,13.694820811849953,14.386123174559847,8.584604841345103,6.997331794670757,2.4498719422997945,11.38670050184704,11.748557599744089,9.595089062640028,12.907687855306863,9.18076236788987,140.32561965210158,16.733956726358283,14.95402995228631,22.0362541870028
56,13.847072935029898,14.710590301315868,9.16952927699728,7.108080131365371,2.6397614206629187,11.086532201528726,11.82059037379285,9.468346496610643,13.679149608951299,10.10308919686886,140.11985962923893,17.423413682304588,15.51791329867688,23.489423209946004
57,13.793291440040614,14.780274432183791,9.471866565962006,7.109181184057494,2.750835787614595,10.677865923536864,11.745011227731435,9.215854026101091,14.268950213170003,10.838041178751508,139.5461779852622,17.868689993270717,15.912028328556996,24.727043912310197
58,13.538515489927377,14.602054243235413,9.483714073968777,7.001762224811044,2.7768652313735873,10.163620787755473,11.520476505311278,8.84400977202688,14.672713120517724,11.378453587720125,138.6200329048904,18.069954135372623,16.135295210825653,25.742409013344144
59,13.092902501619886,14.189719497582493,9.204063981461152,6.789341954151783,2.713739172155075,9.548172327917685,11.147763836552949,8.360530782896657,14.888798286911712,11.721390863270264,137.35818483225412,18.03246411178794,16.190714065553113,26.53359626858541
60,12.471371481261139,13.563279017183612,8.638927090248135,6.477696787475632,2.5595817194635755,8.837405094025243,10.629966093097806,7.7744576827323115,14.918478453831094,11.86836798578816,135.77852590512651,17.766487975257906,16.085295774975922,27.103390822283814
61,11.693082881867394,12.748018905616897,7.801270068958331,6.074647341791674,2.3147828988896118,8.03875505171237,9.972684647198223,7.096190886387239,14.766108111876735,11.825408599617973,133.89986888850063,17.287084852013802,15.829814976064512,27.459024038459383
62,10.780788193105417,11.773373440917798,6.710775093062293,5.58978000997601,1.9819517282485666,7.161219058232666,9.184193381406685,6.3375412614983615,14.439266555552996,11.602941112451319,131.7417011043825,16.613762166936,15.438410705649625,27.61175951917621
63,9.76008705514985,10.671681687519785,5.393433723572683,5.034121287776977,1.5657998176249632,6.2153067517078835,8.275539094917598,5.5117667257615635,13.948837301899275,11.215538912748526,129.3239135825002,15.770026598510377,14.928069815158258,27.57636419295692
64,8.658627211392094,9.476903779484537,3.8809844585605795,4.41978262185726,1.0729653584503074,5.212915156604798,7.260543478435978,4.633558546331367,13.308974328831994,10.68151186023222,126.66651486662192,14.782841234349378,14.318028708566608,27.370499806831088
65,7.505275224873714,8.223363082092282,2.2101981304840814,3.7595917938503973,0.5117876628429459,4.167117112580535,6.155677259692352,3.718940096342073,12.536906307611833,10.022356082794596,123.78933486257189,13.681992805888896,13.629122303873713,27.014060729242296
66,6.3292768875280165,6.944566750293211,0.4220102845753278,3.066724063305345,-0.10795801030598205,3.091868589018797,4.979788036151953,2.785048255519135,11.652545524640562,9.262071289052791,120.71172033288276,12.499365382321441,12.883099587918439,26.528472125942223
67,5.159419087584532,5.672141355010415,-1.439501823363717,2.3543431565823068,-0.7753563871912454,2.0016535207924013,3.753678312951831,1.8497830389255348,10.677896399890674,8.426361461630325,117.45222273343406,11.268114753497663,12.101917437721667,25.93595313456287
68,4.02320214564238,4.434906275617065,-3.328295033677921,1.6352595584806269,-1.478670507898488,0.9110941849185645,2.499547047298834,0.9313315825774783,9.636292961256027,7.54174543639715,114.02828175249596,10.021743344707419,11.30702173320421,25.258746561692877
69,2.946034288156583,3.258098477608653,-5.197673858035594,0.9216122044223674,-2.2056741143776213,-0.16544261024502502,1.2403234517873143,0.04759363538518395,8.551526089813741,6.634615321374537,110.45591325531002,8.793088385162156,10.518627676457644,24.51832154366075
70,1.9504669305226463,2.1627588285687205,-7.001708350952808,0.22457975212870832,-2.94398912468891,-1.214218568107714,-0.0010672012488656616,-0.7844481577258524,7.446940271091366,5.7302888261052525,106.74941652206954,7.6132531260870335,9.755017842861479,23.734567256724013
71,1.0554979277070193,1.1652905120073929,-8.696702047078238,-0.4458713259528705,-3.681418012280324,-2.222461313123879,-1.202461086233393,-1.5493627701126054,6.34457970444929,4.852103707893447,102.92112076636101,6.510528166274575,9.031884141343383,22.925010441796477
72,0.27597666404105387,0.2772013319538771,-10.242637454164827,-1.0811933125229358,-4.4062592601034085,-3.178661509818798,-2.3431925359436954,-2.2338625692779823,5.264445577818586,4.020598954662862,98.98119367833979,5.509363624034087,8.361746257528234,22.10410263561949
73,-0.3778525688821059,-0.4949591591788391,-11.604515868692797,-1.6744092802878296,-5.107592324332584,-4.072831462704769,-3.4047705974879134,-2.8273150981798922,4.223898115532215,3.2528204312368905,94.9375346486909,4.629459731683358,7.7534827055500095,21.282630624521538
74,-0.9006353411066974,-1.1494615529370293,-12.753508885744669,-2.2202019961846675,-5.7755176218305175,-4.896728038280686,-4.371463664072509,-3.3221505430919094,3.2372098885496228,2.5617809826774747,90.7957722733012,3.8850412734664115,7.212010106116273,20.467303486483246
75,-1.2919951532040963,-1.6890604219876704,-13.667851458517909,-2.7149335118622893,-6.401338216343148,-5.64403896247654,-5.230769087507782,-3.7141516091548032,2.3152596239463477,1.9560975773016858,86.55937978976061,3.284369989646277,6.7381407093098735,19.660561131813033
76,-1.5564134659959774,-2.120475578790127,-14.333427745428464,-3.1565937366998855,-6.977673880657951,-6.31052465480722,-5.973752246979394,-4.00261903148619,1.4653517019385383,1.4398211740212603,82.22991366185867,2.8295304408033712,6.328637159942797,18.860633037447297
77,-1.7029060547850634,-2.4537203671541135,-14.744026422536885,-3.5446823418295743,-7.498504546002974,-6.894100310007681,-6.59524468758225,-4.190407567122934,0.6911542226011597,1.0124685644232474,77.80737059327949,2.5165019212726274,5.9764682925291295,18.061853490573984
78,-1.7445148383402163,-2.701319447511802,-14.901266931695718,-3.8800344139327416,-7.959147191315304,-7.3948378557478796,-7.093893949567722,-4.2838254829996085,-0.007236601307890056,0.6692590132152075,73.29064839119589,2.3355056159160634,5.671253224487409,17.255214477351156
79,-1.6976458838404085,-2.8774669856214268,-14.814218802325625,-4.164604448055595,-8.356176129911361,-7.8148674060789824,-7.472060073731201,-4.2923880213656025,-0.6330828195049143,0.401551085149556,68.67808806707964,2.2715963023012433,5.399866611007003,16.429114367559194
80,-1.581291346831848,-2.997178083475491,-14.498750615996046,-4.4012244766307616,-8.6873001763231,-8.158164572656649,-7.735557254721356,-4.228415453154733,-1.1926115638907018,0.19746601343514156,63.96806981199161,2.3054548017913654,5.147168319307298,15.570244917050658
81,-1.4161750772225197,-3.0754813247666313,-13.976652528859036,-4.593350556313795,-8.951210928747182,-8.430223107073074,-7.8932448412893095,-4.106471820973264,-1.694418479776292,0.04267385510426643,59.15963462990031,2.4143326911253564,4.896817156334752,14.664554013725292
82,-1.22385888651823,-3.126689871505364,-13.274577410788309,-4.7448084050615735,-9.14741482600062,-8.637628935054197,-7.956479849737384,-3.9426522532642294,-2.1486661925288426,-0.07869187602672728,54.25310529588437,2.573103564701621,4.632129670737585,13.698226237514634
83,-1.025841100405803,-3.163775528014933,-12.422843638291669,-4.859545079089207,-9.276059058411995,-8.787567386314796,-7.938452675046581,-3.7537438387674515,-2.5661112370354044,-0.18303639345845565,49.25068197659333,2.755381649055115,4.336948524127268,12.658633214467779
84,-0.8426742021341947,-3.1978579900316504,-11.45414134188733,-4.941390925491416,-9.337759564716931,-8.887306421686834,-7.853437968174465,-3.556304747251217,-2.9570327523922706,-0.28627863432771183,44.156986936879875,2.9346738470641203,3.9964876900569712,11.535216013329125
85,-0.6931264564664557,-3.2378127242222,-10.402185913316703,-4.9938359782003925,-9.333439121433367,-8.943702559992886,-7.7160026468186995,-3.365724035162238,-3.3301692767140643,-0.4028628883022893,38.97952996041012,3.085532045543218,3.5981231684982746,10.320269855441534
86,-0.5934136143780498,-3.289996676721424,-9.300367666558175,-5.0198274667547,-9.264184331496892,-8.962772518014,-7.540220969579149,-3.195335240301495,-3.6917848354339338,-0.5448727323703733,33.72906425856009,3.1846686690892816,3.132098935422475,9.009606562283565
87,-0.5565297305290499,-3.358090994170543,-8.180452838797649,-5.021598759955988,-9.131130968872174,-8.949363617666982,-7.33895022762659,-3.055657053746534,-4.044976744595949,-0.7213074969197779,28.419803657537432,3.2119921504054654,2.5921189133371607,7.603072585390571
88,-0.5917088472644539,-3.443062479457848,-7.0713961880434795,-5.000542911833683,-8.935386887906123,-8.906942293736375,-7.123217726537568,-2.9538236093669332,-4.389307257531191,-0.9375694126283285,23.069475945636334,3.1515131215649568,1.97579652588401,6.104901011381599
89,-0.7040497451444938,-3.543247657241056,-5.998326713916666,-4.957144388985164,-8.678000128499933,-8.837505257329758,-6.901759326590324,-2.8932470828123056,-4.720796239985617,-1.195192095616291,17.69919436791768,2.992069703039657,1.284934463738135,4.52387657333616
90,-0.8943321413162115,-3.6545623459482575,-4.981763130576513,-4.890979786535119,-8.359976665810718,-8.741604469670335,-6.6807331698308285,-2.873529800767669,-5.032261053371672,-1.4918194726117602,12.33313956518997,2.7278236818712065,0.5256106896119813,2.8732960223490065
91,-1.1590436340102452,-3.770834835352204,-4.03710344705559,-4.800792801047798,-7.982347855787624,-8.618467148831343,-6.463613134608524,-2.890616817960795,-5.313942103887614,-1.821421274738758,6.998057375225447,2.358489587982071,-0.29194568079874894,1.17071386457169
92,-1.490623111298719,-3.88425329878798,-3.1744140571554977,-4.684641712132899,-7.546283011395609,-8.466186891550015,-6.251249587019413,-2.9371580332777683,-5.554317373102851,-2.1747109327728684,1.7225925485383102,1.889275025755418,-1.1536930477274714,-0.5625251336110005
93,-1.8779102560209977,-3.985908991646542,-2.3985204449936854,-4.540110413856416,-7.053238368022982,-8.281961868814015,-6.042073183327092,-3.0030347781203837,-5.740993780422915,-2.5397178366798974,-3.4635072464627483,1.3305313365481195,-2.042320115979505,-2.301952034930158
94,-2.3067743582471736,-4.066406579475571,-1.709377142987034,-4.364567431220444,-6.505129980644102,-8.062360233443444,-5.832411652138678,-3.076000408935646,-5.861570149883432,-2.9024603431091482,-8.530270820544537,0.6971364137313998,-2.9379666047135804,-4.02081006721697
95,-2.760881081345377,-4.116503035021469,-1.1026724433403112,-4.1554521495087835,-5.9045149534554575,-7.803599665265118,-5.616889002698516,-3.142386958211631,-5.904393129355256,-3.247668507971638,-13.448412299525065,0.007653367268848928,-3.8190811644567924,-5.691019538815849
96,-3.222545539816775,-4.12773002311547,-0.570607049822864,-3.9105648375000706,-5.2547634738142515,-7.501834803701633,-5.388879958384709,-3.1878380902690417,-5.859165542248924,-3.5595143954068496,-18.190213112234066,-0.7166737563753345,-4.663364772692031,-7.284218514777604
97,-3.6736161002427696,-4.0929544359077425,-0.10277796399301617,-3.628337778953504,-4.560204127203516,-7.153450875676936,-5.140997683085093,-3.1980389694177247,-5.717404856915519,-3.8223196341361656,-22.73032397297769,-1.4530161754753481,-5.448742533040849,-8.772820133426459
98,-4.09633619844398,-4.006838184694504,0.31290000049275163,-3.3080685202084625,-3.826227071734714,-6.755362968854497,-4.8655982012467645,-3.1594224032008573,-5.472777014160917,-4.021221029937064,-27.04644170185561,-2.178076787154901,-6.154308361074705,-10.131027953225686
99,-4.474139377676756,-3.8661693711557876,0.6892944194799911,-2.9501014169865707,-3.059333249492806,-6.305317695269237,-4.555288575545914,-3.059835095429573,-5.12134183496543,-4.14278280888173,-31.11982709190757,-2.8691619777147266,-6.761194439572748,-11.335757843148762
100,-4.792342481532058,-3.670049551797461,1.0392243223922195,-2.555948811255088,-2.2671219726235607,-5.802187834983482,-4.203426499503156,-2.889147415772658,-4.661741108554016,-4.175547181954352,-34.93564232689591,-3.5051550297053855,-7.253327309074273,-12.367426215114147
101,-5.0387111758436465,-3.4199338249181572,1.3747320593139578,-2.128347689206843,-1.458213411357413,-5.246243301692715,-3.8045964376568184,-2.6397864651651934,-4.09534506797141,-4.110513789160943,-38.48309747412384,-4.067349557069208,-7.6180419412531775,-13.210576551365275
102,-5.203880777846005,-3.119531321496361,1.7064793670876046,-1.6712520151187316,-0.6421068528619793,-4.6393770984301685,-3.355043495641883,-2.3071685592838858,-3.426355399194923,-3.9415353596372316,-41.755404711629154,-4.540113662599816,-7.846533333010884,-13.854327036958768
103,-5.281624728285598,-2.774583585660943,2.04327799119323,-1.1897655841784407,0.17101965931915825,-3.9852650597003385,-2.853043002028744,-1.8900064670993306,-2.6618497394069798,-3.665614509086486,-44.7495471658925,-4.9113676509956505,-7.934133178500863,-14.29263149429384
104,-5.26897249097088,-2.39254654201344,2.3917565067747857,-0.6900244636030479,0.9705578885888435,-3.2894425486009067,-2.2991826778631648,-1.3904702083318363,-1.811746806021108,-3.2830869183348246,-47.465877725634506,-5.172869984828534,-7.880408021496105,-14.524354597620452
105,-5.166186329933371,-1.982206161732798,2.7561592818761818,-0.17904030340026164,1.7457519172649547,-2.559287882657709,-1.6965358447923018,-0.8141877654962133,-0.8886730253291288,-2.797679416206361,-49.907572082484585,-5.320317074892458,-7.689084390909793,-14.55317071484706
106,-4.976611142747861,-1.5532573443292343,3.1382706369243167,0.335484726830791,2.485998565897537,-1.8039093926200034,-1.0507087913428066,-0.1700825280841119,0.0922807049259506,-2.216436915143779,-52.07996855961021,-5.35327121489793,-7.367814153396845,-14.387302611194707
107,-4.706413896145487,-1.1158714928965658,3.537455945877078,0.8453629559009362,3.1811501945379774,-1.0339398258284178,-0.36975327207370906,0.5299440423676178,1.1139124063338657,-1.5495188788029486,-53.98983401222613,-5.274936536151413,-6.927798787637773,-14.039120597782018
108,-4.364230456423446,-0.6802736140325882,3.950810234185551,1.3421404170653366,3.821806464005864,-0.2612478811396288,0.3360547336914443,1.271465043857724,2.1573616493469694,-0.8098734121802941,-55.64459997847601,-5.091805875303097,-6.383295155416117,-13.524624966997774
109,-3.960738468685034,-0.2563459205100689,4.373402943954843,1.8173265405757975,4.399584293071483,0.5014185654350075,1.0545584689435994,2.038088106851885,3.2026416460445706,-0.012804333638170535,-57.051616528088466,-4.813203708159756,-5.751028743825645,-12.862836149816568
110,-3.508175645775928,0.14672844270376975,4.79860498222565,2.2626317269313634,4.907357580207109,1.2408401052792846,1.7721661385216092,2.812090183675894,4.229225726126273,0.8245474209380408,-58.21747255460669,-4.450752672162414,-5.049543393934151,-12.075118532035715
111,-3.0198234959750088,0.5207712246280722,5.218481352053291,2.670209972925471,5.339459615521621,1.9437656556599643,2.4743737776511363,3.5750941680573716,5.2166614896447046,1.6837828538013888,-59.14742933371813,-4.017792906822589,-4.298518049807978,-11.184464661453168
112,-2.5094771079178697,0.8588572109011718,5.624229952022332,3.032902032018915,5.691841415271215,2.5973653531343652,3.1463374795292034,4.308756810412385,6.145187281837548,2.54585765992999,-59.84500780173947,-3.5287836175080507,-3.518079780555092,-10.214766236130101
113,-1.9909218044469035,1.155499999363426,6.006644797462241,3.344471909191701,5.962179245619016,3.189677161190361,3.773466348536679,4.995440989676691,6.996328839306272,3.3917025190686005,-60.31175936515922,-2.9987149429468216,-2.728138441618865,-9.190097247508918
114,-1.4774370702204123,1.4067724534830564,6.356580135710006,3.5998267191116726,6.149925337852881,3.710028922811339,4.34200808005446,5.618848755081101,7.753457704279844,4.202827149979285,-60.54723700030099,-2.4425557059153284,-1.9477638111872393,-8.134033580482107
115,-0.9813473700837939,1.6103596393653696,6.665390789787728,3.795207782716675,6.256297517059263,4.149420293470678,4.839600765444623,6.164593900377818,8.402295824678935,4.961887532875325,-60.54917025311812,-1.8747591607896577,-1.1946228730613353,-7.069032199852197
116,-0.5136382170857162,1.7655425502512188,6.925324158105468,3.9283398296034258,6.284205895986478,4.500852317027776,5.255766841306809,6.620694101057822,8.931351632648386,5.653198504540389,-60.31383567168922,-1.3088447071719655,-0.4844932918761834,-6.015891104246087
117,-0.0836530287317594,1.8731129232748278,7.129842003600887,3.99852607289107,6.238117795656525,4.75959461827186,5.582327762275928,6.9779635986955935,9.33227209753037,6.263175994252603,-59.83660312593484,-0.7570689218177165,0.16913233172427064,-4.993307945175727
118,0.30111903340680657,1.9352240662976095,7.273856519548561,4.006680257626119,6.123865707747824,4.923380317231518,5.8137212055075596,7.230289272579991,9.600094048413947,6.780694845704235,-59.11262838152102,-0.23019399894968373,0.7553392334892102,-4.017550616292132
119,0.6351611289398045,1.9551885482083613,7.3538744223569665,3.9552919692160518,5.948407164579012,4.99251750050323,5.947206645050134,7.374776611614793,9.733377897928301,7.197349946748456,-58.13765379041094,0.26264466086532895,1.2659715128129876,-3.102247212431475
120,0.9149564274756944,1.937238313278042,7.368052671160645,3.848327125651933,5.719549178366125,4.969905571331321,5.982949986080612,7.411757975543378,9.734209317875678,7.507611148859038,-56.90887238233318,0.7139776871008893,1.6956969477378727,-2.2582950734399447
121,1.1389343365121247,1.8862649896509391,7.316177418980455,3.6910704961724554,5.445652849913049,4.860947261852423,5.923983618855111,7.344663602509117,9.608060875547412,7.708867321206745,-55.42580566764039,1.1179623133640118,2.0419566211455673,-1.4938794548971885
122,1.3073475097725482,1.8075582476926877,7.1995826097847955,3.48992066657568,5.135335535999819,4.673353174887061,5.776044675481039,7.179765538522561,9.363516434985518,7.801362098352046,-53.6911418382544,1.47028640772069,2.3048074896660724,-0.8145837579372498
123,1.4220935255299154,1.7065585310622933,7.021026172755637,3.252149796058714,4.797188338415669,4.4168442342651275,5.54730112697174,6.925814673964756,9.011874523497864,7.788032346046422,-51.711479309095544,1.768042419679809,2.486674394419602,-0.22356753936707072
124,1.4864953046494425,1.5886373888557637,6.784540631019647,2.985640760017416,4.439525191895903,4.102766196073461,5.247981964973548,6.593599155690932,8.566659284095497,7.674268010254864,-49.497922039792826,2.009597245939579,2.5920356426716804,0.2782135596059557
125,1.5050534260292086,1.4589142932576606,6.495271782722798,2.698613198884967,4.070176288747556,3.7436372415884454,4.889933114946168,6.195456211441863,8.043075006715796,7.467616320398433,-47.06647940381029,2.194478731141758,2.627069998921911,0.6917705890222784
126,1.4831821118820607,1.322114164883362,6.15931460616727,2.3993483454489097,3.696333516329857,3.3526533840926196,4.4861240187855325,5.744767786906575,7.457440156504349,7.177452592867629,-44.43823511784256,2.323290596651339,2.599290630404918,1.019846724144132
127,1.4269393665907768,1.1824659077977706,5.7835506408798905,2.0959212746328593,3.3244499118441864,2.9431771102008693,4.050130482938043,5.255464472351687,6.826630062768294,6.814634651615259,-41.63926553599295,2.3976571084489327,2.5171844453114045,1.2666972437976562
