,AF3,F7,F3,FC5,T7,P7,O1,O2,P8,T8,FC6,F4,F8,AF4
0,-7.503270956588275,-3.338680697722724,-0.32019400519724783,-2.4967344027311777,-3.759364711801858,-3.9536697323275267,-1.517551494164483,2.701429318398294,-2.0455864825310255,-1.8429091901890238,2.6575555383465397,-2.6240432968009624,-2.8756367621261596,2.7323704988611315
1,-6.941669109001361,-3.223902047317221,-0.3889531451708311,-2.22913628012363,-3.536737994757566,-3.5809183559720887,-1.2886896720556136,2.4618438161928444,-0.9097389514383898,-2.5613334117342554,2.6154850831601313,-2.6683534714179937,-2.1206982854422782,3.274637693032611
2,-6.394999701458746,-3.1045323800569604,-0.4773440826323832,-1.9618181381539426,-3.31093873929864,-3.21406743205461,-1.0755264907701554,2.242713395802227,0.2165144014227181,-3.2542645870970546,2.61467724827591,-2.691225307255068,-1.3458391791013533,3.8129048891412256
3,-5.865191830787666,-2.9729554577957567,-0.5902280647180509,-1.6907719753830628,-3.0751936341740684,-2.853402814455558,-0.8814367754573441,2.053307732823049,1.3222648514164956,-3.907460042824386,2.6630559703607086,-2.6792262054034586,-0.5505547042096105,4.338593800265427
4,-5.354161132066543,-2.8224278772275713,-0.7314891453218475,-1.4124765033083324,-2.8234940169112415,-2.4992331670643826,-0.709247712209858,1.9020433796506446,2.3974735907831883,-4.50790618247683,2.7669368788356072,-2.6208461635862084,0.26447383738432995,4.84302888209074
5,-4.863953796547446,-2.64745866980232,-0.9039539401841833,-1.1241208249547414,-2.5509006972591606,-2.151860795077691,-0.561092958796686,1.7962916057548812,3.4334611811436577,-5.044251718982405,2.9305277167335997,-2.5072296213524092,1.09712835386367,5.3175330473639555
6,-4.396807213207854,-2.4440837160957423,-1.1092908060272446,-0.823767495808669,-2.2537744372914683,-1.8115660149276878,-0.4382906062236127,1.7421856703426717,4.423248353466458,-5.507197836208208,3.155499545716955,-2.3327288837778526,1.9436608931396426,5.753548319224701
7,-3.9551146121106684,-2.2100168794684185,-1.3478829601457984,-0.5104431701818678,-1.9299178910055859,-1.47860284008623,-0.34124868911697864,1.744440049407811,5.361741308730686,-5.889818257216489,3.4406641675337784,-2.0952419346460345,2.798579711932854,6.14279154429376
8,-3.5412931080465566,-1.9446724538211868,-1.6186783240472669,-0.18415090310107396,-1.5786203827177605,-1.1531975916618484,-0.26939978267315284,1.806200381723876,6.2457780858119785,-6.187781297921212,3.7817898857303973,-1.796315209580254,3.6546333328294223,6.47745131028779
9,-3.157566403484235,-1.6490662589803624,-1.9190281903555517,0.1541949640890692,-1.2006035014492316,-0.835538774175682,-0.2211648512124126,1.9289444756811418,7.074068249272636,-6.39945145613245,4.1715772937883235,-1.4410113353960299,4.502904489993715,6.750423657529657
10,-2.80568284229323,-1.3256126972043218,-2.24453453340984,0.5029036142395068,-0.7978723554060818,-0.5257471972579182,-0.19394549952098564,2.1124512531975372,7.847064774984648,-6.5258579563938675,4.599802001510695,-1.0375601914330461,5.333016312781407,6.9555738209989455
11,-2.486595617402111,-0.9778410126904774,-2.5889299753580812,0.8596988602901954,-0.3734836366771871,-0.22381963906937546,-0.18414332266080538,2.3548467065707452,8.566804196920966,-6.570529422880529,5.053616110956024,-0.5968266480463961,6.133443204191958,7.088003348280414
12,-2.2001351950886257,-0.6100562818584215,-2.9440150282435713,1.2219492129776919,0.06875314770564,0.07045399522311896,-0.1872056715961707,2.652725483186048,9.236739846785161,-6.5392058246109315,5.517987817371196,-0.13163894745944202,6.8919102769763105,7.144299309920672
13,-1.9447053672639598,-0.22697080850098517,-3.2996756469395834,1.5869174246857278,0.5246207923882449,0.35759301384806214,-0.19769903704652997,3.0013360330205456,9.861576831551336,-6.439450047037797,5.976249709802838,0.3439719211293443,7.5958584096808694,7.122744262382345
14,-1.7170342683996727,0.16666879707303794,-3.6440013687776225,1.9520092635093738,0.9898620094222955,0.6385353402186691,-0.20941383341122827,3.394808967009023,10.44710159832979,-6.280190657350113,6.41072098770447,0.8155688858502838,8.232947206898901,7.023469840055426
15,-1.5120098008791154,0.5664339136193738,-3.9635199093697797,2.3150016627925125,1.4605431697270992,0.9147390645652389,-0.21550620373616672,3.826404339636868,10.999988708777543,-6.071232814151542,6.803366976259833,1.2690898704366311,8.791566217868045,6.8485423240181715
16,-1.3226243639522464,0.9685215466013035,-4.243556955825711,2.674232142048947,1.9333867987814675,1.1882617877496413,-0.20868189174378513,4.288754646212134,11.527565816600143,-5.822774302128155,7.136461363710394,1.6915674009976318,9.261326335550706,6.601975085637575
17,-1.1400463004340566,1.3699958232008875,-4.468719869933851,3.028734728541415,2.4060468192269098,1.4618061108511773,-0.18142356309481017,4.77408559394082,12.037524677045852,-5.5449584971326,7.393221845886069,2.0717503388265333,9.633507652508131,6.289669135934655
18,-0.9538257853657299,1.7689466664421127,-4.623492098748448,3.378312272834616,2.8773046241691844,1.738723466162045,-0.12625717969977923,5.274404307360139,12.537578392298803,-5.247487630399914,7.5583963730569685,2.400602307919339,9.901445384253993,5.919287178991986
19,-0.7522321112184973,2.164555841147265,-4.692912910075215,3.7235404661447373,3.3471704994247937,2.022972503854141,-0.036047176098824414,5.781652494484349,13.035078959207604,-4.939310320994314,7.618782995365863,2.671661386058041,10.060840237557496,5.50006800397896
20,-0.5227083619368557,2.557068661685413,-4.663306401786878,4.06570445801411,3.8168826718516566,2.319031462610892,0.09569377994374759,6.287828589264751,13.536620906305322,-4.628388318315831,7.563670774990553,2.8812539352624005,10.109983478334456,5.042588069731554
21,-0.2524191206880576,2.947677777592868,-4.523016134904733,4.4066741558585045,4.288804146774747,2.6317657006719193,0.27449579873938723,6.785087028558608,14.047663745682247,-4.321539182396239,7.385193063316686,3.028563203581938,10.049890670473523,4.558477618408049
22,0.0711416913597124,3.338332202598915,-4.26309805070446,4.748728460611791,4.766224685583401,2.966252084659286,0.5046377114780773,7.265824362983436,14.572206857862081,-4.024344612240506,7.078588566718571,3.1155615769632905,9.88434230708857,4.060100499693517
23,0.45952109745677644,3.7314889497077224,-3.8779245904875466,5.094341535606708,5.25308147872982,3.327562421970362,0.7888800056816783,7.722761125801939,15.112545685166923,-3.741109175776689,6.642370084312964,3.146823399991665,9.619834081778073,3.560209343713771
24,0.922695063626564,4.129826117630031,-3.3656569079760303,5.445945901625255,5.753617269074337,3.7205100653556316,1.1282351685724852,8.149025751576247,15.669129132345542,-3.4748524850917613,6.078404469187409,3.1292412371085234,9.265443372770852,3.0715892006465304
25,1.4685115032622709,4.535936056417072,-2.7285495278294376,5.8056881629307755,6.271998831995685,4.149368021833061,1.5217853884519146,8.538242865240155,16.240526338224583,-3.2273200739227406,5.391909052574478,3.0716709995497915,8.832620912900401,2.6067025244357205
26,2.1022207416223133,4.952016584486248,-1.9730622521143382,6.17519373631625,6.811921627320339,4.617572759301941,1.9665582823416752,8.884623828126905,16.823498357670626,-2.9990036415892356,4.591369551509017,2.984530679065371,8.334917596272591,2.1773470545962668
27,2.8261193562020583,5.379577584738372,-1.1097666925379512,6.5553567947237505,7.376227764814678,5.127433544820112,2.457472411048094,9.183053923990594,17.413159695396793,-2.789167874089009,3.6883834231973225,2.879374608486855,7.787656320651302,1.7943365001980194
28,3.6393252858566556,5.819179246052328,-0.1530486143873559,6.946170284450481,7.966563940828777,5.679870655038198,2.987364597881268,9.42916942276618,18.003209047214995,-2.595886502730348,2.697431494842211,2.768461293589901,7.207558144850863,1.4672118233901486
29,4.537693050862126,6.270216339796384,0.8793787911117242,7.346608352724219,8.58310386022705,6.274206452424331,3.5471097123296698,9.619419562123568,18.586208918552934,-2.416093282151983,1.635579820619879,2.6643287463040055,6.612331487364062,1.20398809613805
30,5.513869228467116,6.730760608914397,1.9671231780235545,7.754570392592071,9.224356127369632,6.908031323846994,4.12584041648604,9.75111245059209,19.153897868127324,-2.245654080043273,0.522113768653111,2.5793876978762196,6.020233184728347,1.0109390024931828
31,6.5574814441876805,7.197471365985792,3.0878859457718306,8.166892606858696,9.8870735654833,7.577161846214435,4.711269243380748,9.822448193615125,19.697523338956337,-2.0794651853118507,-0.6218921159251375,2.5255406513330247,5.449610762827542,0.8924192254917666
32,7.655449288683143,7.665582973702254,4.218316900321056,8.579429487049524,10.566273189225264,8.275701168281339,5.290108260974075,9.832545423948698,20.208185042193218,-1.9115813142724998,-1.774062331724004,2.5138333680398706,4.918435460009476,0.8507249332833892
33,8.79240199096673,8.128976598451798,5.334904875593476,8.987203852199245,11.255368158566197,8.996202338819714,5.848573291236312,9.781468148818613,20.677179095573216,-1.7353747953798428,-2.9112576750727035,2.55414464495011,4.4438354168860625,0.8859944349977108
34,9.951184954579547,8.580341872237877,6.414858326393059,9.384620296075894,11.946405254354795,9.729926030097236,6.372951859466062,9.670258512933742,21.096333485013997,-1.5437244665798575,-4.0101492340210045,2.6549197918193572,4.04163928842102,0.9961540654259743
35,11.113435447909525,9.01143091667272,7.436932428256873,9.765733112574413,12.630394582142443,10.46717632052244,6.850208187799623,9.500977883787458,21.458326491130993,-1.329228978214137,-5.047813232247944,2.822952604349046,3.7259431325735157,1.1769168956643379
36,12.260206357674209,9.413401227039127,8.382163989513781,10.124555758406112,13.297712250141874,11.197692340670994,7.2685948369502205,9.2767537195539,21.756979876766707,-1.084435957211923,-6.00232797318747,3.06321915191359,3.5087164962636863,1.4218422974569558
37,13.37261493080209,9.777234749026556,9.234481370198745,10.45539462269927,13.938551446941332,11.91106966885523,7.618238207128909,9.00182362341943,21.987516104547865,-0.8020779256553265,-6.853353637171835,3.37876393776072,3.399464486736181,1.7224616809316304
38,14.432490403961106,10.094209906960861,9.98116253392268,10.753185888904655,14.543392934284494,12.597183659569362,7.8916633665120886,8.681562314420358,22.146764232324706,-0.47530872125662976,-7.582678228360102,3.770635148108882,3.4049596378419187,2.0684697594237895
39,15.42299118672752,10.356394498635355,10.613120245074443,11.013811546223135,15.10346310924724,13.246587626219508,8.084222991395723,8.322474021915973,22.233295575181476,-0.09793863869158771,-8.174717476707189,4.23786146936184,3.529051664512311,2.447973113553909
40,16.329160496443343,10.557122516470761,11.12500024845187,11.23436986348334,15.611147235077931,13.850861677415594,8.194396717202135,7.932133663502317,22.247471237037786,0.33533063384649847,-8.616960449038602,4.77745945319645,3.772557774177597,2.8477821383833093
41,17.138390675178336,10.69141772487448,11.515087144950078,11.413377146945123,16.06032787594059,14.402892357533599,8.223931984609836,7.519064976859608,22.19139033154846,0.828670874857866,-8.90035360942129,5.384459161834975,4.133233278020599,3.253731432667991
42,17.84077166576294,10.756331155051916,11.785023879732313,11.550881482595575,16.446624234686492,14.897068552922379,8.177806257188259,7.092550644611427,22.06873795903437,1.384895005197513,-9.019613765267392,6.051937978837137,4.605821589859072,3.6510166661110994
43,18.429307789941795,10.75116818905249,11.939363454656633,11.64847556594283,16.767516441114758,15.329385243299186,8.064003429657442,6.662376321973605,21.884542109327935,2.0052347335314997,-8.973456724204024,6.771057834139294,5.182182709639845,4.024539840019157
44,18.899997425585457,10.67759224520401,11.984984034455099,11.70920429511803,17.022348613682347,15.697453441148998,7.8931130952060125,6.238516503206197,21.64485624380249,2.6891387556078525,-8.764726009530746,7.531108150824244,5.8514987907437535,4.359257293604366
45,19.251780458186825,10.539603815266357,11.930409250491206,11.737372184620842,17.2122142074696,16.000421393456477,7.6777772607394335,5.830775425015093,21.356389290759857,3.434104495730586,-8.40040591239752,8.31956380155881,6.60055415415284,4.640525662837536
46,19.486366924163896,10.343403202309624,11.785082848109765,11.738264024363271,17.339735530864967,16.238817793948048,7.4320219122860065,5.448400715243751,21.02610792474318,4.235557853602192,-7.891505692592352,9.122173057875917,7.41408535669793,4.854441355410179
47,19.607966276319903,10.097151306167522,11.558649983520203,11.717798319976156,17.40875573737282,16.41433174172408,7.1705185344216185,5.0996907669998395,20.66083727121683,5.086795683620256,-7.252806751651811,9.923094090060804,8.275194816329194,4.98816966008754
48,19.622940295413287,9.810645414738518,11.260295932678387,11.682136645289226,17.423966145331978,16.52954660133004,6.907822885166512,4.791618154143365,20.266884980274195,5.979003854278148,-6.502471881640837,10.705099041633991,9.165818809454363,5.03025994288623
49,19.539404354088,9.494927608406684,10.898186764833456,11.63727345864799,17.390494812540506,16.587646272177373,6.657635848980215,4.529490462995335,19.849709912527963,6.901358828138131,-5.661524860832054,11.44986110013063,10.067236743326097,4.970942589358168
50,19.36680146506573,9.161843394116282,10.479046328930666,11.58863053936736,17.313483896997,16.592113018259287,6.4321254671621295,4.316667047024078,19.413651307114137,7.841213198138879,-4.7532189885679665,12.13833222981632,10.960603272478068,4.80240111662131
51,19.11547084843999,8.823568029206541,10.007890810382962,11.540678169784803,17.197682935293454,16.546435708193535,6.241341562943879,4.15434626286287,18.961728409915246,8.784357623235785,-3.802323091832458,12.751208591331395,11.827479383084082,4.5190098316819345
52,18.79622803025813,8.492117815845724,9.48792775308023,11.496601848807877,17.047082537805704,16.45384515490533,6.092745477860595,4.041433567185876,18.495515276900388,9.715345700414522,-2.834360755926615,13.269469346663035,12.650335504889338,4.1175249259219395
53,18.419968381987882,8.178863813350253,8.920612911741122,11.458029399855489,16.864608742429596,16.31708854998161,5.990867993161127,3.9744969411977764,18.01509174535379,10.617865812636847,-1.874841074129413,13.674964935829733,13.413000780990304,3.597216580157765
54,17.997302209839727,7.894066144639552,8.305847341668107,11.42482969069118,16.651893351031067,16.13824867363553,5.9370997248271,3.947812525340303,17.519069365684025,11.475144185683247,-0.9485168758555743,13.951024954294724,14.101037439897178,2.959932166000243
55,17.538227413012486,7.646447789756908,7.6422892021709155,11.394991300544866,16.409130694720375,15.91860803098907,5.929611501933475,3.953499846866969,17.00468921039577,12.270364298223011,-0.078700759498919,14.083054070898775,14.702025905759772,2.2100848083424833
56,17.05184435772658,7.4428261331751635,6.927749253563327,11.364587146387045,16.135026705354417,15.65855560387919,5.963398182940472,3.9817424115580415,16.467985866112816,12.987087965541042,0.7133374574371609,14.05908584043578,15.205753027387386,1.354565445617649
57,16.546115723813458,7.28781744245138,6.1596353983831165,11.327828641559755,15.82684188859781,15.357535437564989,6.030438055275273,4.021085983310679,15.904009070252572,13.609663032205802,1.4088744203487187,13.87026689046821,15.604301524408415,0.4025790464858817
58,16.027671694726255,7.18362430249132,5.335410125738585,11.277209966593611,15.48052573406289,15.014040992668132,6.119960989744994,4.05880422685217,15.307092613121908,14.123602919081447,1.9921259158166225,13.511246989508303,15.892043266621686,-0.6345927589996081
59,15.501659457438027,7.129910861536768,4.453026304183564,11.203739643821317,15.09093622849514,14.625664407523203,6.218820684411877,4.081319744116972,14.67115918804338,14.515925247908914,2.4505217061246864,12.980454696299548,16.065543034941896,-1.7438983676878792
60,14.971636916428313,7.1237675430360055,3.511311946960344,11.097253133680239,14.652134314555335,14.189211821658413,6.311967333634403,4.074667275231327,13.990048354046236,14.775440290256046,2.7748616928061027,12.280244629856076,16.123383782431738,-2.910884265150669
61,14.439513498973369,7.159765844847409,2.510282606464424,10.94679667670635,14.157739258652636,13.700892213829478,6.383014582447582,4.024984344583202,13.257852146857887,14.892984222044547,2.959359121833672,11.416910647159899,16.065929129025857,-4.120111012113753
62,13.905544261846188,7.230103728563967,1.4513693994472703,10.74106924490041,13.6013273738109,13.156578336949975,6.414888202341481,3.919013199385218,12.469240942006042,14.861596576334557,3.001582976565022,10.400567988427065,15.895043241407922,-5.355597589545166
63,13.368385560485944,7.324841589803527,0.3375597214180049,10.468906659958133,12.976854241110315,12.55212740252957,6.390535342058144,3.7445972191030448,11.61976344885311,14.676645853833861,2.90231741095106,9.244915215880726,15.613791622963078,-6.601269688915321
64,12.825220212928194,7.432226919530586,-0.8265451549389039,10.119789797655184,12.279079887233898,11.88373987504318,6.293665023190868,3.4911550993031604,10.706109740195606,14.335911479702377,2.665359876612924,7.96689223331027,15.226147623454592,-7.841385766955737
65,12.271956637912918,7.539101620904071,-2.0347475047359818,9.684356946175297,11.503976793281211,11.148329576533156,6.109484728992839,3.150116415130475,9.726332913839656,13.839632626173714,2.2972797693886893,6.586252808956256,14.73672743003685,-9.060916934141554
66,11.703500148989226,7.631379516489848,-3.279336579601252,9.154898784623636,10.649101492141206,10.343878001536394,5.825395897251064,2.7153024290105923,8.68003039114598,13.190533364004658,1.8071553942188572,5.12506898276698,14.15057085199049,-10.245862257894855
67,11.114087483958164,7.694574750921017,-4.551228912304954,8.525813876481433,9.713911962154404,9.469749726835358,5.431613932953894,2.1832370045268084,7.568488397079881,12.393829598707784,1.2063007241940313,3.607182748134556,13.472978456131607,-11.383487688882852
68,10.497670380760296,7.714357343929468,-5.8401548704228015,7.794003821617194,8.700015557981255,8.526952819582185,4.921685905699235,1.5533754056103581,6.394793284008363,11.457218813546362,0.5079880492838872,2.057620591658545,12.709410434831105,-12.462482459340341
69,9.848331609291089,7.677111281425298,-7.1348777462063016,6.959190138773645,7.611335872118372,7.518336420849289,4.292889426325292,0.828243830359671,5.163912232176315,10.390851090161005,-0.27282972125346683,0.5019899825378422,11.865450023902367,-13.473030604877856
70,9.160716059332762,7.570471898068726,-8.423429051831562,6.02413849433671,6.4541909912272954,6.448724764297714,3.5465059702124453,0.013488121427049044,3.8827435962070758,9.207278912510088,-1.1197931644326615,-1.0341186863149603,10.946832569801192,-14.406798079597378
71,8.430458115073455,7.383820565448474,-9.693344257829603,4.994778860590826,5.237279128679111,5.3249901842652605,2.687967790465536,-0.882166573239276,2.560132681607336,7.921381425476975,-2.0154030265252345,-2.525699974793496,9.959537756519438,-15.25683991307834
72,7.654583620078149,7.108714757237093,-10.931888107366651,3.880212231645996,3.9715700864794314,4.156066041421265,1.7268778933740585,-1.8470440317186658,1.2068418468768392,6.550254502879456,-2.941278809522083,-3.9488505541764143,8.909935896037927,-16.01743863627104
73,6.831861249280146,6.739231366922236,-12.126266181182656,2.6925964540376057,2.6701028293189375,2.9528955570868405,0.6768986529676492,-2.86673522242709,-0.16454263715744885,5.113052597477199,-3.878414791049068,-5.281223530850194,7.8049707474353,-16.683893794198635
74,5.963076183352424,6.272202728232514,-13.263826212292269,1.4469067354119416,1.3476915348207361,1.7283076140496683,-0.44449973116448754,-3.9244111890223157,-1.5397858242592875,3.630765358807253,-4.807445040330818,-6.502417312728166,6.652353604291401,-17.25228941520744
75,5.051200502849398,5.707329605703775,-14.332256204763636,0.160571182659782,0.020545545877304526,0.4968082751024741,-1.6164407145473978,-5.001233714980546,-2.903273630277319,2.1259140739312437,-5.7089310924529855,-7.594304244771719,5.460739056665883,-17.71926898303319
76,4.101440605937919,5.0471635980530705,-15.319786108691293,-1.1470115621007786,-1.2941869087481066,-0.7257217274343893,-2.8151980627642765,-6.0768609876695585,-4.238375970527235,0.6221602100947813,-6.56368268306398,-8.541308938412707,4.239853628596307,-18.081845333632533
77,3.1211520328148064,4.296962058912727,-16.21539614097651,-2.4550570907958775,-2.5789355601097395,-1.9224272944730738,-4.014902651583307,-7.1300363382153185,-5.527888270481634,-0.8561713743958151,-7.353114638539296,-9.330646878634987,3.0005542186833303,-18.337266849940498
78,2.1196250059224786,3.46443036845469,-17.00902856791981,-3.742057649666942,-3.816263465356565,-3.0759703605195954,-5.1883799812547275,-8.139238062779288,-6.754524742870321,-2.2846415823160777,-8.059634394604428,-9.952530186838175,1.7548017851731554,-18.48295225575331
79,1.1077572342923454,2.559377001983008,-17.69179240439908,-4.986489189497314,-4.989433410931811,-4.16909282197063,-6.308083690988148,-9.083360184956872,-7.9014319516144305,-3.6392977828993103,-8.66704749388736,-10.400340548938589,0.5155443339572099,-18.516495998129457
80,0.0976409063539348,1.59331360819276,-18.256144827117463,-6.167524875361257,-6.082955009042473,-5.185219979668317,-7.347078184011832,-9.942390219003343,-8.952693817516419,-4.897301484828854,-9.160964573367659,-10.670762251226407,-0.7034896114156209,-18.43573786415959
81,-0.897904105817192,0.5790334309034623,-18.696032014841272,-7.2657161584525545,-7.083082824466236,-6.109066791521332,-8.280017356005711,-10.698051050761629,-9.893807207125164,-6.037558366129432,-9.529192812322712,-10.76386420742178,-1.8880803132373336,-18.238886603054794
82,-1.8658192701824898,-0.46980273115960985,-19.006976561174778,-8.263606223989578,-7.9782399443317225,-6.9272083927433945,-9.084067143678544,-11.334378559401994,-10.712116322485818,-7.041328017343358,-9.762096198241855,-10.683120283428563,-3.0238774122136194,-17.924687246188945
83,-2.79329136216781,-1.5390512027711662,-19.18610694949146,-9.146247802300222,-8.75934780415743,-7.62858049893229,-9.739726032821395,-11.838212667728088,-11.397200505113473,-7.8927928098791895,-9.852910699016162,-10.435361162816212,-4.096815874150935,-17.492622359937755
84,-3.6682098048393916,-2.614427275029956,-19.232133815458777,-9.901606326515635,-9.420050388536605,-8.2048826859259,-10.231507561739031,-12.199585678016804,-11.941211913201327,-8.579566227547122,-9.798001497734344,-10.030655968846226,-5.0935671742539785,-16.94313611699763
85,-4.479581131187102,-3.6817981808828955,-19.145284936670453,-10.520838273758192,-9.956827850104592,-8.65086619569852,-10.548459716217385,-12.411996968408966,-12.33915666062425,-9.093120335125414,-9.597049547506113,-9.482125571954798,-6.002001862964914,-16.277866860205084
86,-5.21788825411237,-4.7274261529438775,-18.927214254319875,-10.998441659455672,-10.369000335613624,-8.964496315065793,-10.68450599544913,-12.472566858030126,-12.589106951433576,-9.429110313383253,-9.253154109269083,-8.80569088272496,-6.811636509429373,-15.499870165794672
87,-5.875384542712008,-5.738162387621926,-18.58089936322231,-11.332280679924086,-10.658627275962466,-9.146986809188439,-10.638601148570858,-12.382065138641698,-12.692325692162106,-9.587572713539782,-8.77283730000742,-8.01975851178623,-7.514035851960477,-14.613811248544708
88,-6.446313940521066,-6.701592647427766,-18.11053771350557,-11.523490354314701,-10.830311079235553,-9.202710349350742,-10.414701639913403,-12.144812754503167,-12.653282633823132,-9.572975202536,-8.165937079588462,-7.144843928180987,-8.103140735769143,-13.626103493125031
89,-6.9270498843010415,-7.606135744633313,-17.521446138387113,-11.576271122296955,-10.890917727743311,-9.13899446829588,-10.02155775655961,-11.768459798313586,-12.47954485385529,-9.39410078593452,-7.445378231100857,-6.20313060433094,-8.5754954276624,-12.544970244765151
90,-7.316149061441157,-8.44109929274853,-16.819963535559904,-11.49758835828321,-10.849230484335816,-8.965817224944363,-9.472341441920005,-11.26364989218913,-12.181534998923732,-9.063759766529309,-6.626818238135956,-5.217964815773001,-8.930355124518083,-11.38041133742895
91,-7.614321112160807,-9.196702430017778,-16.01335393694593,-11.296796867909809,-10.715556163583273,-8.695420260131879,-8.784130852518453,-10.643589195798574,-11.772166172709838,-8.598336918350173,-5.7281759123432465,-4.2132903906182175,-9.16966525700539,-10.144064393992561
92,-7.824320312061299,-9.864079975392443,-15.10970632307159,-10.985213954583427,-10.501305145089173,-8.341859102702552,-7.977277914836514,-9.923545580967776,-11.266378100667593,-8.017195803708502,-4.769061950500066,-3.2130339231293963,-9.297915883154817,-8.848962008000905
93,-7.950768190720192,-10.435284152799175,-14.117827264864244,-10.575665528383562,-10.21856604501351,-7.920511438398257,-7.074687917787195,-9.120307777070959,-10.680610281090077,-7.34197285841477,-3.7701390136943815,-2.2404564140283862,-9.321884189687768,-7.509197211786648
94,-7.999917297942778,-10.903298363672498,-13.047122874707979,-10.082028359252805,-9.87969422345034,-7.447563848839469,-6.101040836398669,-8.251634530150916,-10.032251377736232,-6.5957994360847945,-2.7524435970442136,-1.317491487137464,-9.250284895878673,-6.139519423621369
95,-7.97936746619921,-11.262073809338723,-11.907468391149868,-9.51878874187429,-9.496930672359749,-6.939496605972198,-5.081983577727672,-7.33572012424505,-9.339099694564924,-5.802491116970615,-1.7367036097892865,-0.46409395742187953,-9.093352653320208,-4.754890007668445
96,-7.897747178314643,-11.506595076137502,-10.709066751860322,-8.900633571656853,-9.082064357341567,-6.412584540687674,-4.043320969516623,-6.390695547351378,-8.61885858696424,-4.985740801654908,-0.742684230036203,0.3023746351391057,-8.862382363224214,-3.370029459586919
97,-7.76437309744676,-11.63297565129047,-9.462300539625417,-8.242084115076155,-8.646146810548139,-5.882429666841993,-3.0102309724814025,-5.4341755857651775,-7.8886767581905755,-4.168346229523202,0.21140989870395682,0.9676957488389164,-8.569252454411272,-1.9989867804357504
98,-7.588900412141728,-11.638579736112849,-8.177584169450318,-7.557176774626341,-8.19926321401406,-5.363538259827053,-2.0065267563402065,-4.48285422509474,-7.1647323491997845,-3.371496349918339,1.1094539669969812,1.521251316160315,-8.225953861679148,-0.654757413624344
99,-7.380976425360671,-11.522163748431785,-6.865225570702726,-6.859190692429896,-7.750360029684662,-4.86895194554933,-1.053985906849219,-3.552147361538229,-6.46185653521034,-2.614137846477239,1.937826086671737,1.9563618984296531,-7.844146109151946,0.6510281110281645
100,-7.14991016071507,-11.284029517074362,-5.535309007077091,-6.16041986209882,-7.307125754675966,-4.409939512027649,-0.1717656144728434,-2.655884134104544,-5.7931974729218245,-1.9124436830949492,2.6857185074609187,2.270478835262693,-7.434762341137099,1.908325586567273
101,-6.904370942160042,-10.926180258044266,-4.197611875076261,-5.471986956604453,-6.8759189192946035,-3.9957538656236697,0.6240780927175219,-1.8060538523782539,-5.169934409645537,-1.2794068413060895,3.345322922537135,2.4652060663836597,-7.007685372867156,3.1087923826710684
102,-6.652128275071284,-10.452469104431884,-2.8615667874830963,-4.803696653593414,-6.461736697055237,-3.6334570146469027,1.3209498932290367,-1.012620404818291,-4.601058417580416,-0.7245806905048198,3.9118797868976642,2.546134272355614,-6.571514143396536,4.245786050971409
103,-6.399844011978489,-9.86872834150736,-1.5362756953247287,-4.163927676722951,-6.068218872471872,-3.3278151957456723,1.9099383335742455,-0.28341687207502786,-4.09323665358977,-0.2539808410819505,4.383589064271301,2.5224822993762923,-6.133433593210496,5.314244823065094
104,-6.152926023922852,-9.182866251544711,-0.2305763357341339,-3.559564710922324,-5.697684537805574,-3.0812658110622646,2.3858918891593817,0.3758713395471573,-3.6507711369840194,0.12984738775160765,4.761389697615218,2.4065567068496687,-5.699192499403159,6.31045903166449
105,-5.915450307082015,-8.404918118208563,1.046845772680163,-2.9959728323889796,-5.351201080555708,-2.893957046345932,2.7473446558355246,0.9616351599643038,-3.2756532824422124,0.42760415222474696,5.048624807405145,2.2130567368311014,-5.2731851377056715,7.231752262863645
106,-5.690155074915306,-7.547038398732411,2.2873135704271434,-2.4770171486460044,-5.028685764966218,-2.7638595723566595,2.9962979836751416,1.4721929028382912,-2.9677050444089432,0.6428727871115131,5.250617201560635,1.9582665231861975,-4.858624396998785,8.076099695889623
107,-5.478505403811744,-6.623421760401844,3.4820035541622216,-2.0051285186226986,-4.729039489970701,-2.686947688609409,3.1378744152412685,1.9075831562303247,-2.724789400679425,0.7816494900836606,5.37418524730314,1.659187561521345,-4.457785562915579,8.841719522574158
108,-5.280820755014544,-5.650141317397387,4.621806601034762,-1.5814127241860714,-4.450310409044922,-2.6574448845641316,3.179869207359591,2.2693238510608027,-2.5430691415752795,0.8518014894215712,5.42713319220663,1.3326714969187716,-4.0722916727598015,9.52668123075864
109,-5.096451707872989,-4.6448938689146955,5.697235374075681,-1.2057962635495396,-4.189882511852148,-2.6681263348963857,3.1322309156552817,2.5601612956595057,-2.4172942982230214,0.8624934089215225,5.4177517218461855,0.9946146698932459,-3.703405532899799,10.128578825743878
110,-4.923988377510048,-3.6266458379872164,6.698408402983407,-0.877198446945022,-3.9446818637192367,-2.710668407122863,3.006504795326718,2.7838274323264356,-2.341103837191245,0.8236195890976996,5.354362006863411,0.6592699031496688,-3.3522931307185346,10.64431413587423
111,-4.761482276255895,-2.615180749180264,7.615134194933911,-0.5937177270976585,-3.7113916559604654,-2.7760325296376602,2.8152712422736164,2.9448154997849545,-2.307333514027625,0.7452736666826701,5.244929568533392,0.33871777195296277,-3.020229064421822,11.070024199097887
112,-4.606665591574644,-1.630558599729579,8.437107137498563,-0.3528204392144652,-3.4866665254029106,-2.854867524549784,2.571607401486403,3.048176837784877,-2.3083256608247447,0.6372785433554351,5.096765161129502,0.04252159959768636,-2.7087249298303417,11.401169344545972
113,-4.457155734016448,-0.6925073824205831,9.154212942269035,-0.15152202042306512,-3.26733647179615,-2.937911454589186,2.2885944769205353,3.099336866800317,-2.336236297708752,0.5087926387300729,4.916320975206535,-0.22242869765005005,-2.4195733833612825,11.632778572816546
114,-4.310636635232605,0.1802248696851358,9.756927407855274,0.013446519286676877,-3.050591038126647,-3.016372526077575,1.9788868067243464,3.1039268616605313,-2.3833309714558477,0.3680029156573304,4.709083117228535,-0.451895633970283,-2.1548110318970344,11.75983051499222
115,-4.165010102919424,0.9705244548635666,10.236780690593047,0.14549179119868136,-2.8341351525158514,-3.082269503703899,1.654352259589795,3.0676295969953187,-2.4422557430516467,0.22191120601173936,4.479556000353464,-0.6441198282297289,-1.916610565215009,11.777735349721645
116,-4.018510772120033,1.6635388887566198,10.586851901004321,0.24803461316846684,-2.616309035557444,-3.1287154362316936,1.3257880107649818,2.99604033114801,-2.5062665986321075,0.07621713265236868,4.2313308310563205,-0.7995225715277994,-1.7071165218200552,11.682876851207917
117,-3.869778753147558,2.247244501610476,10.802256037534944,0.3244132157063843,-2.396165982210288,-3.1501337962525278,1.0027118437497171,2.8945483973215937,-2.569400983148323,-0.06470245092121188,3.9672277044310116,-0.9203177338021815,-1.52824105537894,11.4731725624771
118,-3.717886815577547,2.7129263003058997,10.880585848515807,0.37781535723185444,-2.173504078175768,-3.1424023855439116,0.6932266761704384,2.7682469646046424,-2.6265796849337466,-0.1977220879210248,3.689497399673011,-1.0100658032138792,-1.3814375643579992,11.148610880000403
119,-3.5623240171130615,3.0555447458032807,10.822273831421581,0.41123953134001595,-1.9488512051843965,-3.102925911147584,0.4039544633333099,2.6218776560494916,-2.6736356923024696,-0.3208153203695705,3.4000641657707935,-1.0732028091456622,-1.2674719094645943,10.711724360009459
120,-3.4029434617810614,3.2739666313749574,10.630843830006922,0.42748257237099563,-1.7234064326469996,-3.0306417165948902,0.1400341811041062,2.4598121950360423,-2.7072776905581817,-0.4328399634386926,3.1007856187856353,-1.114576216014278,-1.1862130631230752,10.167958895791978
121,-3.239886159885534,3.3710404922395614,10.313027892879386,0.4291483790053867,-1.4989440627388801,-2.9259648529613838,-0.09482351484695015,2.2860664682643206,-2.725006712579571,-0.5332872128542029,2.79370220329584,-1.1390175568037102,-1.1364664464890337,9.525900548940792
122,-3.0734946333258675,3.3535024658798487,9.8787322780585,0.4186707285942601,-1.2776887138560025,-2.790679502736917,-0.29823520280996463,2.1043360869603833,-2.7250111599087616,-0.6220254333901761,2.4812478280769303,-1.1509770150585905,-1.1158725941204861,8.797327487929323
123,-2.9042295565297787,3.2317063975423843,9.340845970949161,0.398341966722602,-1.0621711517151056,-2.627784409891991,-0.46901016994002737,1.9180391978049756,-2.706065232530374,-0.6990696857322977,2.166395802342591,-1.154238742814885,-1.1208900127402937,7.997063941931127
124,-2.7326014095686024,3.0191812685186625,8.71489465299303,0.3703386609629701,-0.8550752801140544,-2.4413003876372454,-0.6069968541012363,1.7303528618989958,-2.6674490876921393,-0.764403310460296,1.8527204066233447,-1.1517283838404346,-1.146873688419257,7.142625921736794
125,-2.5591268011146684,2.7320290867958628,8.018552060072977,0.3367358538549191,-0.6590864592326581,-2.236048021826774,-0.7129240687125471,1.5442330717249515,-2.608898932847302,-0.8178688711520458,1.544364099765941,-1.1454169442819466,-1.1882505584251009,6.253664246953191
126,-2.384314985943053,2.3881872770235195,7.2710293319493,0.2995040220395816,-0.476749905508842,-2.017403698607689,-0.7882483199471002,1.362413809042809,-2.5305857854735145,-0.8591344913242005,1.245911812083711,-1.136318368161263,-1.2387827353335223,5.351227837863813
127,-2.2086842600483947,2.006591106291199,6.4923715441958,0.2604869626793147,-0.3103457110288814,-1.791042744632645,-0.8350146333048456,1.1873857578260474,-2.4331156457543512,-0.887730848857959,0.9621845691117622,-1.124572172738739,-1.291900437150831,4.456887168497833
