,AF3,F7,F3,FC5,T7,P7,O1,O2,P8,T8,FC6,F4,F8,AF4
0,0.0758788110760309,0.44244301849562084,-0.6661210159171288,-1.7756153215392056,-0.35771449393041355,-3.559125315801229,-3.972503963864927,0.30689070181919115,0.6544496951810894,-2.413771283181283,0.0022959001033564194,2.163555778420956,-3.767894922117491,-3.4999835226374936
1,-0.26141473883643,-0.3482898690056366,-2.545883519006958,-2.7950187331508998,-2.419454797632432,-3.9625741498486184,-4.526029286714287,-0.6084352393473357,0.24916687547687263,-3.9604947830959234,-2.2389113484070378,1.5966087653351226,-5.687763354492339,-4.544040190916404
2,-0.5969200774079647,-1.1416728325163985,-4.41147745905722,-3.8131637496916677,-4.474909604425035,-4.390319666434234,-5.079615601762032,-1.5051914595692826,-0.14741758528465196,-5.483083596427606,-4.455160068006459,1.0441112169287772,-7.583126762792759,-5.565283209528707
3,-0.9252370454007041,-1.9277899309481334,-6.24283256173286,-4.8169986403328675,-6.506977651968557,-4.849466783030382,-5.630166337634444,-2.376346066452829,-0.5280295371351187,-6.959191405595197,-6.619595334110896,0.5205689358679936,-9.420261367006399,-6.541452125702424
4,-1.2412060020685989,-2.6966411494583045,-8.020828720199619,-5.793640784475361,-8.498952054648692,-5.345879670909436,-6.174687047775392,-3.2156058460431023,-0.8854776543994527,-8.367638771739745,-8.70661823769903,0.03943143756412662,-11.16712836519587,-7.451459142880238
5,-1.540142579947142,-3.438335111295532,-9.727828816614611,-6.7306649333195585,-10.43482343183232,-5.883871099104188,-6.710341835541826,-4.017579095783083,-1.2128728294821258,-9.68906076087914,-10.692566789508453,-0.3874260779562899,-12.794332357824134,-8.27609690942573
6,-1.818051390109434,-4.14328474754963,-11.348148416059276,-7.616375104902487,-12.299553574172968,-6.46594902749573,-7.234504053232303,-4.777921637779589,-1.5038539435330616,-10.90649751477215,-12.55633507808593,-0.7501449855684522,-14.275970163931502,-8.99867549416808
7,-2.071808211165905,-4.8024036660124985,-12.868443697619913,-8.440055208417656,-14.079315790100672,-7.09263493020769,-7.744798792973091,-5.493459675722274,-1.7528156447683876,-12.00590570881572,-14.27990696196936,-1.0412264836087766,-15.59033586866621,-9.605564937357084
8,-2.2992988944544988,-5.407299405709208,-14.278000114656127,-9.192192816496883,-15.761700198357023,-7.762363573602447,-8.23913235120041,-6.1622809613144955,-1.95513065898498,-12.976569414944285,-15.848781812693717,-1.255756074113328,-16.72045326197891,-10.08662166813874
9,-2.499503209212296,-5.950458316978923,-15.568906751633376,-9.86466979472694,-17.335883131000557,-8.471468236853207,-8.715702144080998,-6.783784131240887,-2.10735560380588,-13.811391376952084,-17.25227355072902,-1.391495809735568,-17.654414999113563,-10.435479912628791
10,-2.672513693593724,-6.425415749712844,-16.736106515217916,-10.45091359269903,-18.792759834684666,-9.214249782597786,-9.172980050624517,-7.358675911093017,-2.207406177974305,-14.507050320711445,-18.483670406775527,-1.4488401439882563,-18.385518094884844,-10.649693486798435
11,-2.8194834563485958,-6.826904432450816,-17.777320299731993,-10.946003952541163,-20.12503938017407,-9.98312363636943,-9.609663725303278,-7.888908087532414,-2.254686375441895,-15.06401594756349,-19.540250710457165,-1.430642430942483,-18.912196458849856,-10.73071951469906
12,-2.9425030026290435,-7.150973672016664,-18.692853330484883,-11.3467315510949,-21.327300875062182,-10.768836152252414,-10.024594723087846,-8.377551149661759,-2.250158068740207,-15.48641992535751,-20.42315838201331,-1.341930175466899,-19.2377620703412,-10.68374372881725
13,-3.0444139653687294,-7.395072936527068,-19.48530232739864,-11.651607601138043,-22.39601107704647,-11.560740371916873,-10.416648616543258,-8.828608511004107,-2.196341470436271,-15.78178806531744,-21.137149523804812,-1.189535812255761,-19.369976411839303,-10.51735637384934
14,-3.1285751359723726,-7.558095420893495,-20.159190354769425,-11.860826145316855,-23.329504769610846,-12.34711955757577,-10.784608400742142,-9.246782235606176,-2.0972421012790603,-15.9606453882167,-21.690227573271127,-0.9816744903026857,-19.320482162054898,-10.243096932029736
15,-3.1986013366217403,-7.640379540667184,-20.720560070266085,-11.976182953431751,-24.127929992814554,-13.115544815762766,-11.127036057960364,-9.637206084712208,-1.9582048616498948,-16.0360113466221,-22.09318828735233,-0.7275008472868416,-19.1041311098137,-9.87489355486021
16,-3.258097989457828,-7.6436686962657845,-21.17655550891502,-12.000956505358001,-24.793160489483444,-13.853251678706409,-11.442157469565926,-10.005163579264003,-1.7857006148777503,-16.02280731097861,-22.359097854237785,-0.4366744041297574,-18.73824761388,-9.428428743062495
17,-3.3104143547437586,-7.571032460548696,-21.5350191091102,-11.939757948069287,-25.328678282054046,-14.547520585333382,-11.727773736607881,-10.355808153677687,-1.5870556880861453,-15.937203153676226,-22.50272894223123,-0.11895942970319309,-18.241868078828816,-8.920466695776579
18,-3.358436529213812,-7.426755377072013,-21.8041255340238,-11.798358253251608,-25.739430419857165,-15.186047560803143,-11.981208467271578,-10.693900414064698,-1.3701395245852066,-15.795933791028714,-22.539980860709736,0.21612017419449084,-17.634995792655598,-8.368179490316152
19,-3.404437248669095,-7.216202032148535,-21.992067288573786,-11.583501766534551,-26.031665269264934,-15.757293431807234,-12.19929658497878,-11.023574929574654,-1.1430294584673344,-15.615618358207074,-22.487310088156555,0.5595579256432935,-16.937906512957024,-7.788507713987093
20,-3.44999389731999,-6.945668750850552,-22.106800204117558,-11.302715826449363,-26.212755135227223,-16.250802783221022,-12.378416893284829,-11.348146523442761,-0.9136736696452258,-15.412113869562862,-22.361195371916008,0.9030692193584205,-16.17053363587577,-7.197586331271225
21,-3.4959800760183297,-6.622233485608884,-22.155851383268526,-10.964126257741192,-26.291013736709278,-16.657488050172294,-12.514569078949336,-11.669963926182241,-0.6895737825992374,-15.199932693717448,-22.177658193062058,1.2392251620571657,-15.351954120395467,-6.610260422529355
22,-3.542630311050578,-6.253615915600672,-22.146188949178974,-10.576288171803233,-26.27551872972429,-16.96987903662794,-12.603495802949674,-11.990316689078508,-0.4775071860015126,-14.991749549041831,-21.951855777997906,1.5615205069942726,-14.499988777593574,-6.039709787966495
23,-3.589671848850415,-5.848058300965696,-22.084150884257767,-10.148040188276042,-26.175949707602364,-17.18234166586413,-12.640850505131194,-12.309399136045865,-0.2833058398187033,-14.798018710899528,-21.697759952288248,1.8643805994949223,-13.630922894111642,-5.497195696490249
24,-3.636511731866764,-5.414233403282893,-21.975427882079163,-9.68838749418267,-26.00244959147612,-17.291269849447335,-12.622410112308758,-12.62633284010354,-0.11170352631560063,-14.6267156419476,-21.427930012820603,2.143112483094743,-12.759344964805402,-4.991935367173961
25,-3.6824619642390584,-4.961179399115233,-21.825092044154676,-9.206414968522365,-25.765512081526307,-17.29525068019137,-12.544328573666288,-12.939246767695575,0.0337419776007876,-14.483209925058313,-21.15338106546689,2.3938071471343347,-11.898093220320208,-4.5310997271076605
26,-3.7269818107207344,-4.498255094550748,-21.63766019719966,-8.711226470003243,-25.4758914159392,-17.19519715116589,-12.403422433877445,-13.245411746554625,0.15065101504355305,-14.370268792828826,-20.883541763203944,2.613203102457905,-11.05829302885483,-4.1199196908581355
27,-3.7699152764764476,-4.035103866076343,-21.41717878367914,-8.211901608362611,-25.14452515160903,-16.994436486465837,-12.197474214395232,-13.541422920464756,0.23775365553606656,-14.28818292945899,-20.626288545913678,2.7985249615069763,-10.24946386586454,-3.7618784380161885
28,-3.8117036655523506,-3.581612518700855,-21.167317501283343,-7.717458304434057,-24.78245746758114,-16.698738164012564,-11.925534194322287,-13.823420111744845,0.29476215358973407,-14.234999069843152,-20.388038607838528,2.9473134415009237,-9.479672262298775,-3.458963374682982
29,-3.8535568333950585,-3.1478515410272836,-20.891460990678205,-7.236808875968254,-24.400749959839306,-16.31626542996272,-11.588197574624134,-14.087331895742674,0.32220069434298565,-14.206838466041498,-20.17388151069377,3.057264568096169,-8.755706747672873,-3.2119513561389974
30,-3.897571015820032,-2.7439854529992505,-20.59279067944034,-6.778698975587641,-24.010368659481873,-15.857437754058564,-11.187833124428474,-14.329125668516566,0.321211201853184,-14.198277523549141,-19.987729312818935,3.1260957489780976,-8.0832521406636,-3.020702830829858
31,-3.9467847973650194,-2.380145268965172,-20.27435084498838,-6.3516215393665165,-23.622039350447746,-15.334697893319532,-10.728741376060196,-14.54504393359228,0.29335330087506634,-14.202766339706688,-19.832466267456528,3.151455135938522,-7.467043036907343,-2.8844428327506737
32,-4.0051672778244924,-2.066258722093188,-19.939093473320977,-5.963701060054673,-23.24606733469486,-14.762184047084638,-10.21722418664782,-14.731806839608897,0.24041417617774313,-14.213061152482124,-19.71008068444597,3.1308883756075754,-6.910979284934108,-2.802007948878379
33,-4.077534125241303,-1.8118374237259842,-19.589896316771124,-5.622546539238113,-22.89212180111573,-14.155313590579606,-9.661551617859935,-14.886762934011596,0.16424134321382305,-14.221647338024384,-19.6217634658733,3.0618731220885835,-6.418189639532819,-2.7720393616242522
34,-4.16938900118447,-1.6257236352839657,-19.229548816045284,-5.3350743634329065,-22.56898843758056,-13.530289690351752,-9.071816012312643,-15.007974408616505,0.06660837525664204,-14.22113110757655,-19.56796067594709,2.9419264869097805,-5.991034319013175,-2.7931049530807504
35,-4.2866906598512395,-1.5158029257414938,-18.860701843615704,-5.107305059864938,-22.284296804904184,-12.903546200109558,-8.459667570495721,-15.094229513331406,-0.05087975050255581,-14.204580764437988,-19.54837165359887,2.7687844329040834,-5.631043171347585,-2.8637390300580385
36,-4.435549892311775,-1.488692537314955,-18.48577956740592,-4.944140292618436,-22.044231387564107,-12.291150237702208,-7.837931862910813,-15.144982315727805,-0.1868386270988033,-14.165802058581216,-19.5618895950613,2.5406456169312475,-5.3387929782210515,-2.9823950191157937
37,-4.621864831057405,-1.5494184465519911,-18.106854648447484,-4.84912852894107,-21.85323731926654,-11.708185641523851,-7.220117740350867,-15.160227299476245,-0.3401141870689813,-14.099536601874176,-19.60648783851081,2.256466016946647,-5.113734088373944,-3.1473128893306437
38,-4.850907434064847,-1.701096615205734,-17.725490880762514,-4.824229667024749,-21.713733705087776,-11.168143190343914,-6.6198328727228954,-15.140322164083566,-0.509753981527332,-14.001577403781747,-19.67906170333573,1.9162854826266813,-4.9539824057134165,-3.356309136574507
39,-5.12687843405107,-1.9446358614721664,-17.342560545752743,-4.869590712004355,-21.625849254471245,-10.682344449204033,-6.050132446922522,-15.085775796930912,-0.6949463975593416,-13.868801355649115,-19.775242357082483,1.5215631763077744,-4.856097810551546,-3.6065039601991447
40,-5.452453383103538,-2.278481447356953,-16.958048163441926,-4.983346302352798,-21.587196433907515,-10.259425672284905,-5.5228338643788675,-14.997019806255846,-0.8949363404957287,-13.69912488160154,-19.889205488089374,1.0754952736478087,-4.814874637879404,-3.894008245828088
41,-5.82834851532252,-2.6984197491176,-16.57085768791965,-5.161459254723232,-21.592701190457312,-9.904906661849823,-5.047835919072952,-14.874181750621949,-1.1089272573311935,-13.491395121712337,-20.013502245882517,0.5832854836943716,-4.823173334536274,-4.213601062939821
42,-6.252940157700542,-3.197464411517742,-16.17864434095323,-5.397616775113347,-21.634504987990294,-9.620866503100903,-4.632483638871249,-14.716876467527413,-1.335979523728227,-13.245233037827882,-20.13894097804651,0.05233810933482867,-4.871823305708814,-4.558434139506538
43,-6.721972961615563,-3.765842178285115,-15.777693297382312,-5.683196986500169,-21.70195403611259,-9.405743288170545,-4.281018922115126,-14.524028871318016,-1.5749137848077834,-12.960845409884767,-20.25454487524953,-0.507654547756116,-4.949623739928318,-4.919800798793527
44,-7.228389193192838,-4.391091784166186,-15.362865459350692,-6.007317765634994,-21.781687268859475,-9.25426863557081,-3.9941527749151793,-14.293738192928986,-1.8242251152055062,-12.638820490235918,-20.347603847454643,-1.0847537385240966,-5.043461687271651,-5.287002647729414
45,-7.762304329609251,-5.058282493023699,-14.927626940709208,-6.356976044171838,-21.857830423705206,-9.157541025816313,-3.7687886045015047,-14.023191152085195,-2.0820108360747906,-12.279919177699172,-20.403830951313576,-1.664961101376479,-5.138556446939939,-5.647339793200033
46,-8.31114482106444,-5.750351350458912,-14.464174611551588,-6.717281454711344,-21.91229904977918,-9.103235956452366,-3.597918758096659,-13.708630529197388,-2.3459128297970415,-11.884871999154095,-20.407626510028727,-2.232558752941371,-5.218829007520306,-5.986242347375652
47,-8.85995358581838,-6.448551273110131,-13.963665316196925,-7.071783892002702,-21.925208707916454,-9.07594646016807,-3.470708902153893,-13.345385596890468,-2.6130752265150994,-11.45419300446317,-20.342447835761853,-2.770601294362809,-5.2673867923206945,-6.287553886512361
48,-9.391858314304322,-7.132996312594337,-13.41655087788634,-7.4028902026995445,-21.875386170059443,-9.057644537703741,-3.372776965140421,-12.927970985300915,-2.8801203377783886,-10.988024307487706,-20.19127876899513,-3.2615483145525968,-5.267107414938275,-6.5339702413581096
49,-9.888686855139742,-7.7832855039623485,-12.81301408784792,-7.692360720866969,-21.740971240175547,-9.02825190109442,-3.286664827896501,-12.450259824960082,-3.1431485195317435,-10.486027219671836,-19.9371893975901,-3.688015286244425,-5.201299556016639,-6.70762721171177
50,-10.331702596358843,-8.379181946278418,-12.143491892185937,-7.921871738486904,-21.500094893486484,-8.966306463024265,-3.1924912788967963,-11.905734569694129,-3.397769736442637,-9.947335316279618,-19.563970773998246,-4.033609741262631,-5.054413653302465,-6.790817624221669
51,-10.702421234082168,-8.901318879479405,-11.399261231414503,-8.073625416931591,-21.13161557869941,-8.849708592842148,-3.068764003426715,-11.287814297388335,-3.6391749396633593,-9.370580573791111,-19.056822212146983,-4.283808900368918,-4.8127697398047875,-6.766803337036088
52,-10.983459968706123,-9.3319000494519,-10.57305221120218,-8.130984532329641,-20.61589167012395,-8.65652757970951,-2.8933173426531087,-10.590250717336142,-3.86225371167078,-8.753996996345533,-18.403061314080464,-4.426825865842141,-4.465264825081567,-6.6206744894529415
53,-11.159363037755435,-9.655358799654625,-9.659644997440742,-8.07910634994813,-19.935564368565622,-8.365843888036144,-2.644332527302651,-9.807577332482174,-4.061761080155264,-8.09559850450157,-17.592821001878214,-4.454406039567589,-4.004018518180341,-6.3401990868622695
54,-11.217345730794756,-9.858940397346359,-8.656403265264032,-7.905548258018093,-19.076322191880912,-7.958597803894507,-2.3013894900636616,-8.93558836261204,-4.232531079749361,-7.393420345652191,-16.619694566519172,-4.362495220452877,-3.4249145150121243,-5.9166022536197715
55,-11.14790388903381,-9.933175679203023,-7.563699406312119,-7.600817710211977,-18.02761602144385,-7.418411701583098,-1.8464954301282157,-7.971817544774443,-4.369728070725284,-6.645806451965867,-15.481289405618107,-4.151726125941035,-2.727998472284084,-5.345216667990956
56,-10.945246832581935,-9.87222057714204,-6.385194442578471,-7.1588402689926784,-16.783292764319356,-6.732352295437147,-1.2650355977677274,-6.915983054563726,-4.469120153288444,-5.851719391381321,-14.179652408892457,-3.827679896430042,-1.9176998832230028,-4.625953319125818
57,-10.607526497483498,-9.674044236647937,-5.127946572594389,-6.577321619829424,-15.342116011847036,-5.89160050397415,-0.546595991095825,-5.7703641886355,-4.527353507066713,-5.011045283590817,-12.721534275513616,-3.4008923499149306,-1.0028557263511313,-3.763553187802883
58,-10.136851922304206,-9.340457583419985,-3.802334774814962,-5.857982386310672,-13.708143814006299,-4.891999229395055,0.31438479880473863,-4.540078264646753,-4.542203301500017,-4.1248643122467925,-11.118466486286286,-2.886590971024084,0.0034743824415191054,-2.767594338505535
59,-9.539094818828909,-8.876984410905226,-2.421797875148714,-5.006649244550254,-11.89093769892735,-3.7344531605636604,1.3181670026330659,-3.233232436201772,-4.5127770989969545,-3.195659768600245,-9.386634210895522,-2.3041677731227717,1.0843985493898674,-1.652245307594316
60,-8.823508201745238,-8.292588073981236,-1.002404914139045,-4.0331927897710695,-9.905583940976221,-2.4251596504229167,2.459484340368781,-1.8609343913640686,-4.43965068344619,-2.227445370532998,-7.546541441644083,-1.676414037986712,2.219771457884235,-0.43577493233226294
61,-8.00219462424146,-7.599277073598276,0.4377126236166246,-2.9513112417068683,-7.7725170522978635,-0.9756557548232069,3.727548848576126,-0.4371568026377394,-4.324922574225805,-1.2257999320919712,-5.62247915523677,-1.0285623435433697,3.38693153311284,0.8601510956106201
62,-7.089471100489131,-6.811619759147459,1.8790255979409802,-1.778167909850784,-5.517144957058686,0.5973265289701154,5.106280712149938,1.0215392697961907,-4.172180056709285,-0.19780689876549373,-3.6418198165654414,-0.3871952431356888,4.561556414037873,2.2113401872572616
63,-6.101182198170848,-5.9462003359886495,3.301323558136692,-0.5338979512357616,-3.169284217267067,2.2721972118887224,6.5747480964635825,2.496408829402164,-3.986375438917586,0.8480983783264602,-1.634169529515472,0.22091405520032922,5.718592120059435,3.592053635324542
64,-5.054010768387989,-5.0210456955806375,4.684438417890617,0.7589943257228436,-0.7624217506505877,4.023030054898284,8.1077945458765,3.967036785841118,-3.77361672313133,1.902367953297378,0.3695871477021341,0.769965160664685,6.833211753673389,4.976041284415674
65,-3.964829049848542,-4.055047705745671,6.008935954851309,2.0763223317858928,1.6671732146184228,5.820254231023474,9.67682603276517,5.41193940275659,-3.540882189725936,2.954658891180439,2.3383127470205394,1.2362403840465463,7.8817630067319175,6.3375765141369715
66,-2.850123834831872,-3.0674011908769234,7.256742017014833,3.392960159711523,4.081456658622973,7.631494316857799,11.250725697143617,6.809229278572845,-3.2956731124098466,3.9942164407034513,4.2416731938701,1.5991109547060587,8.842667622644237,7.652442838857695
67,-1.7255195737465139,-2.077074683012821,8.411677380062335,4.683611866227198,6.441700862108733,9.422531083828206,12.796861348726765,8.137318055324174,-3.045622455498693,5.010303889262182,6.051181861226873,1.8418973327093808,9.697239071468543,8.898828804508666
68,-0.6054131658646131,-1.102327997220219,9.459882552554106,5.923576932628277,8.709628774020294,11.158349980182656,14.282148529090662,9.375629687817362,-2.7980798619872953,5.992654487065426,7.741186154833504,1.9525497971128518,10.43038745187986,10.058094143106986
69,0.49727583865597186,-0.16028687778428347,10.390121269939765,7.08948280864899,10.848548416529859,12.804238753923348,15.674129919958176,10.505295955236974,-2.5596948818442007,6.9319176208228175,9.289752041692914,1.9241250278836146,11.03118406380592,11.115377504976129
70,1.5712444552249087,0.7334187994899207,11.193958413879603,8.15995759097022,12.824442836806629,14.3268908180756,16.942029842171596,11.509804754441394,-2.336022009320341,7.820070608629779,10.679404957415978,1.755044218277663,11.493262472084306,12.060023351460671
71,2.6068451248730695,1.564949007088789,11.865813767691236,9.116218625629985,14.606971826888612,15.695467691922456,18.057740825314387,12.37557057299487,-2.131173528609152,8.65076725092159,11.897689343682488,1.449126615239477,11.815037561402358,12.885810948350596
72,3.596036382736618,2.3224760628550163,12.402897052032454,9.942556104716658,16.170344739497526,16.88257351266717,18.996699118118304,13.092396120303466,-1.947548957456087,9.41959385790675,12.937513204347443,1.015398615355865,11.999728576806934,13.590971785861301
73,4.532257843164359,2.996332659176108,12.805032944295599,10.62669526057023,17.49402968710679,17.86509845694876,19.738609467551242,13.65379594773126,-1.785670688817209,10.124204501079626,13.797249956622466,0.4676838676555376,12.055177069080386,14.177985955046658
74,5.410243278640711,3.579085030924006,13.074388730323017,11.160027188777669,18.56327308134064,18.62489599590531,20.267987391537616,14.05715843576188,-1.644151673975121,10.76431202385555,14.480579523097454,-0.17601375393263283,11.993457472146645,14.65315645689094
75,6.225788772393922,4.065535616406025,13.215122731214974,11.537706195696527,19.36941369285288,19.149269630106232,20.57449852289606,14.303731835329057,-1.5198118358066883,11.341521066923386,14.996065115336545,-0.8943134852773819,11.830287863678459,15.025974076643962
76,6.975497033704366,4.452665025447239,13.232978162208438,11.758619379875855,19.909985673805004,19.43125586155529,20.653087442801716,14.398431802029156,-1.407946423864922,11.859003719492808,15.356480872242438,-1.6634148021102522,11.584261060804081,15.308302227132351
77,7.656521976964622,4.739527254040316,13.13485273078599,11.82524035555647,20.188614337798324,19.469699957233953,20.503901015340613,14.349480486615791,-1.3027338845247443,12.321035529813086,15.57792605433705,-2.458163150106288,11.275929694158952,15.51342746131881
78,8.266337812886373,4.927113365540702,12.928376832140238,11.743382795284132,20.214716627002343,19.26912898888839,20.132022486717037,14.167899681721115,-1.1977556581433166,12.73242610822235,15.678780324332255,-3.253168662514373,10.92679062335655,15.655033930750097
79,8.802553456726299,5.018197016819893,12.62153136758987,11.521871008559218,20.00302507125392,18.83943351649751,19.54704200186055,13.86689178263154,-1.0865879392064997,13.097890983382179,15.678568483528975,-4.023916959541475,10.558222100258439,15.746167238830738
80,9.262786596101765,5.017171321372651,12.222330226993856,11.172144964944872,19.572959805104333,18.195376605238,18.76249659525365,13.461150910648547,-0.9634170845544897,13.42141809218381,15.59681011448759,-4.747811777359171,10.190430974859149,15.798254720267488
81,9.644603773057236,4.929882387474235,11.738583857894803,10.707816862966906,18.9478781098595,17.35595714934939,17.79521811288666,12.966151024702723,-0.8236263855536424,13.705683617881979,15.451929741370707,-5.405094801930268,9.841467126358049,15.820245399033421
82,9.945525124968162,4.763461649827769,11.17775118388288,10.144195876216621,18.154234864591192,16.34366245485573,16.664630704412293,12.3974577932996,-0.6643024612520593,13.951568641781359,15.260296955729592,-5.979597184376263,9.526358151084619,15.817924022055438
83,10.163086580116921,4.526156757338722,10.546879065132728,9.49779700326835,17.220689479193506,15.183650524284946,15.392039906588035,11.770106957926668,-0.4846148175776043,14.157820469036322,15.035454164549481,-6.459288549212847,9.256409266628907,15.793440704833229
84,10.29494924019181,4.227158939811635,9.852622218438551,8.785848961014226,16.177194701618845,13.90290387170121,13.99995217283837,11.09808454448544,-0.286032435717181,14.32089071051998,14.787573410719588,-6.836601767102603,9.038702461458326,15.745082929867781
85,10.339045422971179,3.876424087866019,9.101332281657063,8.025814982431879,15.054100428638021,12.529393916740286,12.51145684604058,10.39393413192908,-0.0723563795427652,14.434967356594727,14.523165436670496,-7.108524092521874,8.875817050778277,15.667302065743916
86,10.293752420834323,3.484485982913586,8.299202529558798,7.234939330920793,13.881302145806545,11.091289464306419,10.94969305429802,9.668504365743749,0.15043419934331367,14.492201941078136,14.245046326561344,-7.276456458564796,8.765782536927789,15.550993270230551
87,10.158086736428656,3.062262321269196,7.452454032487992,6.429830992711271,12.687459312996854,9.616236026720706,9.337413563413437,8.930837407115302,0.37450669576810514,14.48311706589257,13.952550748053465,-7.345852595993997,8.702264093405592,15.384015146584838
88,9.931911906951203,2.6208556159571126,6.5675489020064575,5.626093895263833,11.499303952550335,8.1307254529137,7.696647843608092,8.188187842977557,0.590639354657511,14.39716569180926,13.641966148978588,-7.3256585390681686,8.674970290319163,15.151922934699853
89,9.616151792837083,2.1713512704974236,5.651416246141977,4.838010262310146,10.34105430378881,6.6595677823189,6.048458643721745,7.446153555803703,0.788785754081393,14.223403764219299,13.307150088577945,-7.227581304305439,8.67026168567974,14.83887651577597
90,9.212998926290586,1.7246149150119612,4.711676299645258,4.078281081632902,9.233943415773565,5.225470075704292,4.412780604678992,6.708895810003447,0.958698198890969,13.951233073150796,12.94028429687777,-7.065223693497481,8.671928299518617,14.428673467703014
91,8.726104363544765,1.291090881986045,3.756847124505766,3.357825720929715,8.195868225652452,3.8487207840792066,2.8083252561890486,5.979424087963191,1.0905710676367284,13.571170514950238,12.532713827747433,-6.853131295740836,8.66209437874926,13.905849156540073
92,8.16073163263975,0.8806033607155883,2.7965156235014335,2.685641549246068,7.241160701918377,2.546973129677308,1.2525332525490493,5.25992008939603,1.1756683244833461,13.075600661783076,12.075816823914915,-6.6058077347817985,8.622200811576294,13.256780778231123
93,7.523854236127183,0.5021616944737568,1.8414511499835942,2.068723633482355,6.380478862522701,1.3351170204706058,-0.2384479400767538,4.5520741900588115,1.2069019934585565,12.459469448768207,11.561849962867168,-6.336762399320926,8.534010328569654,12.470730246077654
94,6.824176145635713,0.16377215929492428,0.9036379634988031,1.512043571496507,5.6208121108123965,0.22522640010873815,-1.649783392682309,3.8574073971584664,1.1793305367658602,11.720878328841176,10.984717444190522,-6.0576574719001535,8.380579849383441,11.540762306741902
95,6.072059308892929,-0.12773958268702457,-0.003795606841261442,1.0185849513515326,4.9655924347888245,-0.7734321565668083,-2.96798749087644,3.17755339496443,1.0905482824706396,10.861541516507124,10.340617632635713,-5.777615905946839,8.147148575253746,10.464480493834195
96,5.279350738246957,-0.36688894905062325,-0.8667673380181009,0.5894311429476282,4.4149004882825675,-1.6543432545756838,-4.180993597311182,2.514478899479915,0.9409400896166514,9.887074686801919,9.62853045651182,-5.502739826911416,7.821898584643273,9.244535180431436
97,4.459112085027261,-0.5496674792405951,-1.6705568699964168,0.22389978381069814,3.9657535113078444,-2.4136504551281086,-5.278264716020362,1.8706260659915213,0.73378051388752,8.8070918984619,8.850519422296156,-5.235871921814407,7.396554784958854,7.888873953697284
98,3.6252644512071184,-0.6736430016135188,-2.4002414110943926,-0.08028239029793399,3.6124605401917393,-3.050036427437038,-6.250944305956912,1.2489678952941965,0.4751647439717939,7.635098217302323,8.011833892015657,-4.976612921463556,6.866801474713095,6.41072223939217
99,2.7921690311112406,-0.7380158149741657,-3.041233487339495,-0.3267711194031748,3.3470292551365173,-3.5645804321218213,-7.092036990111191,0.6529761014950477,0.17376955290223514,6.388177770855832,7.1208095863454695,-4.721588031551031,6.23250279381499,4.828299066620617
100,1.9741694485383365,-0.7436238301397922,-3.5798914688420598,-0.5203697235316826,3.159608175216689,-3.9605946584182226,-7.796600350668187,0.08651002783221803,-0.15954417186583086,5.086489930399959,6.1885779772795475,-4.4649357398931535,5.497724205624353,3.1642880268953175
101,1.1851245327397726,-0.692892874096735,-4.004164248838018,-0.6667751700896241,3.038948184980614,-4.243437514375219,-8.361922397152819,-0.4463561655182683,-0.5122613072320127,3.752599158012322,5.228608145222151,-4.198975340866937,4.670562357722638,1.4450969799923625
102,0.4379608558693154,-0.5897320834178574,-4.30422532424357,-0.7723126870495608,2.972868709360844,-4.420299181041953,-8.787656048881335,-0.9415440794957872,-0.8708354943351104,2.4106756290170956,4.256116660490845,-3.9149962749930367,3.7628009112297076,-0.3000485200294335
103,-0.2557278623730026,-0.439378182217074,-4.473049889196007,-0.8436666570703059,2.94871570683058,-4.499953839059808,-9.07588368598382,-1.3951920623537117,-1.2213569689279677,1.0856126184835535,3.2873899507594238,-3.6041045802094134,2.7894188163815197,-2.0401253554524974
104,-0.8860126981723643,-0.24819616171807962,-4.506892167839413,-0.8876158765657692,2.9538002567734174,-4.492474713619139,-9.231091881705744,-1.8038600846035329,-1.5502145011572916,-0.19788833926799534,2.339067612963078,-3.258060732113126,1.7679835604051461,-3.7433909333537465
105,-1.44487869378888,-0.0234468244493833,-4.405628868263065,-0.9107816987435505,2.9758073741074145,-4.408912429222532,-9.260047273289588,-2.164697030540042,-1.8447052820709051,-1.416213052075582,1.4274338299126954,-2.8700490468997035,0.7179644705547249,-5.378465343882415
106,-1.926385558028619,0.22696673655067706,-4.1729467363824595,-0.9193977350402025,3.003164886061512,-4.260943568916904,-9.171576646426159,-2.4755572619042336,-2.093556908652588,-2.547663835250856,0.5677584195441704,-2.4353297739545643,-0.3399994337238918,-6.915368939090952
107,-2.326741573936462,0.49476165070572564,-3.81636477777984,-0.9191092700518664,3.025362694122545,-4.060503144160847,-8.97626518478971,-2.7350630606746344,-2.2873390557839737,-3.5731829827413595,-0.22627902222226798,-1.9517376598346412,-1.384844885222919,-8.326474225836447
108,-2.64429724663109,0.7715362646983047,-3.3470920021993877,-0.9148091167048172,3.0332147069603916,-3.8194193028338566,-8.686094309212976,-2.942618284108163,-2.418755546371455,-4.476940660394375,-0.9430569412591636,-1.4200024429439135,-2.3958133193702027,-9.587339410923718
109,-2.879467518058697,1.0490213907799015,-2.779728940716066,-0.9105145223450516,3.0190591934051567,-3.549069623003987,-8.314043727841776,-3.098384508617357,-2.482818142944549,-5.246766578652194,-1.5733550929430093,-0.8438775782974618,-3.35313572189851,-10.67739939399858
110,-3.034592738744773,1.3193150285508364,-2.131827206201562,-0.9092876966552906,2.976896778484976,-3.260076704580189,-7.873682266853837,-3.203233956948878,-2.4769116717188475,-5.874414354318054,-2.1105661848244157,-0.2300756852980759,-4.2386495006057165,-11.580498727607392
111,-3.113750381786751,1.5750937616548646,-1.423327140001797,-0.9132012070578829,2.902467393597629,-2.9620579069465554,-7.378770305797156,-3.2586940446876533,-2.400766573612189,-6.3556582075147094,-2.5507796843225967,0.4119766219229964,-5.036329939455022,-12.285260267054683
112,-3.122530898081945,1.809793908074282,-0.6758982010958025,-0.9233485687997783,2.793268452450434,-2.6634399906753,-6.842893531140845,-3.2668960732631813,-2.25635838829535,-6.690232387139373,-2.892751648820156,1.070538718373478,-5.732726264558762,-12.785291414973914
113,-3.067790334973142,2.0177570643669074,0.08779125943549836,-0.939898970742071,2.648517549809773,-2.3713436562534684,-6.279142781979875,-3.2305350848676855,-2.0477525234373126,-6.881631784278515,-3.1377804261525832,1.7320767974182334,-6.317297875991026,-13.079234707301246
114,-2.9573893313476773,2.1943378006843877,0.8448483646977838,-0.9621930381619176,2.4690643081577965,-2.0915364678645623,-5.6998484145441015,-3.1528407030954786,-1.780907911597155,-6.936796245541564,-3.28950888504262,2.3818693214029856,-6.782648660963767,-13.170670684453833
115,-2.799924818414491,2.335974117112961,1.5729478921328324,-0.9888744807564278,2.2572568586230344,-1.8284472935406701,-5.11637136517119,-3.037552739663917,-1.4634475599635135,-6.865702012561062,-3.3536712169225282,3.0046623093253197,-7.124657648958249,-13.067880847368592
116,-2.6044586753748047,2.440222807132054,2.2511149396840837,-1.0180506471806081,2.0167687569828487,-1.5852321482449478,-4.538948226943182,-2.8888921396998333,-1.104399438308396,-6.68088269860336,-3.337798554527463,3.585342516193422,-7.342504156229211,-12.783479253306863
117,-2.380246440432294,2.505762837482107,2.860469669770663,-1.0474729066743524,1.7523928132853273,-1.3638797861133876,-3.9765846151665976,-2.711517307235886,-0.713908210113923,-6.396899856448663,-3.2508936646366595,4.109600024758607,-7.438585753162196,-12.333923191372
118,-2.1364684333644126,2.532371082882429,3.384905746314303,-1.0747254407796687,1.4698096290147504,-1.165344986007884,-3.4369900694320217,-2.5104574474928403,-0.3029175053582563,-6.0297804232377175,-3.103081322385689,4.564555378554601,-7.418328537152163,-11.738915783625897
119,-1.881965890562322,2.5208756637942376,3.8116747367545787,-1.0974096024188909,1.175339673961977,-0.9896981887990483,-2.9265487461221635,-2.2910181405979757,0.11717579101839766,-5.5964366606009435,-2.9052389767534064,4.93932884153191,-7.289892456606843,-11.020716549382056
120,-1.6249868026834664,2.473091662211212,4.131849151362635,-1.1133114624666756,0.8756878124011108,-0.8362818916463782,-2.450322272242354,-2.058659476260286,0.5348897948022926,-5.114084541061089,-2.6686133962098437,5.2255297302869295,-7.063780514595812,-10.203380685693153
121,-1.372949889758182,2.3917420200384814,4.340637394322698,-1.1205423268476273,0.577688655840979,-0.7038663564422177,-2.01208268525584,-1.8188525175567467,0.9390378755203049,-4.599678439948746,-2.404433126285683,5.4176429846594765,-6.75236876727364,-9.311953882072165
122,-1.1322393162267084,2.280363574280568,4.437526044544996,-1.11764521975945,0.2880604386180516,-0.5907991263638137,-1.6143734552237308,-1.5769242634774887,1.3191053187062716,-4.069382295214237,-2.123532115377661,5.513290363507895,-6.369382088694041,-8.371655583287042
123,-0.908045668257226,2.143195232612396,4.426229639526884,-1.1036642097142586,0.013174150681169327,-0.49514450230530466,-1.258595641923585,-1.3379038405046433,1.66560318945421,-3.5380989436884147,-1.8360044143334262,5.513346258521719,-5.929346564207683,-7.407087961628919
124,-0.7042686575111953,1.9850434977091653,4.314436405303763,-1.078177430869183,-0.24115669485580962,-0.4148106195121198,-0.945115043153589,-1.106383117699094,1.9703792552886545,-3.0190791534656105,-1.550911281028292,5.421893440037863,-5.4470515547203595,-6.44150865437592
125,-0.5234928069163244,1.8111214292578939,4.113350906771142,-1.0412976267084657,-0.4698615472789189,-0.3476628459331638,-0.6733848947161233,-0.8864032206758558,2.2268680967759718,-2.523628955743812,-1.2760590237226634,5.246012496218626,-4.937052125674824,-5.496201241998558
126,-0.3670393707477314,1.6268611019909391,3.8370508334500655,-0.9936452246229588,-0.6687700065527995,-0.2916225686129213,-0.4420773957271004,-0.6813746070907676,2.430267546190714,-2.06092752042592,-1.0178587541470092,4.995410731858898,-4.4132357413120555,-4.589968660723366
127,-0.23508815648906473,1.4377053496605166,3.5016926320283903,-0.9362986636094929,-0.834736989781121,-0.24475013925103078,-0.24921688116241675,-0.49403319834740944,2.5776352156810716,-1.6379584102646718,-0.781269859849892,4.681910769347025,-3.888467292755655,-3.738763189005261
