,AF3,F7,F3,FC5,T7,P7,O1,O2,P8,T8,FC6,F4,F8,AF4
0,-6.73327778773636,-0.18373487443521952,-5.370490265152024,-0.5668704150247298,-0.8094744659993246,-1.5398752989770392,-1.711998917746886,0.04690268001519574,2.734510920577119,0.31708396661518984,-5.919809400111205,2.829447620841148,-2.691835475120438,-5.9045302551076295
1,-4.7323631615343205,0.3147350837051931,-3.757371430057026,0.051803581124874,-1.3737181661808902,-1.1738705263891933,-1.036355793828424,-0.01626041223659819,1.9369708189001933,-0.543292189496019,-5.6822720206406405,6.312453960715921,-1.9934207727125652,-5.16221351226454
2,-2.7995833971940844,0.7818757250354214,-2.1726408665359993,0.6605806009444737,-1.9383117198209354,-0.8071323065522351,-0.36532346965348705,-0.07427430599491702,1.1673713497577594,-1.3742503403991897,-5.448006798185122,9.752185124227323,-1.321707615988977,-4.461031739335584
3,-0.9741355655066919,1.2027712302586129,-0.6379668801261679,1.246422082061541,-2.4999935262295185,-0.45219961681932275,0.28497513858508,-0.12760279148913964,0.4335766856035993,-2.161880986989912,-5.218144042607834,13.110822767421336,-0.6872857873362715,-3.8179301017312173
4,0.7079583933580865,1.564120679901328,0.8260762716538084,1.7970572935153986,-3.0556181791676535,-0.12138551516991866,0.8989450411659856,-0.17684564546023998,-0.2583919810153475,-2.8942150425523057,-4.994118168622966,16.35253762753671,-0.09990385757639367,-3.2482377248170953
5,2.214910365083597,1.8546251195301715,2.2003918694867735,2.301337013255808,-3.602232498139096,0.17361055662565192,1.4619364073049492,-0.2227103650118604,-0.9046603433395889,-3.5618114979099404,-4.7778929434100625,19.444121551764056,0.4316409409942382,-2.765267562100508
6,3.5201006940362216,2.0652862124356046,3.467736728146356,2.749531228468583,-4.137147202623544,0.4220804827953579,1.9606595721586713,-0.26598395946954007,-1.5036716798911371,-4.158205728199465,-4.572116852184426,22.355581187664484,0.8995866477781294,-2.3799430381188897
7,4.6028501289219035,2.189601985545706,4.613076589635219,3.133558646361264,-4.658000381007984,0.6146628540439881,2.383582507370832,-0.3075053747567834,-2.056210527495205,-4.680188732289278,-4.380191289188215,25.06067634885567,1.297268945888029,-2.1004644758615227
8,5.448995532616984,2.2236546505398516,5.623904985912172,3.4471431407758644,-5.162806223865399,0.7436642966693482,2.7212923878602027,-0.3481387186615896,-2.565278602143513,-5.127897502751062,-4.206239200646985,27.537383040393504,1.6191724509942318,-1.9320294706468983
9,6.051244286445151,2.166095522338243,6.490509409932332,3.685899836135644,-5.649980618283624,0.8033368445787354,2.9668027607415017,-0.38874710691798625,-3.035834610282067,-5.504708751364645,-4.054968490432182,29.768260536750457,1.8609847486547537,-1.8766211453891415
10,6.40929361952388,2.01804007075508,7.206171034483133,3.8473593202832714,-6.118335030025067,0.7901030010554914,3.115789594634471,-0.43016663649460735,-3.4744195158752658,-5.816941349280894,-3.9314331385675185,31.740703954729337,2.019666745077205,-1.9328765682277422
11,6.529714388212679,1.782891174206496,7.76728923948283,3.9309414929799806,-6.567032117992406,0.7027204518308534,3.1667423519088764,-0.4731799793695916,-3.888695101628131,-6.073385521559028,-3.840704436891318,33.44706890463013,2.0935490524518117,-2.096044378692073
12,6.425612235420061,1.466110881102521,8.17342860899046,3.937890772210041,-6.995500779604025,0.542377650812206,3.1210197279665786,-0.5184896946594792,-4.286926622517148,-6.284688106239918,-3.787473507098201,34.88466243856273,2.0824574068319928,-2.358036554305393
13,6.116089913352593,1.0749604076926498,8.42729161864035,3.8711823867850654,-7.403314213534547,0.31271061139286743,2.982803504476758,-0.5666923405304722,-4.677441244566068,-6.462632841088737,-3.775613487772541,36.055602517886776,1.9878615104042965,-2.7075754110810193
14,5.625540836726143,0.6182243316110801,8.534623122638136,3.735406049447346,-7.790041060192529,0.019731290117596174,2.758947834558857,-0.6182550765297424,-5.068093615167941,-6.619362549614263,-3.807735560751135,36.96655390885422,1.8130322511805115,-3.130434336287177
15,4.982805478703828,0.10592848227433874,8.504052641031869,3.5366291459742154,-8.155085574328188,-0.3283397873739468,2.4587253496411767,-0.6734961930686686,-5.465768341723675,-6.766595603370464,-3.88477753442476,37.62835032796051,1.5631831178579556,-3.609770066546753
16,4.220220760907148,-0.45094596691431316,8.346878565341768,3.282237601505653,-8.497536707533396,-0.721338429528889,2.093476404602808,-0.7325701629114455,-5.875946126173856,-6.9148907350960735,-4.005666072141342,38.05551170854756,1.2455645371810695,-4.126545263865729
17,3.372590573147462,-1.0407546711785072,8.076796460663065,2.9807500027997533,-8.816046461664905,-1.147512167160725,1.6761742385407865,-0.795457060916138,-6.30235597731631,-7.073010669450863,-4.167091823297067,38.26566429602339,0.8694772607254616,-4.660040743887654
18,2.4761046643335582,-1.651492776516945,7.709572779398094,2.6416003582154213,-9.108754312211166,-1.5939488328472067,1.2209265071958548,-0.8619559671476088,-6.746730771134428,-7.247425807138623,-4.363428976377945,38.278872550179,0.44617489361913554,-5.188454344735119
19,1.5672336778422886,-2.2711110755142307,7.2626659022547315,2.2748872269500118,-9.373267805227695,-2.047052108700341,0.7424407861613183,-0.9316821735487453,-7.208677251447472,-7.4419855105693316,-4.586816941689118,38.11689679884223,-0.011363402570054481,-5.689576987554893
20,0.6816294501923716,-2.887845026564056,6.7547983922925985,1.8910911371575634,-9.606701451327053,-2.493032480967909,0.2554859935402721,-1.0040682754192374,-7.685663298029045,-7.657768050022693,-4.827403759373898,37.80239848332093,-0.488792717990527,-6.141527271990037
21,-0.14693896922963778,-3.490550579722561,6.20548726262129,1.5007672402948469,-9.805768569362792,-2.9183811931748123,-0.2256180201871727,-1.0783691979554373,-8.173114787041616,-7.893102732732857,-5.073731859737277,37.35812320960796,-0.9708790433138543,-6.523516579441595
22,-0.8875824261442986,-4.069034660600944,5.634542361566336,1.1142251533614553,-9.966915094200344,-3.310298314743855,-0.6874540479104383,-1.1536708182717923,-8.664604102222684,-8.143741880945415,-5.3132311278662945,36.80609797638821,-1.442060828446103,-6.816609603888533
23,-1.513190973169524,-4.614362880808028,5.061546282397065,0.7412119945320648,-10.086481238052853,-3.657053488244789,-1.117882250822176,-1.2289013754549474,-9.152106393020988,-8.40314974574431,-5.532775118653981,36.166881390107335,-1.8870530839361372,-7.004442040751377
24,-2.0012053577588604,-5.119123655290612,4.505332515412693,0.3906167281537431,-10.16087606463918,-3.948268128232785,-1.5063227382456095,-1.3028447548405317,-9.626300487445357,-8.662872387879803,-5.719254633580133,35.45890437265895,-2.291448614551243,-7.073857935940931
25,-2.3342317955377396,-5.5776269851246605,3.9834820194924028,0.07021367016439731,-10.18675068397073,-4.175118310253521,-1.8439420236807669,-1.374155212871085,-10.07689778525007,-8.912956249631323,-5.860127140343127,34.69793459247271,-2.642274216723207,-7.0154327084197545
26,-2.5004730208392476,-5.986018338294064,3.5118613317724447,-0.21353937779473628,-10.161157388725224,-4.330465478626869,-2.123747561619031,-1.4413739527068357,-10.492990727164466,-9.142390813067163,-5.943908313332889,33.89669118365598,-2.9284669035848996,-6.823852890718245
27,-2.4939531106446684,-6.342293936164438,3.1042259711494347,-0.45563712099154674,-10.081684720219105,-4.408926108150523,-2.3406005071339115,-1.5029487307177367,-10.863418595761502,-9.339559426587352,-5.960581575531392,33.06462725581056,-3.1412446693497498,-6.498130202604275
28,-2.3145224456554234,-6.646212934860782,2.771909727317222,-0.6525915085923978,-9.946562191193888,-4.4068920492400245,-2.4911603271871203,-1.5572581454059842,-11.177149817549708,-9.492689553675344,-5.901911706510631,32.20788647723411,-3.2743569092048714,-6.041636482269389
29,-1.9676420610667005,-6.899112771485596,2.523613708170347,-0.8024265092416363,-9.754732669415278,-4.322511662843776,-2.573776296466448,-1.6026424094526281,-11.423676432561594,-9.590297774254882,-5.761658197093247,31.329427888750324,-3.3242104632858718,-5.46195725064813
30,-1.463961225454827,-7.103644306245969,2.3653002259914095,-0.9046103909773755,-9.505894611564546,-4.155639437532864,-2.588341029648775,-1.637442111028921,-11.59341098482837,-9.621626121470047,-5.535692478684929,30.429301632796374,-3.2898775339265174,-4.770573816093225
31,-0.8187159456589508,-7.263452038945962,2.300187071001699,-0.9599380106383121,-9.200520261115617,-3.907760126021707,-2.53612115652071,-1.660045620167977,-11.678073063462461,-9.577066530685899,-5.222030584376458,29.50504822779465,-3.173000883342456,-3.982394924589114
32,-0.050987624637982044,-7.382830847690148,2.3288286431165486,-0.9703796857999627,-8.839859350473175,-3.5818932740072627,-2.419580644800282,-1.6689445955816942,-11.671053648761402,-9.448570434941843,-4.820798982916769,28.55218581959915,-2.977619010972396,-3.1151677399283844
33,0.8171314541578457,-7.466393113925112,2.4492638519344543,-0.9389156421399105,-8.425939445561776,-3.1824843736629918,-2.242212232843606,-1.6627958423499043,-11.56774759686012,-9.230039627737938,-4.334154444404725,27.56474507758618,-2.709937606651202,-2.188803364083244
34,1.7614179300805712,-7.518776962317219,2.6572091030562732,-0.8693737920444345,-7.96157195032132,-2.715288047451518,-2.0083901108422446,-1.6404866541141516,-11.365844394591214,-8.917690090045939,-3.7661763956201852,26.535812496760368,-2.3780711186112704,-1.224653006313446
35,2.7564002194664257,-7.544417173916909,2.946278710313824,-0.7662825974146882,-7.450366701133336,-2.1872461372387155,-1.723251538096082,-1.6011996639762083,-11.065564184296298,-8.510372429959164,-3.1227421431168496,25.458050484704014,-1.9917695943747513,-0.24476723364744443
36,3.7762124000094826,-7.547387506580162,3.3082225555566436,-0.6347418730030167,-6.896750439459365,-1.6063604311394122,-1.392607701354431,-1.5444722649156364,-10.669822553862184,-8.009824274139538,-2.4113850340543044,24.324174157387652,-1.5621347228699807,0.7288353908159623
37,4.795397913072257,-7.531310931057626,3.733178350246285,-0.48030650660657576,-6.305978666755109,-0.9815574243631033,-1.022877148258525,-1.4702452896639815,-10.184306531116434,-7.420825736424059,-1.6411278689219393,23.127376201257054,-1.1013204783037653,1.674869569733345
38,5.789649810101427,-7.499326224692715,4.209940781854704,-0.3088743768241635,-5.684128552883252,-0.322541597978012,-0.6210305492123668,-1.378896270268742,-9.617446848344734,-6.751231295028019,-0.82228156995248,21.86169967803439,-0.6222111052393683,2.5734370396546593
39,6.736477776428527,-7.454096584522566,4.72625114903412,-0.12657079871975244,-5.038062655383251,0.36036610269924857,-0.19453407610275658,-1.271254204166186,-8.980277293338588,-6.011859569625731,0.03379783537746958,20.52236348862723,-0.1380722869741879,3.406616518274308
40,7.615792088434497,-7.397847179726449,5.269109456748632,0.06037428810714928,-4.375357723727226,1.0564073106557703,0.24872015404119863,-1.148594800804098,-8.286178951095364,-5.216234288979774,0.914994506502801,19.106046926516946,0.33782200338784396,4.158973361558318
41,8.41039347873327,-7.332421581573654,5.825107895536716,0.24575619754463635,-3.70419801170881,1.7545848406118543,0.7005052388698693,-1.0126169260041815,-7.550513653713613,-4.380182452833564,1.8087537400572828,17.61113911052155,0.7925769952655425,4.817972437705165
42,9.106357815755684,-7.259349932497429,6.380781417103153,0.42352988892665516,-3.0332369470327287,2.443881736693178,1.152376985392805,-0.8654019266748371,-6.790157053361505,-3.521307424698876,2.7024255735013107,16.037956320055745,1.2140627435183424,5.374278970383636
43,9.693306401043948,-7.179923518177448,6.922968402199352,0.5879456950575642,-2.3714337703039683,3.113499531413743,1.5958182313512375,-0.7093577950211136,-6.0229483674339495,-2.658364417328133,3.583613504935978,14.388925570632141,1.5912777968318634,5.821935358996197
44,10.164556530102468,-7.095270441868972,7.439172819150893,0.7336837716732981,-1.7278721447926053,3.753111564022077,2.02240715035947,-0.5471502016710524,-5.267080495619269,-1.8105723772233508,4.440509154528042,12.66872763072097,1.9146702718899142,6.158407653554237
45,10.517152186163019,-7.0064253511109875,7.917919059257173,0.8559858867497558,-1.1115658608846593,4.353124133470667,2.424005112177447,-0.38162270803067583,-4.540458964655827,-0.9968984282386376,5.262195602917332,10.88438940567029,2.1763991502205338,6.384503228969448
46,10.751779683973432,-6.9143842203431864,8.349090615138755,0.9507841422158512,-0.5312543100976959,4.904935519505019,2.7929591328227272,-0.2157089734741669,-3.86006014304369,-0.23534929415297132,6.038906650473867,9.045315024692343,2.3705250316322317,6.504169560517336
47,10.872575634718363,-6.820135581738919,8.724241901339203,1.0148256417959574,0.004810184912234931,5.401180677315336,3.122312769574733,-0.05234015589633716,-3.2413191716263325,0.4576989927648399,6.762233973137183,7.16324565644822,2.493126007871254,6.524190032369487
48,10.886834452067987,-6.724663237139232,9.036868480660878,1.0457896993728018,0.4890789341941312,5.835948043174224,3.4060168939290993,0.10564930632766431,-2.6975766044844836,1.068104294241051,7.425277404360144,5.252138769476095,2.542338483235892,6.453794916818524
49,10.804621941204886,-6.628920778517265,9.282617140122618,1.04239124342623,0.914919663045181,6.204955033047578,3.639129352493395,0.25561453340702217,-2.239609345869092,1.5844679430741582,8.022735684128497,3.3279589239813987,2.5183250017415517,6.304205413170742
50,10.638302608956234,-6.533783209294012,9.459416465116933,1.0044621558597362,1.2768152364932546,6.505670806867483,3.8179915796059936,0.39518857706899063,-1.8752661893181606,1.9985273422243814,8.550937148182287,1.4083755073964475,2.4231730523167365,6.088128576825798
51,10.401991579334492,-6.43998485672336,9.567511600656402,0.9330018671405707,1.5705371503948011,6.7373782435015865,3.9403710901047835,0.5223628297121259,-1.6092224297643976,2.3054124861603293,9.007812285910475,-0.48763182889974793,2.2607311583128697,5.819222485936203
52,10.110946598041691,-6.348055237510315,9.60939292408247,0.8301893936172167,1.7932833082648467,6.901170938468842,4.005561005485183,0.6355557261057272,-1.442862364102931,2.503752610875258,9.392812520648382,-2.340252640212419,2.0363911285693033,5.511553586769571
53,9.780920916291217,-6.258264820125935,9.589616405548115,0.6993509064849954,1.943771568759235,6.999884543202234,4.014430642665492,0.7336662943785229,-1.3742923795716235,2.5956262858259356,9.70678187997205,-4.12939542800365,1.7568278495485672,5.179070432168941
54,9.42750313224426,-6.170590428586858,9.514522624501089,0.5448795705901693,2.0222832654951297,7.037964265121015,3.969423818352704,0.8161098267124169,-1.3984805656620505,2.586357508093614,9.951790514976933,-5.835286191572052,1.4297100332217922,4.835118748219411
55,9.065474167611502,-6.084706090606154,9.39187060622866,0.3721074430139042,2.030653791598811,7.021272040662399,3.8745034577150808,0.8828337336887099,-1.5075125708725223,2.484170630351868,10.130941168238815,-7.439089369626302,1.0633964334519395,4.492021380830159
56,8.708213540522909,-6.000000425665413,9.230410666485433,0.18713257807373906,1.972210275920268,6.95683911427837,3.735042955689146,0.9343123998425791,-1.690948841164897,2.2997263665700514,10.24816145065022,-8.923522328726893,0.6666321100885174,4.160743047338202
57,8.367186648778018,-5.915616929347171,9.03942619706388,-0.0033918625457157784,1.8516595202609585,6.8525735017235,3.5576673471455744,0.9715206165798757,-1.9362654811957456,2.0455680637962903,10.307995834051997,-10.273434346265404,0.24825856196571822,3.8506536307797594
58,8.051541589451745,-5.830509552582438,8.828276626041164,-0.19249613702635998,1.6749326078627182,6.716936213502359,3.350050632508243,0.9958859609452559,-2.2293593960670246,1.7355112029151383,10.31541112789745,-11.476322534358223,-0.18304995126140608,3.569394988338819
59,7.7678376813284125,-5.743503563882235,8.605972027506871,-0.3731469274573876,1.4489955374116172,6.558603333023296,3.1206788549340825,1.0092214030602091,-2.5550973679291613,1.3840102819827163,10.275627790565325,-12.522759998114063,-0.6190136878184308,3.3228465105672633
60,7.5199187180059806,-5.653351061731032,8.380804691139673,-0.5385000562363742,1.1816374397019094,6.386132242403284,2.878591186029138,1.0136406483707336,-2.897887112974123,1.005537176820521,10.193987243423905,-13.406715333310638,-1.0519303043053403,3.1151768837094527
61,7.308933666340688,-5.558771661096076,8.160055784759177,-0.6821380558096019,0.8812488118089741,6.20764980952756,2.633113079128618,1.0114602733551254,-3.2422456314859742,0.6140044462315307,10.075862677569093,-14.125747338968527,-1.4748072864014816,2.9489654613019693
62,7.13349767462761,-5.458472007418377,7.949787086477539,-0.7982796873777094,0.5566010727375424,6.030578515444544,2.393596087622759,1.0050942512257288,-3.57333751883591,0.22226505897353055,9.92661706695528,-14.681065076702314,-1.8814400562942748,2.825375578320804
63,6.989977421544693,-5.351142814462845,7.7547192012142405,-0.881952763781262,0.2166354120107681,5.861413116259038,2.169177644042365,0.9969474777859689,-3.8774556780692775,-0.1582849839254952,9.751606665176281,-15.077451251968762,-2.2664353094615626,2.7443621640847584
64,6.8728772169771375,-5.235437972308153,7.578189568065717,-0.9291271919578435,-0.12973572937752934,5.7055555013057315,1.968570729197841,0.9893150362921055,-4.142420872963706,-0.5179835654666041,9.556221877853128,-15.323055204107037,-2.6251840785090503,2.704896247779361
65,6.775296961840152,-5.109944926990024,7.422177375903764,-0.9368099035507353,-0.4738152978632389,5.5672098555222,1.799888600114585,0.9842930721790814,-4.357884806760614,-0.8490529870856838,9.34595184155847,-15.42906880916315,-2.953794295086146,2.705189867792354
66,6.689431493323128,-4.97315726605685,7.287379694414379,-0.9031055370772907,-0.8072989758524244,5.449335530993651,1.670504971137535,0.9837054050380734,-4.5155320235959255,-1.145629771265751,9.126455879375754,-15.409303088091084,-3.2489963322762225,2.7429072353098807
67,6.607082956616676,-4.823458926735375,7.17332411862162,-0.8272462549199955,-1.1224449891901913,5.353652074827764,1.5869463202576914,0.9890477657309078,-4.609186181896536,-1.403688341325432,8.903624752608964,-15.279685160304906,-3.5080360238396047,2.815351850776532
68,6.520161986098479,-4.65912577799345,7.07850685991636,-0.7095923245562632,-1.4122355735312047,5.280689456697931,1.5548103798536106,1.0014493840157497,-4.6348338924389205,-1.6208787269715177,8.683616728120551,-15.057695193457262,-3.728568227703857,2.919624000632402
69,6.421157816773828,-4.478346047218937,7.000549336713986,-0.5516037271093156,-1.6705264425911925,5.229875976602237,1.5787030916731553,1.0216500938445428,-4.590583173951375,-1.7963011853647488,8.472856776371765,-14.761762279751823,-3.9085612259362392,3.052747736415652
70,6.303560971069407,-4.279257311066933,6.9363690611879205,-0.3557829734114526,-1.8921784507405468,5.19965608213861,1.662185698597988,1.0499904322328502,-4.4765736128960265,-1.9302415207536932,8.277990509820293,-14.410637591104619,-4.046219263235173,3.2117699690131656
71,6.162224538285571,-4.059995291126373,6.882361330849605,-0.1255905983664792,-2.073164637384445,5.187630206198248,1.8077247474868778,1.0864123040602807,-4.294852590433658,-2.023890621610736,8.105787175423542,-14.022763178790361,-4.139928015876222,3.393835670548227
72,5.993651521860799,-3.8187488498508455,6.834587438436269,0.13466307317020615,-2.210645859891187,5.1907088077705295,2.016640311185929,1.1304683046182784,-4.049228195559315,-2.079070520831687,7.962988745424712,-13.615655377865922,-4.188225693760365,3.596242409565882
73,5.796197167804711,-3.5538160653521222,6.788963796666205,0.41994453426825834,-2.303008942484722,5.205273197358753,2.289050727291758,1.181338352595288,-3.745105964160724,-2.097986708796765,7.856106309459672,-13.205322558213675,-4.189800041452147,3.8164762205989686
74,5.570177517123591,-3.263657326283521,6.741445155034098,0.7246365218513167,-2.349862783939316,5.227336451904864,2.6238148230620193,1.2378527869625642,-3.389313378492223,-2.083021902038404,7.791171084704831,-12.805737510972483,-4.143508141759823,4.052230823851923
75,5.3178787746470455,-2.946942578135504,6.6881940383687155,1.0426861065627056,-2.3519905224630606,5.25269854862699,3.0184746952443984,1.2985216081189601,-2.989912596078072,-2.0365800977532493,7.7734540243059795,-12.428384953564493,-4.048412276624244,4.301413181803855
76,5.043466053372693,-2.6025912004855827,6.6257277817618,1.367759007967304,-2.3112594555190116,5.277090496627391,3.4692035459283685,1.3615700663238905,-2.5559987950472025,-1.9609826895991316,7.80717284861144,-12.081904462721486,-3.903822823167177,4.5621386151850745
77,4.752794433079694,-2.229804537823648,6.551034585202204,1.693398278851264,-2.2304941203077053,5.296302618392522,3.9707637591721254,1.4249811916436228,-2.0974808005137158,-1.8584124078047504,7.895206832554934,-11.771848183400676,-3.7093395952957517,4.832717393555128
78,4.453130120905908,-1.8280926088470912,6.461651429225772,2.013184685468181,-2.1133207311167874,5.306292522147612,4.5164806836623,1.4865460752854665,-1.6248431774245358,-1.7308970456453108,8.038838061197383,-11.500569895611253,-3.4648860345681034,5.111632832666935
79,4.152794715210036,-1.3972976169486826,6.355699734798541,2.320895048997081,-1.9639921275082761,5.303269377657512,5.098238317020284,1.543922678344481,-1.1488927555360282,-1.5803231365413153,8.237534519191573,-11.267256359148133,-3.1707346388379785,5.397509968755295
80,3.860750485070443,-0.9376173846849126,6.231878886715262,2.6106546707680907,-1.7872014326690198,5.283753229414448,5.706504547500085,1.5947034154798827,-0.6804947908898049,-1.4084691825854212,8.48878653704211,-11.068103350616223,-2.827525467337931,5.689074096483333
81,3.5861478368055324,-0.44963201868709307,6.089421687214554,2.877080241339667,-1.5878912377391796,5.24461061390447,6.330394606656319,1.6364905901199474,-0.23030420771269278,-1.217048928937663,8.788003918969784,-10.89662930018115,-2.4362823785728986,5.985098399397687
82,3.337856566111885,0.06566243943101077,5.928017787171828,3.1154088101312762,-1.3710652458203247,5.1830695724811084,6.957780382013047,1.6669772554019011,0.19150296170702594,-1.0077582156967961,9.128476395552259,-10.744111141142183,-1.9984344023001857,6.284338096084433
83,3.1240005648999523,0.606808961791077,5.747711126780281,3.3216063805571125,-1.141610984241264,5.096717934768136,7.575450239791469,1.6840298755380598,0.5754931798320427,-0.7823231457258474,9.501395913355315,-10.600120395345629,-1.5158515472520961,6.585445754559528
84,2.95151346590455,1.171829071346906,5.548777226747438,3.492448423892198,-0.9041432797868749,4.983489147188379,8.1693205762036,1.6857686803454348,0.9132304703898234,-0.54255004314256,9.895937482444463,-10.453131579686875,-0.9909033888250387,6.886861582118173
85,2.825731859255884,1.7581458648584771,5.331587390243984,3.6255658164076556,-0.662876684746924,4.841640593876116,8.724697887564592,1.670641752714183,1.1975214768238747,-0.29037716394621843,10.299396459015108,-10.291169326016139,-0.426544071539909,7.186675789156259
86,2.7500427431207033,2.3624946658871258,5.096469199837457,3.719453212753968,-0.42153107572303566,4.669730293793273,9.22658884659695,1.6374893496139615,1.4226505181878126,-0.027925099969452184,10.697382848640762,-10.102456619893776,0.1735795316619574,7.482466846572916
87,2.7256012119887623,2.980830894919345,4.843574481506329,3.773441097387804,-0.18327007738177498,4.4665985072518675,9.66005459818095,1.5855955400532096,1.5846034207987438,0.24246023304878414,11.074075149680459,-9.876026565169603,0.805006070418291,7.7711266189064565
88,2.751132197834848,3.6082479339949445,4.572765848452484,3.7876361014894755,0.049331275362424244,4.231360263802504,10.010602829897644,1.514724852660199,1.681274257660701,0.5181789983074252,11.41253581858356,-9.602265143389268,1.4623378670010823,8.048688274556595
89,2.8228267447094715,4.238917911008057,4.283531079137285,3.7628358934575874,0.2742942287520251,3.9634123803546935,10.26460663829478,1.4251421471912604,1.712642736791005,0.7963685423157331,11.695087759908954,-9.273361383165438,2.1391339825533215,8.310175021119376
90,2.9343396621021767,4.8660664644521034,3.9749319852714806,3.7004253662500948,0.4902230687636366,3.662454579217956,10.409733904713955,1.3176143380894583,1.6809048664730144,1.0739166791843284,11.903747656384343,-8.883651590118506,2.8278331624879494,8.54948816142391
91,3.0768919158035164,5.481989994942625,3.645591970827849,3.6022607136674356,0.6962730252977075,3.3285206494518422,10.435366795868037,1.1933930571389864,1.5905376727741467,1.3474969479185046,12.020708378750356,-8.429853468049862,3.5197203126976095,8.759352502382098
92,3.2394776172282214,6.078121223520566,3.2937242346995075,3.470547743637445,0.8921000670508548,2.9620139919114,10.332989608608067,1.0541780619654826,1.4482800933547286,1.6136232778845487,12.028859065713743,-7.911192923769846,4.2049474409952055,8.931335406162624
93,3.409171720874582,6.645146227182005,2.917200250470531,3.3077205879898424,1.0777927739888196,2.5637426819683413,10.096524933367542,0.9020623447935697,1.2630158823821942,1.8687191921253328,11.912327763854874,-7.3294309159891515,4.872616222716316,9.055952087572624
94,3.5715308058396857,7.173173819265049,2.5136558796587476,3.1163270680545985,1.2537867729853733,2.134951510868672,9.722602616133647,0.7394614774930909,1.0455501260579887,2.1091947599761682,11.657028791854703,-6.688800010590359,5.510925745619968,9.122864422591277
95,3.711076132168729,7.651956426088608,2.0806307626834926,2.8989273480853828,1.4207634070444288,1.677351109452584,9.210752074599743,0.5690314609341871,0.8082787310574184,2.3315240104766315,11.251196527411517,-5.995860506307192,6.107386809080638,9.12117476953364
96,3.8118455745762603,8.071160294925608,1.615735895088719,2.6580126357733413,1.5795362823289538,1.193145944116538,8.56351439826662,0.39358070276368545,0.5647592429066317,2.5323171618788787,10.6858891823915,-5.25928468515784,6.649103315511848,9.039810953226501
97,3.8579987555891986,8.420681474599798,1.1168445313374555,2.3959501807326737,1.7309317314883135,0.6850628090074411,7.786474897155871,0.21598218580593906,0.3291999776354428,2.7083852718708217,9.955448884289428,-4.489575967308488,7.123120174304556,8.867993322402494
98,3.8344579099851264,8.691002205626454,0.5823024868238083,2.1149599622861857,1.8756715823687427,0.15637970133120882,6.888219142541639,0.039091142725064476,0.11589115367359283,2.8567984820204124,9.057906434716333,-3.6987282847735217,7.516834152296556,8.595769199793615
99,3.727566012643035,8.873579985427023,0.011154958065259787,1.8171275208813555,2.014268418690163,-0.3890470880030046,5.880216662177164,-0.13432812115389656,-0.06139425369697412,2.9749420319322,7.9953199372140284,-2.8998301620190112,7.818459105959685,8.214594453430568
100,3.5257425753481635,8.961258110768775,-0.5966131272160768,1.5044556534416735,2.1469439013727136,-0.9467614827990481,4.7766365336826135,-0.3016645493186723,-0.19000092164462337,3.060575916269513,6.774035942711154,-2.106618567543162,8.017530718579444,7.717936680977025
101,3.2201143752062884,8.948681045703898,-1.2398292033375828,1.17895391313107,2.273578704465754,-1.5116971978645684,3.5940979400376043,-0.46051171250018663,-0.2589649796124894,3.111903271875626,5.404859259818934,-1.332990964872585,8.105428659852478,7.101868954902851
102,2.805092594452137,8.832690505263558,-1.9158900474802718,0.8427587963037393,2.3936982230828603,-2.0781856124424167,2.351356874505007,-0.6087092427712517,-0.2595357710605182,3.127648928514647,3.903113144078256,-0.5924907037637734,8.075886445091449,6.365616663826831
103,2.2788613054585043,8.612670497257625,-2.620544409359124,0.4982704901307283,2.506492850920659,-2.6399897596340667,1.0689292053105517,-0.744375788095741,-0.1856219298473214,3.1071446584978424,2.288567198136152,0.10221058997599151,7.925452465809484,5.512014093363166
104,1.6437380277769005,8.290804539498511,-3.3477291348390974,0.1482860560270061,2.610866905680512,-3.1903704229990772,-0.23134863010939813,-0.8659347095284252,-0.03413811362512738,3.050413752398554,0.5852089963098337,0.7398027478424054,7.653861624119559,4.547825037936995
105,0.9063679448853651,7.872208438618508,-4.089489415544829,-0.2038942372562099,2.705506966505373,-3.722186545782566,-1.5268170568244812,-0.972132917533859,0.19477158863029792,2.9582456263613914,-1.179160691806691,1.3107653194816273,7.264277888956676,3.483885788737626
106,0.07772108100334392,7.364909231216723,-4.836010001310689,-0.5544095422057738,2.788958828461831,-4.2280281333389444,-2.794540320470478,-1.062052303263922,0.49765482733238087,2.832251287340939,-2.9735195885938066,1.8077045827542202,6.763375719713633,2.335040796581425
107,-0.8271237499560478,6.779655328548768,-5.575773367844963,-0.8988461310724625,2.8597028043185206,-4.700377166587685,-4.011889220811303,-1.1351127475084497,0.86782965659131,2.674892396555941,-4.7643986393926285,2.225579489428257,6.161242662564891,1.1198601775030252
108,-1.789405981687018,6.129561855033581,-6.295845523504716,-1.2323167109901036,2.9162195851030615,-5.131791425503634,-5.157141117817934,-1.1910660254347527,1.2956200774811835,2.48947927275253,-6.516819525504692,2.561809580557784,5.471103494663716,-0.13985022181214607
109,-2.787301424920796,5.42961386941096,-6.982275242219678,-1.5496073466317088,2.9570426045744167,-5.515106907550162,-6.210075785674685,-1.2299809308081,1.7687325552116022,2.280134705734143,-8.195359953798127,2.816269081107308,4.7088832352614425,-1.4197171074370916
110,-3.7966986581711226,4.6960643912620155,-7.620582334129754,-1.8453790411877224,2.9807969563113184,-5.843655026700882,-7.152545085562823,-1.2522210512816225,2.272745140334667,2.0517201533745526,-9.76530139755518,2.99117768749436,3.8926383323722016,-2.693606249452142
111,-4.792094048240406,3.9457718412710587,-8.196306537027013,-2.1144053614076803,2.986228504839967,-6.111489459771386,-7.968995475678304,-1.258417274392111,2.791674528560834,1.8097199857652149,-11.193808729228646,3.0908998404414616,3.041891391596611,-3.934523982820991
112,-5.747563816551805,3.1955227150497305,-8.695589113512435,-2.3518252729121687,2.9722291363749394,-6.3136140916462535,-8.6469240628571,-1.249437173622622,3.3085870983490104,1.560080149688449,-12.451089646958275,3.121663242384768,2.176906502666692,-5.115572605087216
113,-6.637771638758124,2.4613817399927433,-9.105761183137894,-2.553390571002869,2.937864651033346,-6.446199234201284,-9.177250443387084,-1.2263531374426642,3.8062262625356347,1.3090013967717389,-13.51148181914786,3.091207524181469,1.317941869970121,-6.210921914436243
114,-7.438970045577467,1.7581056748358448,-9.415913729355516,-2.715688933213662,2.882410565920226,-6.50677036651282,-9.554587578491732,-1.1904106169666357,4.2676376931374715,1.0626937187019625,-14.354416273896263,3.0083770274294213,0.48451549375205827,-7.196760501160739
115,-8.129952807560489,1.0986499154242866,-9.617423364596057,-2.8363262881055316,2.805398553635468,-6.494353944239265,-9.777395667418132,-1.1429972189162065,4.676782918404517,0.8271062909896202,-14.965207423645866,2.882677100162914,-0.30528168581814147,-8.05218906936956
116,-8.692914153691081,0.49378984971388323,-9.704405970323341,-2.914055591591986,2.7066734152311134,-6.40956858798935,-9.84800458571445,-1.0856127172063674,5.0191370317273725,0.6076542296176014,-15.335624278310766,2.723819546390501,-1.0353926992936642,-8.76001541512918
117,-9.114170164504179,-0.048128312548875764,-9.674068656969412,-2.9488427100251946,2.586458412702166,-6.25465582333829,-9.772494439029794,-1.0198396481147012,5.282265111061675,0.4089680118896392,-15.464204520779747,2.5412879918293814,-1.6922919247447208,-9.30740905612959
118,-9.384699845022917,-0.521299935744087,-9.52693119826742,-2.9418638331961486,2.445425541668637,-6.0334507642879265,-9.560430952437232,-0.9473140762561085,5.456364232361398,0.23469167729177565,-15.356284189015717,2.343955436266142,-2.2653481514213945,-9.686375396475254
119,-9.50047076257738,-0.9224387778840236,-9.266893464883598,-2.895433360220238,2.284765875044564,-5.751298350372379,-9.224462555550204,-0.8696962436184309,5.534746564564789,0.08735070297127752,-15.023731985093905,2.1397819231889046,-2.747036691208765,-9.894016845215143
120,-9.462528056725185,-1.2506296538943182,-8.901136329174737,-2.812867139442375,2.106252507425471,-5.414923835578906,-8.779797959814308,-0.7886410069037437,5.514228284082327,-0.03169973709751107,-14.484398398732289,1.93560988405492,-3.1329958570593117,-9.932562127286813
121,-9.276844251346262,-1.5070792393301868,-8.439858416074383,-2.6982928030612183,1.9122853734141476,-5.032266273668893,-8.243594441192876,-0.7057682182504305,5.395382840234794,-0.12224789384932142,-13.76131267149109,1.7370608922485957,-3.421937117656973,-9.809163158725248
122,-8.953946287422848,-1.69479599107807,-7.895866447802831,-2.556425085659667,1.705905119829077,-4.612280763758937,-7.634294913873286,-0.6226335045178227,5.182618385487508,-0.18513266500419792,-12.881680283567938,1.5485242242925141,-3.6154307281168125,-9.535477357374308
123,-8.508351582942465,-1.8182340244368345,-7.284049442423281,-2.3923277545454744,1.490763909370235,-4.164710713603761,-6.970954119707881,-0.5407001185134703,4.884049446508648,-0.22210413358465317,-11.875746498645743,1.3732177127547498,-3.717596645194691,-9.12706868412046
124,-7.957855083600485,-1.882934390970485,-6.620775036751674,-2.211184382062375,1.2710447272474763,-3.699827878885289,-6.272590985772801,-0.46131256008092963,4.511151062662438,-0.23565796115418708,-10.775596600532,1.2132958431130827,-3.7347333752885157,-8.602671624466604
125,-7.322714226502761,-1.8951918448851734,-5.923249326537475,-2.018097743331132,1.0513265185076497,-3.228137705612996,-5.557597145343253,-0.3856726134206134,4.0782059803467865,-0.22886140100421495,-9.613961198835883,1.0699790115044068,-3.6749159271088017,-7.983368014826043
126,-6.624778616396379,-1.861766955044383,-5.208879383935538,-1.8179321826391541,0.8363992906647822,-2.760051323975126,-4.843222678372719,-0.31481851599032856,3.6015773694631066,-0.20518341530596718,-8.423085684871818,0.9436817924660177,-3.547588842289153,-7.291725818342927
127,-5.886606485520303,-1.7896530009453895,-4.494670008764259,-1.615205178193154,0.6310402871323775,-2.30553261591607,-4.145151000420336,-0.24960810627745986,3.098856574914955,-0.16833531297326942,-7.233707957611169,0.8341267984794911,-3.363172018649978,-6.550941625315711
