,AF3,F7,F3,FC5,T7,P7,O1,O2,P8,T8,FC6,F4,F8,AF4
0,-0.9188534171207895,-1.0907661057169986,0.048103706924083375,-0.7371338749355084,-0.22519062542906754,0.12194714345993403,0.3872078804163843,0.5612237513926294,-0.2749004468666972,-0.929144258885093,-1.0598014498381048,-0.6958669581978232,-1.2516149572454849,-0.9505231091092301
1,1.8892200686623313,-0.23641681176779913,0.4171252055919051,0.22582946307057858,-1.791578278359578,-2.430018138614025,-1.7001754442484651,-4.237372224337193,-4.005398085804333,-2.341107931625456,-0.00533427443934154,0.421614175841159,0.6125231411733519,1.538863001327346
2,4.53126607036551,0.6001307796120818,0.7535435990048092,1.16501295583701,-3.220419188816108,-4.808914818516325,-3.6087398076843136,-8.607859778624377,-7.358265553630893,-3.5727331598171825,1.001415976153077,1.469073430495083,2.374556191091918,3.897910992055447
3,6.8300284495906975,1.36623566033988,1.0291861770843294,2.034397519606912,-4.371330298724643,-6.807673988646371,-5.137137039374192,-12.11853633278563,-10.010313250193196,-4.510809142163927,1.8664439966897268,2.346740107023143,3.871306271019718,5.938208188286419
4,8.642122021494268,2.0232808453956634,1.2208706071976496,2.7955443226790133,-5.130732569716396,-8.254523234107825,-6.133899646776062,-14.437607374050142,-11.717745427042468,-5.072328727267914,2.514138033088349,2.9767856871267946,4.974036359998608,7.505490780175373
5,9.868294333726224,2.5489304095034053,1.3128478016217215,3.418519106669439,-5.423982275973991,-9.03004120203751,-6.515370761486761,-15.369196623933599,-12.343009225323634,-5.214035105661629,2.8942150432681215,3.3112626542139716,5.600555128064759,8.493054568192282
6,10.45882001388037,2.9366068490029735,1.2985344544178408,3.8817932787491065,-5.223150251513711,-9.078234212905414,-6.273842205502402,-14.872053849503516,-11.868061736958953,-4.936834456846698,2.9858612607647412,3.3362202173934707,5.721546323914837,8.849638981536739
7,10.413723118621345,3.1924269963222964,1.1813093423299492,4.171366640496449,-4.549635434916812,-8.410562386616533,-5.475037664670066,-13.059020865891794,-10.392585947364763,-4.284523772856983,2.7987011530576535,3.0715849798783172,5.360637123942862,8.581150649455118
8,9.778148631126463,3.3302618501933146,0.9742544242783633,4.279468970547949,-3.4714271493597595,-7.102759740383241,-4.245682906412998,-10.177911754351257,-8.117765492439966,-3.3371256196277814,2.3705206035153505,2.5669447228010966,4.58846524183347,7.746333967748639
9,8.633784621816998,3.3659183804781443,0.6988452425871355,4.203248410036314,-2.0954567436921714,-5.285175516214099,-2.753357991092094,-6.576904337878111,-5.318182279615811,-2.199901075214631,1.7620066527918397,1.893903676647207,3.511705856354688,6.447209008135591
10,7.087690839152674,3.3116156053935675,0.3827183497106299,3.9438302467666304,-0.5560266479662913,-3.128092457846375,-1.1819060988448464,-2.6594844729478417,-2.305944649386123,-0.9897057418971037,1.0491032041138126,1.136114866860205,2.2585969974218254,4.81569301221171
11,5.260143273536436,3.1718977859040764,0.05675256728668221,3.5060292324948783,0.9992889396074989,-0.8239628758117754,0.29378168851745706,1.164832164966871,0.6079317395682576,0.1793262268227019,0.31387310833514664,0.3783762118782313,0.9628843727826543,2.9982204658452365
12,3.2731099994017616,2.941883937715309,-0.2482151409876701,2.8988359042866048,2.424655845623671,1.4313054554104085,1.5298552770488825,4.527503315526409,3.149701582319668,1.208779419294201,-0.3650464886485648,-0.3037395343546893,-0.25175851087088846,1.1403208121616673
13,1.240727511879531,2.6083272276952476,-0.5046687814012375,2.1365996246663044,3.5902708617663106,3.4559898790658496,2.429381663746165,7.139838440531178,5.112020206966411,2.0259419966025365,-0.9212449773552961,-0.852376598577807,-1.284913967340408,-0.6270179316606261
14,-0.7373069975912524,2.153419509464869,-0.6913088971792524,1.2406329377393686,4.39447554149586,5.0974589849668615,2.950061210094407,8.819338096275416,6.3726352500486385,2.5896210955671695,-1.3075347611444577,-1.2329798352601598,-2.06867813561898,-2.1977520130339423
15,-2.5790878899186347,1.560718568579686,-0.795222821236222,0.2408006793007164,4.772568863775516,6.243212042497855,3.1032477503558535,9.501053660124226,6.900881643364881,2.891307307751627,-1.50032469300966,-1.4363936293854853,-2.5720611892040472,-3.4970660632368693
16,-4.220845989640743,0.8221030096686778,-0.8130679775128345,-0.8234298257519892,4.701625418740333,6.827505998177603,2.945167402575058,9.233715571874747,6.752007616931809,2.95190482083064,-1.5009148495099989,-1.4774170348143303,-2.8003115277917843,-4.483298466006943
17,-5.615023712353268,-0.05562884072522301,-0.7511228419985249,-1.902984087449761,4.201094137046158,6.833566741845194,2.562434823751904,8.162447924309031,6.0510281134418085,2.8148583846767234,-1.3336834166408933,-1.390251857478386,-2.789662475379894,-5.145885794323176
18,-6.727123207701486,-1.045934904901555,-0.6241988487662817,-2.940597005250817,3.329400051792889,6.291801936408782,2.0547420237318113,6.501540860198432,4.969118362904946,2.5369577936379417,-1.041554937020536,-1.2216785310164253,-2.5986052372560633,-5.500197517726715
19,-7.532444080169004,-2.100662728776663,-0.4535490127562896,-3.8738018356456916,2.1771447677384552,5.274689224567849,1.517824459854763,4.501773138008813,3.6963550144929704,2.178334189283255,-0.6794827725121654,-1.023045830148315,-2.2971949612045393,-5.5804348345720785
20,-8.013668469638217,-3.15185113104354,-0.26403617689609976,-4.63936883943183,0.8577617690161734,3.8891058250588726,1.0294762271789204,2.4170621297159998,2.4148069888302968,1.79316365376354,-0.30689680712441675,-0.8422440502000895,-1.9560447530538532,-5.431852235456294
21,-8.159905610755628,-4.117283903889107,-0.08091942340004121,-5.178798789354221,-0.5033826690949122,2.2668320964341597,0.6405846004704825,0.47479112476710345,1.2755943301961843,1.422381079392203,0.01986725824227325,-0.7167505884800274,-1.6365467733877952,-5.103438970463872
22,-7.967356285246389,-4.909204998787713,0.07333131470054416,-5.444250754166051,-1.7804308004241851,0.5538659687227402,0.37206712340575615,-1.1468384298130565,0.3826763469088198,1.0893297496103762,0.25422876313875287,-0.6686156583883216,-1.3835165707353252,-4.64191483134814
23,-7.441297380081433,-5.445003159363,0.1817837505101467,-5.404138827232594,-2.8580682508363955,-1.100905239071222,0.2174501399342726,-2.3324426690694193,-0.21503762407852936,0.7987954890305077,0.36440072904724957,-0.7019347757934931,-1.220960648823694,-4.087519401154053
24,-6.598714435418795,-5.658257320254906,0.2350025686635108,-5.047594923405331,-3.6413201755503914,-2.557162731761501,0.1498476693330054,-3.0335612075019616,-0.522950257087111,0.5393678430295099,0.3363905020314943,-0.8029849376182147,-1.1511156417087172,-3.4716872805629877
25,-5.47070176095181,-5.50838432178901,0.2319721507601494,-4.387079329595903,-4.063420152539939,-3.6941873885893504,0.13145416870966123,-3.2640589212557374,-0.5923268944795599,0.2885968116149952,0.17486278709931055,-0.9428376841071758,-1.1564051905381436,-2.816382608959047
26,-4.103744758895182,-4.9872839861847345,0.17987355590587825,-3.4586255320932002,-4.091218769829999,-4.420802878107595,0.12344329208435031,-3.088686663728709,-0.5060424226616616,0.020023720771117665,-0.09796236511453256,-1.0819559301868702,-1.2035996111799716,-2.134674658225
27,-2.5591961030101764,-4.121818219163516,0.09275831506876331,-2.319509898556184,-3.72776207340118,-4.683450804452047,0.09436465988206817,-2.6072889129079377,-0.3610825588507327,-0.28910047189219007,-0.4450252112823277,-1.1760732355926293,-1.2493000706812156,-1.432099085304969
28,-0.9106179535739217,-2.971623722382547,-0.01069345731548322,-1.0435000927731721,-3.011844162907765,-4.471549879519103,0.025667368489957917,-1.9373298710224824,-0.25060836453605734,-0.6507065782491074,-0.8183369496410648,-1.1825645539078062,-1.2459075005593898,-0.7084501941901096
29,0.7608868631947352,-1.6225285444009314,-0.11002187149067794,0.28579816964035865,-2.0145286099072206,-3.8193369536968116,-0.08628770475473382,-1.1971917480846794,-0.24823904369114635,-1.0606425741794427,-1.1636921286674775,-1.066540879114085,-1.1474290068244106,0.04016963887062729
30,2.3727886565163736,-0.1765788836519586,-0.18605038900617737,1.5826736883510932,-0.8328425212329633,-2.8035910765805925,-0.2315973136524899,-0.49217586842253375,-0.39669851606154677,-1.496248808131841,-1.425862347705889,-0.8060091715117852,-0.9147381726659694,0.8190378055373603
31,3.847785240299722,1.25975494214558,-0.22373582911141662,2.767117804543224,0.4189291185149395,-1.537011103121874,-0.39078883051940433,0.0955590125140361,-0.7022000635160176,-1.9173740234606684,-1.554019437575408,-0.39559725778108373,-0.5201479213035137,1.6321292176663758
32,5.119931522063896,2.587341639724374,-0.21440000937709763,3.7716797562362223,1.6196958464209181,-0.15751862568927294,-0.5402055910759127,0.5126162332198909,-1.1350338715062864,-2.2709242924018125,-1.507161086543375,0.15148097767575766,0.04870068271454366,2.4789793204881874
33,6.1392330455320145,3.724319697799288,-0.15701862492304983,4.546482512539923,2.6529036055173956,1.18568090160791,-0.6574964628511774,0.7356785824669279,-1.6359060932337117,-2.498475226015435,-1.259272903372148,0.8033738063247009,0.7856227911591905,3.3511609711644645
34,6.873958837776112,4.612767657212663,-0.058375205689473554,5.061800793463832,3.417755018844979,2.34791964321356,-0.7260740023345905,0.7691481866080896,-2.1267763005285514,-2.5459378001522666,-0.8038617288411884,1.5114530765919063,1.6634603826640062,4.228692551369047
35,7.310362231815323,5.221309996919353,0.0679461797164772,5.307996396003651,3.839224310131569,3.2050181576927113,-0.7377966127038263,0.6400294137769303,-2.52434972245556,-2.3738318091204067,-0.1573639501951996,2.213956934137896,2.632760468879472,5.076971050504739
36,7.4500146624054375,5.5436107599206705,0.2035828902605693,5.293041647379731,3.875817825385776,3.6674328604241597,-0.693624810998541,0.39109483785148075,-2.7540661163145477,-1.966468479900021,0.6391804749711794,2.841171186511436,3.622096166786136,5.845042584108565
37,7.305451056511398,5.593453042430558,0.32813249071154493,5.038264397633234,3.5241888533852705,3.6907554936483806,-0.6024735310748937,0.07335758918809229,-2.762419791693142,-1.33834001470454,1.5208317474128195,3.32181028640855,4.540690711336149,6.466100626461213
38,6.895188955412377,5.397696735080263,0.4222048385999726,4.573239569911996,2.8199946813765675,3.2810855770442093,-0.47882647449769855,-0.26123254026600323,-2.5257442524671387,-0.5362942553109754,2.4023745129941236,3.590166788070963,5.283952203892043,6.8609768903048
39,6.239328588513829,4.988732944425302,0.4703395190218643,3.930867819645252,1.8347605764735584,2.494404181026359,-0.33983426575252146,-0.5661105565113035,-2.0541634512940465,0.3633689223403738,3.185135726283951,3.593500323696909,5.74224394450312,6.945035942795594
40,5.356819396224548,4.398047569876408,0.46336297543510746,3.1435885867563504,0.6689458035832039,1.429848296744803,-0.20257714713356778,-0.8048683269150371,-1.390174218854372,1.2629632546719036,3.7668319963398633,3.2990312223368106,5.812703987405393,6.638324952120966
41,4.26510001966155,3.6521742259167644,0.39984377899232293,2.2413861989176094,-0.5581624212998825,0.21761047706236042,-0.08197478460893794,-0.9541268737270596,-0.6021728940312534,2.055835582580285,4.053725640457458,2.699804031848581,5.4132552901185225,5.87814039389183
42,2.9822578374212974,2.771729980383676,0.2864361387776559,1.2518215645680284,-1.72072261092235,-0.9970558669784986,0.010455880641212247,-1.0043934158341485,0.2259530609031739,2.6414770150407483,3.97378655526574,1.8186263859697713,4.49724010932903,4.632479019911455
43,1.531231871109025,1.7735076907603213,0.1370607981508959,0.2018455179157714,-2.6994968859352553,-2.0716788599001528,0.06707208731644476,-0.9590290097356382,1.0074096230927183,2.9410149948357205,3.489075919761827,0.7093141218453239,3.066531398191143,2.912294440113273
44,-0.054966219192704516,0.6748944794370504,-0.028963623231196403,-0.8792798882521883,-3.3944690950126444,-2.8839291731080574,0.08408038240675111,-0.831681275432776,1.6651423806043977,2.9104823391081185,2.6053194115718097,-0.545375470718231,1.180685627259843,0.7802314975818757
45,-1.7283950849981622,-0.5006552869901508,-0.18957908634799567,-1.956918972507722,-3.7355218119961564,-3.346222450380692,0.06135568010823054,-0.6427260862926932,2.142430440531612,2.54941947824567,1.3767272496711853,-1.8394434237230126,-1.0401631843635233,-1.646334205072567
46,-3.42315061046188,-1.7186258973990773,-0.32306666583498445,-2.9889138308617094,-3.68995968151874,-3.4156673708124945,0.0023711032381517096,-0.4153797175291189,2.4096874574953997,1.9029989708548838,-0.09540428603203706,-3.0528683712488527,-3.420349623532932,-4.199525672043745
47,-5.055379453232538,-2.9303826477166446,-0.4111167659577674,-3.9252555411975987,-3.266001015138844,-3.0981156729094352,-0.0856713395308588,-0.1721571290675157,2.4664229736396,1.0568934989052206,-1.6709376396789466,-4.063701357842074,-5.742281103788021,-6.673043167983549
48,-6.5270379896551445,-4.073111668541154,-0.44146267804691325,-4.7101133770712496,-2.511800880242268,-2.44589292541241,-0.19163154678178293,0.06775508037485867,2.338213877900987,0.1253742227748273,-3.1855286517410635,-4.761842777790488,-7.767854820214686,-8.84142401640126
49,-7.733379550726825,-5.0731915396318605,-0.4097072573086977,-5.286246007405454,-1.5100690358928495,-1.5496582465951165,-0.3004360416418441,0.28986219777756256,2.069468235745175,-0.765610156986898,-4.470051798952646,-5.062844631999415,-9.265512604729931,-10.484524643868351
50,-8.573387322350852,-5.852715600479192,-0.32008059389568916,-5.6012705100549285,-0.3688519309276556,-0.5256302555157274,-0.39365365720846307,0.48440459423350224,1.7135465453153045,-1.4976212415096384,-5.372241968370513,-4.91981745628586,-10.039541781026976,-11.414177273352935
51,-8.96171709417552,-6.338234537493598,-0.18501061485814768,-5.614807055691757,0.7904967399378509,0.4999866631427568,-0.4509290940648851,0.6453243322561246,1.3222754000876407,-1.9779153155865752,-5.77738717192956,-4.331549995367161,-9.957489484822812,-11.499313256196094
52,-8.840316975149896,-6.470335825203271,-0.023550188220136232,-5.305252828548495,1.8467833773638866,1.4072170165246431,-0.45236874751807665,0.7686373290797032,0.9369438686261613,-2.153451588664964,-5.624849650063009,-3.3453156504249852,-8.971481556262972,-10.685773030225837
53,-8.18783774873761,-6.21249990188269,0.1411377493031163,-4.6749264827891475,2.6923114122053198,2.0969963710989847,-0.3817052408144362,0.8508105847524784,0.5824988802468837,-2.018270514869496,-4.917718642594706,-2.0535217859512707,-7.129889551619934,-9.007593685362435
54,-7.025247950440694,-5.557790884105925,0.2849030969927724,-3.75256537881144,3.2445126333863303,2.5024368491564677,-0.22979107257965195,0.8877091991364123,0.26593118587878795,-1.6129986947792896,-3.7239321012042863,-0.5842629624644617,-4.577089593199985,-6.587707641863203
55,-5.416655763223458,-4.5323087648235,0.3859177931926589,-2.592597004686505,3.4544914488876306,2.595336932460408,0.0022394261585373227,0.874499290729816,-0.021073597891018495,-1.0166944139093506,-2.168558092656418,0.9131893690273981,-1.5407883428857103,-3.6275110474095453
56,-3.4650893490063424,-3.194858366783634,0.4277195252215121,-1.2711470833204812,3.3114806821165836,2.387313080462351,0.30088413061855307,0.8066175509036954,-0.2960514724038765,-0.3326485721942191,-0.41833825415172493,2.2860779890486036,1.691751685607268,-0.3864011227005498
57,-1.3037454178910328,-1.6328643996245975,0.40157089197974033,0.12072068207116118,2.842729003236242,1.9257072635306622,0.6399246716402396,0.6816147640590159,-0.5777786088647424,0.32918852239888335,1.3392036628732746,3.3965898923769835,4.805598876785442,2.846146897513254
58,0.9161541511997634,0.04492329674382425,0.30780671690532474,1.4856121340675097,2.1089318696904793,1.2851403620186852,0.9822242168275545,0.5014178606280688,-0.8782819059199981,0.8699751022677051,2.9190073887652743,4.138423466720208,7.493982214785577,5.78233149466559
59,3.0393476291631902,1.7180121451740658,0.15598048211003382,2.7290855134786596,1.1958951758566339,0.5561297030829074,1.283694864191958,0.2743891458413679,-1.196679760832348,1.2168748846688395,4.160754165141775,4.449159598589594,9.493365378473538,8.167478401306969
60,4.920661454106778,3.2649125809546113,-0.03621411744564513,3.768395034756049,0.20360073895897018,-0.16750208560434218,1.499016575962751,0.016530764870393157,-1.516258024371732,1.3326988735304488,4.947157022076615,4.316749434816796,10.613242265619995,9.80719247320272
61,6.437686939359758,4.573893834447242,-0.24510286533807957,4.539637365731235,-0.7658434167668324,-0.8006583056433041,1.5882905110673078,-0.24869863233817482,-1.8054727009543288,1.218994026441377,5.215997085926091,3.779337081791317,10.756947809721447,10.586895501656208
62,7.5007192509975225,5.552702386037552,-0.4439829061095793,5.002550770220611,-1.6197823300498906,-1.2768826998158909,1.5235470260998105,-0.4922352756144625,-2.0227310840014514,0.9125383918738676,4.964686176213852,2.9186383116673054,9.931076636457187,10.481557172224663
63,8.059098580186783,6.136383740528225,-0.6064757913361176,5.142602186197315,-2.2846597262554162,-1.5550140437300137,1.293969206861756,-0.6828664920284336,-2.124009502406504,0.47637951379762605,4.247279255732175,1.8480245793606462,8.242663180886142,9.554780366833024
64,8.103553669999345,6.292571708689664,-0.7098453030457504,4.970385548374263,-2.712593893794409,-1.6219742759735976,0.9088607807352502,-0.7918583049273097,-2.0717754545313136,-0.012568934532631259,3.1649060093301906,0.6971687305929006,5.884861126873356,7.947782906607354
65,7.6645810970467565,6.02383978766178,-0.7378577504317306,4.518683282350863,-2.8842277882711795,-1.491654336842718,0.39775624061895004,-0.7980004144818431,-1.8434072880164467,-0.47692340009205897,1.8513797844470117,-0.40450371078749725,3.1132466096613456,5.860038953632191
66,6.807265727174571,5.36693712169522,-0.6828303210604744,3.8377720719247974,-2.8077563345873613,-1.2003851311156257,-0.1924325626877052,-0.6921199410932736,-1.4373958421217632,-0.8508305240378411,0.45617864395748825,-1.3432851416170235,0.21588973924689256,3.524261290679149
67,5.623240011783362,4.388961359612148,-0.546624029691115,2.9896681271270826,-2.5145867348348547,-0.7998933341730847,-0.8028186113232758,-0.4801045092842365,-0.8760473270746398,-1.0886849672097874,-0.872939547224659,-2.033614266268751,-2.5191013984421553,1.1789343841311546
68,4.220683970188463,3.180759711112357,-0.3404771136542436,2.0420120226173153,-2.052550405570445,-0.34890157066346367,-1.3696403295258601,-0.18367069444599585,-0.20409312723816617,-1.1694885911800956,-2.005673850637584,-2.426068591039727,-4.83477783941252,-0.9582787453524592
69,2.7133885015976955,1.848096557162465,-0.08372366754063396,1.0622104260045064,-1.4778874698574125,0.09537879952098754,-1.8319488674634288,0.16150787235802264,0.5165930956030594,-1.09670097429501,-2.841718087868689,-2.510248491441057,-6.531850963862423,-2.713209833837202
70,1.209956472573878,0.5013678693594432,0.1984193020902189,0.11231458731210212,-0.8473207657844061,0.48469318142313894,-2.1387306986100345,0.5102072129226385,1.2152317874468457,-0.894274214364407,-3.319113792670267,-2.31262667631172,-7.487753985923163,-3.971495462863429
71,-0.1957932223467579,-0.7551450018960354,0.4777030824558748,-0.7550394655655117,-0.21141473925422066,0.7851832127236246,-2.2544910419068906,0.8139875900373054,1.8218550724853917,-0.600159124578378,-3.4179942377935797,-1.8900913134499655,-7.666446857836298,-4.686918259416103
72,-1.4322362282359293,-1.8333433108004202,0.725974737915017,-1.4994464108816739,0.3898972937414865,0.9802092007288459,-2.162664714137746,1.0284461333904664,2.276807768788472,-0.2588211959644912,-3.1597819885650016,-1.3203863386746222,-7.118197953966825,-4.88114425800958
73,-2.4543683961399188,-2.669527865813078,0.9182000897697999,-2.0942362756379134,0.9291754042708542,1.0703391113093133,-1.8666433195514884,1.1201589830881984,2.5384466851405696,0.08579254855659545,-2.602282791138894,-0.6909058832409657,-5.9696514426379546,-4.635223741410692
74,-3.244747481088099,-3.2297129341556614,1.0350342006759123,-2.5266930181037535,1.39077276644688,1.0706919541728015,-1.3886160326090788,1.072095288051729,2.5878585539046446,0.39576672041576216,-1.831398063785338,-0.08733377448921868,-4.4055058675011445,-4.074162251769533
75,-3.8108585779457345,-3.5112780480824126,1.0646685224954513,-2.7970859515943434,1.7680742465263826,1.0061876414835016,-0.7667282874454124,0.8865260129196009,2.4300124314963116,0.6426639548495746,-0.9503803972017564,0.4165315249269905,-2.6440104196632084,-3.346657844262754
76,-4.179279592851812,-3.540643714733297,1.0037904505233297,-2.9166769749662333,2.0595164731878364,0.9055369575362159,-0.0512097159996,0.5848781489922013,2.0914172888948945,0.8088899308720997,-0.06770427559003035,0.766710211328711,-0.909157477414311,-2.6026598370158864
77,-4.387485699127444,-3.367199166036272,0.8576089047033002,-2.9049255078643204,2.2644065577313595,0.7949717533195719,0.6999047261269935,0.2045210229654601,1.6149424276301307,0.8873815871387118,0.7152732779398923,0.9340380362083687,0.5971554889089943,-1.9716653301877007
78,-4.474514322950631,-3.054270435747285,0.6390112489154455,-2.7861688028286062,2.379539827534832,0.6927464622495199,1.4250048195085,-0.2069842150871176,1.0528761941630826,0.880249906121511,1.3156399379596886,0.915919058421427,1.7196625327639488,-1.54458904068311
79,-4.4719484520311905,-2.6684045959671225,0.3670079947093219,-2.5861056698439224,2.397416494538466,0.6053312279926071,2.062869650484979,-0.599190257336145,0.4594874706742841,0.7970213810653825,1.6780530960812101,0.7348950154137119,2.367943965702147,-1.361612011346056
80,-4.396714172808369,-2.268572586658615,0.064683413646981,-2.3284496029796258,2.3065108231405924,0.5259742439748489,2.5563744531146786,-0.9263705585841507,-0.11569673105179999,0.6529556169024349,1.7806143826786935,0.4344100974968721,2.5259806757096386,-1.407668867693942
81,-4.2469965327848405,-1.8969879269256242,-0.24310002214895995,-2.0321318307743748,2.093615376952365,0.4359623829003409,2.856082226297483,-1.1541318228641062,-0.6329419361285303,0.46764656355129136,1.6367201245952812,0.07239679355629007,2.2517166119864096,-1.6162457593606947
82,-4.002156007080276,-1.5730627170663989,-0.5319952007575228,-1.7094130821093445,1.7478428291728827,0.30849490698871596,2.923863569380789,-1.2639350459453067,-1.0651271162705356,0.2638357186380049,1.2925236132501987,-0.28652600074421725,1.6665365457418237,-1.8810453016466224
83,-3.6269198117244024,-1.2915804698581357,-0.7802385555683512,-1.3651939499164,1.2654967704450537,0.11465621623678203,2.7365544669535278,-1.2548305529284742,-1.3982294381497742,0.06616496496722264,0.8201589119230969,-0.5793689790463983,0.935893603792818,-2.073975116273754
84,-3.079415781359625,-1.025512747339754,-0.9703140046674013,-0.9976928790126391,0.6547887595425639,-0.16941115299513598,2.2894355864420484,-1.142238136163229,-1.629781737069809,-0.10046395688983223,0.30743239125999855,-0.7527254996464131,0.24355947534899172,-2.0669889291607038
85,-2.3219282844141658,-0.7331441974601633,-1.0900920056520482,-0.6004924319736081,-0.06067290564025046,-0.5553116327671158,1.599071937151137,-0.9541429419532776,-1.7659149847603326,-0.21315611540044935,-0.15479386334592266,-0.7695528500278357,-0.2370650605449225,-1.754694614262286
86,-1.332707333693724,-0.36842574740882256,-1.1333882439908962,-0.16575325769657734,-0.8405508942616305,-1.036475695522964,0.7048748699467987,-0.7255197691914184,-1.8177462925517747,-0.25391489979058274,-0.485908399303266,-0.614102275881565,-0.3706092795597251,-1.07444344399363
87,-0.11685248932381566,0.10712322363154127,-1.099951174832232,0.31181444617033255,-1.6292040246217994,-1.5847228597894323,-0.3312866348449329,-0.492058523959294,-1.7978622747055908,-0.2128591188532715,-0.6277334630801903,-0.2944966655643625,-0.08239609667618003,-0.020873144540200925
88,1.285722679191599,0.712989880311975,-0.9949451751136578,0.830817363521662,-2.360012622380043,-2.150218797949608,-1.4279537845437322,-0.28430354762352206,-1.717507311724408,-0.0911976127256342,-0.5538282341693188,0.15733187266056858,0.6272838938915447,1.347428395702492
89,2.796953855896965,1.440776046461242,-0.8280417803807144,1.3796020185643794,-2.9622335592656452,-2.6652532642051168,-2.4896383820600447,-0.12315073731138243,-1.58486451956328,0.0967593577167997,-0.27447487983368407,0.6883985448365573,1.6796020428069907,2.9104303739155344
90,4.303066569333318,2.2495951213434218,-0.6122622937811169,1.9339794053401422,-3.369535013465108,-3.0516662384048128,-3.4148568719301977,-0.017320783156231784,-1.4045656012161207,0.3232543437097886,0.16354344339986776,1.229931678798938,2.9251920032945202,4.498383025390961
91,5.663171743807744,3.066922163053713,-0.3627276982219335,2.4569023105165364,-3.528999768637299,-3.231127449062974,-4.105953758147196,0.03697655734838419,-1.178330207667417,0.5489052437638556,0.6825641967411102,1.7047331735217732,4.162977243041802,5.911528187072913
92,6.723498713574296,3.7952595177752273,-0.09546298805028232,2.900525152819001,-3.4092104373061436,-3.1369327010644246,-4.479632620063387,0.05436399120787605,-0.9064524108413574,0.7268499753211263,1.1845034013769586,2.036008531668554,5.1675391615176745,6.945436867019922
93,7.335848371747552,4.3240770175750916,0.1736278743562321,3.2107432239457228,-3.0060808487736685,-2.725616441379606,-4.476876102445258,0.05708160177944566,-0.5897441916200523,0.8089345800406625,1.5648821229615661,2.156858548785803,5.721485169957483,7.418782652325403
94,7.378078105746738,4.545608018147723,0.42954884697086543,3.3339017797044908,-2.3453788010220205,-1.9865664990820906,-4.070918648006786,0.07087322897079593,-0.2315189614023879,0.7532338749519135,1.7286002835718148,2.019481310291882,5.648488448451596,7.1999345524581955
95,6.773912561933763,4.372361276301841,0.6587500323648657,3.224943140759173,-1.4813583259084369,-0.9479970513840257,-3.2721455094509118,0.12062554982859998,0.16075911402778517,0.5318461811234529,1.6053143264351692,1.603048314517609,4.842458293310846,6.228787734155833
96,5.509200609719909,3.7537620207331166,0.8494594356278632,2.855892166567188,-0.4915091231964149,0.3219238378988677,-2.12918662401596,0.2263100145226978,0.5744442049181858,0.1377091524019504,1.162231094144668,0.9192171206433641,3.2886879971973526,4.530739889273779
97,3.6419521190932995,2.6892513290568183,0.9918865115602471,2.2233410298726777,0.5319615653859261,1.7193435702899176,-0.725975734042534,0.39962048031893377,0.9914684030205713,-0.41081415964194695,0.4123748585526392,0.014350975292518454,1.0737621644707513,2.2206039968379487
98,1.3040849812306101,1.2354905569689265,1.0783873718090946,1.353547608869757,1.4927768572967643,3.1141735020017944,0.8249399509362336,0.6415460296674211,1.3889499065132989,-1.0686170659253447,-0.5831047212544842,-1.0322452715926749,-1.6176307448116924,-0.5045768429703674
99,-1.3062512544837137,-0.4939841158455881,1.1036677127937449,0.3039482840031525,2.3018830998494613,4.363730205589991,2.392112982415665,0.9410121657135456,1.7406048147995772,-1.766431250886293,-1.7192906263976049,-2.1143853084681004,-4.519202633125525,-3.3835069967301763
100,-3.941720751421871,-2.337314122786799,1.0650652112525982,-0.8396911171828901,2.8877928191490256,5.328936702052526,3.8369000453862054,1.2746797353800479,2.018831859286812,-2.4173923467756118,-2.8583675605989805,-3.1091655754870415,-7.311393523299903,-6.117741000213714
101,-6.330855720387405,-4.100567408652498,0.9629067010275382,-1.9706444799423828,3.2045300242676564,5.891031043712358,5.025984920589394,1.6079947615173422,2.197273053172071,-2.9270558822696535,-3.8459485016132415,-3.890455758405225,-9.658430757889986,-8.405014952745086
102,-8.208512302172608,-5.579997974694869,0.8008868163728334,-2.972546190764435,3.236109970076017,5.966604602779837,5.843563593281754,1.8975949031355934,2.253605368335314,-3.205739146907673,-4.530983129205267,-4.3443488429052275,-11.249746294322321,-9.974969809347707
103,-9.348126082682548,-6.5876212120551525,0.5863742769970641,-3.733379236385388,2.9970327497599345,5.518980831448281,6.2021700336223775,2.095149968295901,2.172288028209745,-3.181593920358272,-4.786742456350154,-4.3847155533996,-11.840595636829619,-10.622915588933479
104,-9.591602010011863,-6.976728406992252,0.3305290577072854,-4.1602727590918525,2.5288889110612542,4.56441296019862,6.0513173148157335,2.152601675083202,1.9469766941484572,-2.812550066805642,-4.530039575318154,-3.966729335517327,-11.286568212339027,-10.237294401667592
105,-8.872666957524315,-6.663733130586515,0.048115065599666225,-4.192938142189437,1.8937558459494395,3.172247951374,5.3833273497419585,2.0285518603699515,1.582320540569882,-2.095271889496781,-3.735885454380551,-3.096249465764958,-9.567214017405917,-8.817071012183112
106,-7.230110182858769,-5.643029519093993,-0.24307936906693567,-3.8136016710594545,1.1655047552399542,1.4589695515915726,4.235886429077467,1.6952459296972897,1.0948835523213416,-1.0695609612841448,-2.44522586218475,-1.8333185914534444,-6.795209197719216,-6.476381003624872
107,-4.80849604067573,-3.9923439464325816,-0.5232504180041857,-3.0516888722617748,0.42036872217808247,-0.42321420279192823,2.690992426855762,1.14526979862043,0.5129821047851927,0.1828037813506116,-0.7642353741267944,-0.28873252028970947,-3.209226039967627,-3.4352911523551684
108,-1.845526590008479,-1.8672944769913795,-0.7719886680874846,-1.9822391662099939,-0.27188273230280047,-2.3019293761804467,0.8700886306131838,0.3968188367680902,-0.12468777592212263,1.5450468267735127,1.1452368789577134,1.3864091471161228,0.8492458651699477,0.0027049508217462854
109,1.3529475734754015,0.514625045886356,-0.9699901006154296,-0.7179706642976068,-0.8550356233100969,-4.002563301754367,-1.0746364392125662,-0.5036886326636284,-0.7716459395788341,2.8776176599573873,3.0832220153359637,3.0172059996232607,4.9727351201748995,3.4840545336891093
110,4.447485533144727,2.898870430414266,-1.1009014520243712,0.6040840073502902,-1.2910346332139646,-5.366533635496023,-2.9725180385705565,-1.4827129864275612,-1.3773175244629687,4.034272850929984,4.835141404986004,4.4255612843910495,8.733981217310676,6.645442175904435
111,7.104931663118351,5.024366522399182,-1.1530837309257942,1.8395642913531434,-1.561788267610153,-6.267857242980961,-4.649590462451547,-2.4450238872559233,-1.8915355283319635,4.88000038556849,6.1982746960032955,5.452194851366166,11.735797819925827,9.156028852602368
112,9.038448183019876,6.655676255856429,-1.121058023686343,2.854972833117953,-1.668307207354472,-6.626190273863787,-5.945534813472296,-3.2833939531820366,-2.2694388530641834,5.308396757952466,7.007641091743857,5.977017125209436,13.658270478013629,10.756250372301142
113,10.042361567094867,7.612426221814459,-1.006415837836285,3.5444301138951895,-1.6276710578246958,-6.414923067584852,-6.730800254728557,-3.891686004265972,-2.4762511335719655,5.2560726733154715,7.157706724624069,5.934928788893717,14.297158878299763,11.288134778232266
114,10.017079800057905,7.7918980865972545,-0.818031297897123,3.842562268257922,-1.4685562903847693,-5.663474607559301,-6.921945378744164,-4.1796921721945255,-2.491385136911071,4.711987704471867,6.61682098245924,5.324693809565097,13.588434083670421,10.713158259556044
115,8.980653022987918,7.181620584047027,-0.5714957403049095,3.731703715209629,-1.2261464084323135,-4.453577827694397,-6.493112475153405,-4.0875106172738205,-2.3113394174639392,3.720267133263586,5.4322538517552,4.209512188026454,11.615671036872591,9.115306162924371
116,7.065395233439592,5.8602156530127205,-0.2877936154259291,3.2425035196038117,-0.9371905805251762,-2.910009945698112,-5.4817243063477505,-3.5970172528970727,-1.9509380685357829,2.375951821837014,3.7250236758386177,2.709145996094967,8.599299595591628,6.689013156478897
117,4.5000815039230675,3.986447936257672,0.008661675056459038,2.448066277157361,-0.6358114072222907,-1.1868322904402289,-3.987025766378102,-2.7381975039044804,-1.4426108315200623,0.8141433600203266,1.6751726847827337,0.9847256844574198,4.869170172413567,3.713728856199834
118,1.5802593335558264,1.7781279806239148,0.2924252278683085,1.4527465983240313,-0.3504357539500102,0.5493004730601763,-2.1609590911464998,-1.5887632241736238,-0.8336198626843192,-0.8060315070782195,-0.5004710465163231,-0.7815405430362039,0.8241461910284065,0.5186731220992126
119,-1.3691513962888096,-0.5160511037444919,0.5395802271324489,0.3774733545295637,-0.1019887680135684,2.1368730912052056,-0.19195801793708125,-0.2665162120039394,-0.18140167508516203,-2.3204656860159876,-2.5749428774662313,-2.4088104049931105,-3.115850741111686,-2.557376061854177
120,-4.033800240760371,-2.6477341190424037,0.7301587264323637,-0.6561187971071892,0.09670545405677368,3.4362743404881653,1.7166044110437948,1.0848381962597249,0.4525228695954629,-3.5795456376776817,-4.338525531677893,-3.7390362208315437,-6.559002785100856,-5.2058744095088585
121,-6.147009826002421,-4.398875490413394,0.8501336898601676,-1.5404709621284796,0.24050886676481376,4.343694599995756,3.3705990810260653,2.3145133789729515,1.0093628030448065,-4.4654599301090565,-5.6231834307036195,-4.654503111706318,-9.185629668982974,-7.182751064465491
122,-7.519246632362173,-5.606510336116062,0.8927429803094848,-2.1938736207020786,0.3308058155759756,4.800601539850574,4.608639890791316,3.285256603828241,1.4397190672907088,-4.905111552722768,-6.320898464624905,-5.089329782573217,-10.781651460740441,-8.332950322774563
123,-8.056424029939814,-6.179285832017977,0.8589882995558323,-2.5679302712918313,0.37387921895726245,4.79778262214295,5.321512137969459,3.8924700242708896,1.7091788029102413,-4.877070718202443,-6.393727681673587,-5.033793827078613,-11.257651829249994,-8.602656764443259
124,-7.765209858454781,-6.104011692414905,0.7572546896217573,-2.6501546091381774,0.37910159782962155,4.373620496190931,5.464647123210398,4.078698965437858,1.8020371012507241,-4.411864726074536,-5.874638986642606,-4.531441321657633,-10.65178674660209,-8.038390861997366
125,-6.745380050576247,-5.4419531163920185,0.6021065247319017,-2.461880017806606,0.3571777228967264,3.6069903585537006,5.061772229484693,3.84107911464605,1.722593729859939,-3.585823783478265,-4.859485877699421,-3.669941377572057,-9.117001896141884,-6.773961608057505
126,-5.171006453851003,-4.31599741537213,0.4124204005107826,-2.052271260561044,0.3186221091883311,2.6058379872817627,4.19922006606394,3.230517024661599,1.4938291676781636,-2.5095575938599963,-3.4916623790349837,-2.567403694487759,-6.895068320659137,-5.007798575251041
127,-3.2636559377143763,-2.8909827718988876,0.20909936302990137,-1.4896407111110603,0.272593642167124,1.4930185423496791,3.0118404673091943,2.3427937197207123,1.1536652670769765,-1.312813072688526,-1.9418718586544068,-1.356304765819528,-4.281544635912259,-2.9742624243777214
