,AF3,F7,F3,FC5,T7,P7,O1,O2,P8,T8,FC6,F4,F8,AF4
0,0.07939155123732913,0.016604057410314937,0.7693039292573814,-0.08226719924185237,-0.08123876782410125,-0.3171100060887515,-0.5723453391255265,-0.15909844231186906,-0.22101544625094602,-0.1221087711765205,-0.10158009550599371,-0.6191305684290458,-0.0654448508239501,-0.2452794854350116
1,0.6126935976378383,1.5941616226404944,0.7771363198371417,0.6822800437397564,-0.05481360013299233,-0.038661447371018606,0.5099861877596356,-0.43284531587668823,-0.5034719735365351,-0.462282608283039,-0.25889451668522956,-2.4818394057218076,-0.877804451832759,0.40671866975434634
2,1.0518182942551697,3.009885310379944,0.7035606604480007,1.3669781954350382,-0.043371103022230954,0.19462153474305893,1.513841427830253,-0.7308359609917707,-0.864833645161701,-0.8561039863051849,-0.48318495776999126,-4.24551046723738,-1.7100798921403109,0.9589194079175459
3,1.3230809835942103,4.133111680770779,0.5002890574173156,1.9051731078277123,-0.04679682727425167,0.35107729953598704,2.342568133528822,-1.0459250327587994,-1.3323041637186057,-1.3203328294145034,-0.81866221795715,-5.802039205588546,-2.542126737856542,1.3213270215350408
4,1.3794214852864306,4.868306910268315,0.14739327761790563,2.2476787056799656,-0.061329805053602124,0.41277717663272345,2.919473304605496,-1.3568437472576387,-1.8980341435139567,-1.8465215820429335,-1.2801298300222517,-7.040367262634309,-3.337507407851009,1.440425801120411
5,1.2081371537800316,5.165782687065175,-0.3403737183890407,2.3683551162284204,-0.07970848467234648,0.37690345969547273,3.1948228999553554,-1.6302191803238086,-2.51685586167717,-2.398235224538995,-1.8467631122456138,-7.853093229845789,-4.0423990405136925,1.307972116372312
6,0.8331176696855699,5.02616576731256,-0.9140101378018013,2.2666963583357336,-0.09195075022378045,0.2549762719825721,3.149950426860161,-1.82563446125147,-3.1115455379759847,-2.9139489722039236,-2.4624797028040013,-8.146350334608638,-4.588792564333579,0.9618601578748456
7,0.3112595137468868,4.4981150936009175,-1.4974304748000313,1.9671338204474855,-0.08672705866256375,0.07018265570048914,2.798190253041918,-1.9029170798131136,-3.5848958395598247,-3.3153517628662628,-3.042989508123697,-7.851984726521335,-4.901882977456559,0.47898076410469614
8,-0.276317323089251,3.6697855259733227,-2.0001143367562952,1.51522076701646,-0.05318250223130634,-0.146694224811578,2.1826743309237857,-1.8303559803313019,-3.8366367553121914,-3.519805231879968,-3.4884729890257433,-6.940285185693461,-4.9107296512959095,-0.03863808257464217
9,-0.83681500679764,2.6554328724313847,-2.3330042929574404,0.9712796080282092,0.017024820093130152,-0.36208689022090507,1.3713302173957547,-1.5922902629302025,-3.782315568406529,-3.454940964327649,-3.6998824060797437,-5.431014505784522,-4.560585295591942,-0.482004506826491
10,-1.2800750142231105,1.579205574049783,-2.424845436737974,0.4024106981223772,0.12776044660138663,-0.5444773616697594,0.4496647508598174,-1.1945460946557378,-3.3708090001851203,-3.0729559668985864,-3.5962478961129984,-3.400399492992267,-3.8248759037962032,-0.7545652442236931
11,-1.5324509269082847,0.558488873975051,-2.2360860740087136,-0.12605664119461107,0.2768365966451107,-0.6685771261634995,-0.48790817796427166,-0.6665286469313381,-2.5972820095271194,-2.362154452104357,-3.1301897761107393,-0.9820931825419801,-2.7147345622187595,-0.7896038866228308
12,-1.5481422856580336,-0.31086949740052044,-1.7678794109666933,-0.5585569744845712,0.4551113092820076,-0.7183114033214528,-1.3473438001982654,-0.05934448239452587,-1.5091138942991753,-1.353676358009694,-2.299102297170256,1.639119121361939,-1.2842610938585892,-0.5627801228556736
13,-1.3163246433854938,-0.9654888102421735,-1.0645524142708982,-0.8557211211591873,0.6464905915335493,-0.688267575885782,-2.0439805773496342,0.5599712654192428,-0.20346414788208683,-0.12207529268460171,-1.1501217702618562,4.2410623990303,0.369751786683894,-0.09777353695037137
14,-0.8630708663279713,-1.3801995414322683,-0.20899315883830982,-0.9984751776988252,0.8289599775641204,-0.5835087756725411,-2.510486106953372,1.117351119079097,1.183453664756757,1.2206619273186607,0.2220882069640712,6.584407475076512,2.114110678228147,0.5358935358157861
15,-0.24784624370111455,-1.5680429235999394,0.6884254914505676,-0.9893558577941267,0.9766407849348562,-0.41790313835632986,-2.7030541033931055,1.5423728503211198,2.4939254068802588,2.5370703341519554,1.6846480810324105,8.437361052786791,3.7911524460145825,1.2325530981756139
16,0.4448400039605534,-1.5747933361021926,1.5057037582033632,-0.85096543028235,1.0627176066075448,-0.2113423957385982,-2.6053486911359007,1.779030216361295,3.5704953250006337,3.6806433198753528,3.0817439565774642,9.601920699438995,5.235099365128547,1.8661484880123331
17,1.1173488021098892,-1.4690287210158097,2.1273792702995045,-0.621865587844827,1.0629369927360777,0.013616863121990432,-2.2298995080435295,1.7948423064898011,4.278585130079055,4.5145588859790955,4.253871753128966,9.938327103888739,6.290931790995341,2.3096685921719406
18,1.6726247268930914,-1.3293587755506566,2.462130805632695,-0.3505364125832501,0.9592571525023038,0.23509128641876595,-1.6168648872790359,1.5867706088721678,4.526455756055035,4.930115044717029,5.058438890985252,9.384336630769832,6.833419393365659,2.4553248849995315
19,2.0277303141266696,-1.2307557953027732,2.4570291248841887,-0.08826004177913961,0.7431578405698018,0.4346345430554746,-0.8302832071815763,1.1828895991524295,4.279392359106207,4.862270203094615,5.388891425660919,7.966427646838625,6.783806922621514,2.2324340582311573
20,2.1253067144849673,-1.231983337101836,2.10617042192754,0.11809939865312398,0.4181141542026394,0.599014997845787,0.04788154138453567,0.6394068320658777,3.5658806845887425,4.300029761014757,5.189708576659049,5.800997219768618,6.121839961867897,1.6203195881151926
21,1.9414191859714995,-1.365892437341374,1.4523177347803293,0.2324668012526512,0.0008035728872708936,0.7208019684441076,0.9254235181769023,0.03334454852748085,2.4747626844708663,3.2900869791995873,4.465152633177958,3.0848769207398408,4.891323614671288,0.6542809329057709
22,1.4888002186671832,-1.6338998872143105,0.5812762073216806,0.23426676661062243,-0.47925186598840086,0.7977848015133355,1.708679059141381,-0.5481363738266432,1.143713656885804,1.9330234019993857,3.2804977759206824,0.07591619420820232,3.1981742775216944,-0.5763239258845707
23,0.8151678950444655,-2.0053483207203104,-0.39014145388175014,0.12090446071943038,-0.9817201960632852,0.8314633126138913,2.3116601551882057,-1.0202651356203807,-0.25933019717629324,0.3723800752514127,1.7554672693379825,-2.9342573401293075,1.2008586148803115,-1.9377276167514916
24,-0.0030244305683086166,-2.4217584791222198,-1.3307199973042876,-0.0922448913947223,-1.4590649423519677,0.82501671827133,2.6647174666276974,-1.3132275535181424,-1.559126529405877,-1.2221101045076455,0.05064901342188363,-5.652086289816148,-0.9059012756133797,-3.2679073791418163
25,-0.8704493371802166,-2.805311919904517,-2.11349084256638,-0.37426634337998,-1.8613938370348655,0.7812577260232473,2.721917254620369,-1.382898453707196,-2.5971460804425917,-2.675017967219468,-1.6514014429206174,-7.814638113353878,-2.912367098504382,-4.397116659641776
26,-1.6849720779564694,-3.0703364685389314,-2.633610608903243,-0.6831690975558808,-2.1420291512810157,0.7010916517835001,2.466403344872356,-1.2180724715587297,-3.253162790494552,-3.826780658486516,-3.167946763510441,-9.218797450540823,-4.617464613990183,-5.170050740407374
27,-2.3502808415596737,-3.136179308266599,-2.8228054747799587,-0.9717413786662329,-2.2631396753588016,0.5829174245269864,1.9131766068565803,-0.8429745975961356,-3.4612499996004185,-4.5534716103797095,-4.337925599325877,-9.743418253208452,-5.851989511446438,-5.466657141388565
28,-2.787437520357419,-2.939688640473209,-2.6582812905678925,-1.19398785066078,-2.200714644120325,0.4232295735918998,1.1089392519635861,-0.3144816476424164,-3.2178210515367445,-4.782110310590885,-5.041050759725705,-9.361660374017873,-6.498386713847587,-5.21877033727843
29,-2.943927163199313,-2.445597436911378,-2.1648803759470026,-1.3112850433354297,-1.9481934812211155,0.2184255355512821,0.12889339830731175,0.2857359175031746,-2.5805335501569058,-4.499416499222805,-5.211688312529769,-8.142027139401506,-6.5045135566290675,-4.420315162711951
30,-2.7991819473569697,-1.6533960588029006,-1.4103204086922976,-1.2974499831138493,-1.518196923281784,-0.03247093789635028,-0.9293695372536527,0.8631402205989129,-1.6582702251139059,-3.7527977448210468,-4.84576829369436,-6.23811623287901,-5.889524161795654,-3.129698550002637
31,-2.366064551067365,-0.5997545057625866,-0.4944090511703025,-1.142084398232778,-0.9420264382143058,-0.3247341539263984,-1.954512282715761,1.3246120209050556,-0.5937961227748993,-2.6434319114916787,-3.999923709468813,-3.8685775529282966,-4.741012088135859,-1.4640600784890603
32,-1.6883426604945135,0.6438510612368253,0.46597783701347845,-0.8518083624122489,-0.26688575341778903,-0.6452615458375501,-2.832021649248319,1.5929301492298078,0.4581657713137632,-1.3124060479822972,-2.7830980926490594,-1.2900245263505705,-3.203688606363412,0.413875126102006
33,-0.8346964840833826,1.9780175480256408,1.3537745024437615,-0.44929655872366847,0.4489079629695297,-0.9710974351110178,-3.4558796437536574,1.6191604166028857,1.3540026042602673,0.0781638356352111,-1.3418561667586204,1.2335046134661494,-1.4610013800585882,2.314645632326356
34,0.10979332472773577,3.285920490861697,2.067876183788738,0.02966760495467362,1.1421636218060744,-1.269821876194986,-3.740313404748707,1.390933409275128,1.9818553249159085,1.366418662525874,0.15855496872889208,3.4606003793667197,0.2879413388280775,4.04419507243688
35,1.0534808568279632,4.446104220506217,2.5361834975229938,0.5406458951156742,1.7517261955132575,-1.5021673269187363,-3.630451593739646,0.9351999854829312,2.2767183452473265,2.411511898458443,1.5548198491740228,5.198318451269613,1.853118780806793,5.426501070135717
36,1.9080495490680032,5.345939867955555,2.723728949233676,1.0358549483631059,2.225167882131191,-1.6267964592207924,-3.1106481801690125,0.31491000026278176,2.2278160525890565,3.1109863591409432,2.7050971280134095,6.320764826220114,3.0767413958339898,6.323856436765328
37,2.5973105599851354,5.894078581183896,2.6349017474043617,1.4696046652422547,2.524393191696157,-1.606700495302752,-2.2092921222731476,-0.3799765305374989,1.877344035609866,3.412413292510421,3.5049490505850467,6.778472183836569,3.851709005153706,6.652300414891691
38,3.06399943624473,6.030394064637799,2.3097357148981352,1.8031709262603381,2.629438915416972,-1.4162583602901728,-0.9991388271616615,-1.0458238165717675,1.3110418564990503,3.3177651192689046,3.8976720506531457,6.597901937849639,4.132932981327128,6.390348520116944
39,3.274009730427105,5.73227270382065,1.8151452187647756,2.008536245505224,2.539999880983877,-1.0477271603017269,0.40740756966516384,-1.5809675141337491,0.6423297955808464,2.8800514384274094,3.877872670099479,5.87173138938078,3.940062770465999,5.580050923492432
40,3.2178841829802427,5.016615837924643,1.23274517703035,2.0706292856971036,2.2745265794639407,-0.5158809660976033,1.8680803596141875,-1.9012533516580536,-0.007301818487972617,2.192881086003285,3.4881196864137887,4.741765596924933,3.351375137300924,4.320404269563005
41,2.9097424745101,3.937487755556179,0.6453574175881872,1.9879255705626708,1.8670768419783352,0.1402978935977334,3.224968965422907,-1.9530461812894986,-0.5284529123262455,1.374649147925726,2.809498439461138,3.377191274319259,2.489851986905894,2.754117377687127
42,2.384102993391849,2.579887646478641,0.12441349979367401,1.7714992691546356,1.3624112452660604,0.8595632203608176,4.321862045339239,-1.7216799833347776,-0.8413280047154333,0.5498244119784704,1.9477401217064463,1.9513471102364908,1.5035920559929887,1.0495557847296457
43,1.6912198895367974,1.050568552020522,-0.27979859639628335,1.4428066473047405,0.8100535527815147,1.564104592726397,5.022821772005735,-1.234038028189559,-0.9079078457875429,-0.16979256087207428,1.0171633227540466,0.6201693784908199,0.5434959410419915,-0.6197452748067092
44,0.8916021669527789,-0.5328801445989867,-0.5436728517108876,1.0306132780562136,0.25815907803713456,2.168482873911012,5.22970512446675,-0.5548795227312602,-0.7369861333334722,-0.7010164452490428,0.12486564814061452,-0.49498827504212045,-0.25848723580718885,-2.095371115138648
45,0.050330478103926185,-2.0533520160825516,-0.6710135339998942,0.5675384571762586,-0.25196920098200726,2.5906836590732203,4.896243175697722,0.22248921566144453,-0.3814372258170335,-1.0000790854196577,-0.6425759435652243,-1.3182693734041986,-0.8074048503814913,-3.251596243511895
46,-0.768326449636682,-3.4046667745401575,-0.6891897466775391,0.08668053933320008,-0.6899999148755506,2.7637251196921224,4.036528231547071,0.9897271570988059,0.07169222643776298,-1.0667643332563599,-1.2281502767019206,-1.82308627958935,-1.0570950429506973,-4.008127015501068
47,-1.5056360903000516,-4.500071155674236,-0.6416953062429454,-0.38128571210707374,-1.038832516361014,2.646055190122133,2.7263480265530506,1.639058132103359,0.5165651807562879,-0.9414131258027785,-1.6082094299557264,-2.028933328317251,-1.0141635727575404,-4.336593680910649
48,-2.1122498121763336,-5.278062030197011,-0.5786279295754125,-0.8102672995114486,-1.2947857705576764,2.229064989901615,1.0966922774696406,2.0785817592854454,0.8468780973923132,-0.6954661789118927,-1.7908919212822028,-1.9923769821759685,-0.733779442390886,-4.260218432130308
49,-2.551077021054373,-5.705195404350878,-0.5468505450585975,-1.1800356993634455,-1.465809699878894,1.5404253803875743,-0.6801736545714673,2.2450217214657417,0.9741697166307539,-0.41723101418732583,-1.8098845676845177,-1.7940663537923405,-0.3081718025868697,-3.846994611296726
50,-2.79917128870837,-5.775950976304733,-0.5815329044755999,-1.4766427302992922,-1.5680957873111672,0.6425609546951812,-2.410579306044552,2.1120940629548843,0.8432006036558818,-0.19529795595704377,-1.7149148053235246,-1.5239836330957024,0.15019547579212075,-3.197553013311205
51,-2.8486521640175044,-5.5100717788934865,-0.7004189219008059,-1.6920947507128348,-1.6216781669745501,-0.37369277031573006,-3.9028344848725514,1.6934060714372858,0.4419928617873364,-0.10236262971230087,-1.5607797434102284,-1.2671683153150988,0.5280272031462231,-2.42954904156807
52,-2.7066859898913616,-4.948040748860371,-0.9015970856151863,-1.8234895425665512,-1.6457459799981733,-1.3994730608928374,-4.991076264737069,1.0396685377390071,-0.19500199771634147,-0.18208889445006005,-1.3968131633946232,-1.0918312146181224,0.7301110006350863,-1.6607906086037845
53,-2.3945282486189554,-4.14546321093202,-1.1648761938386032,-1.8718563460398077,-1.654409995704355,-2.3209330631484053,-5.556334607709029,0.23087369383185746,-0.9910339862537855,-0.44109468772791205,-1.2584691626908953,-1.0412054515968894,0.6948405478454321,-0.9933916203023958
54,-1.9456150753157977,-3.167100167262361,-1.4562130046739536,-1.8409352851592646,-1.653585664154367,-3.033177611568442,-5.541864207703744,-0.6351824804782109,-1.8377636579009642,-0.8472665647839418,-1.1622199459829556,-1.1297784867650154,0.4040601749622811,-0.5009809723176261
55,-1.4027090481839535,-2.0811749907550965,-1.7341240292262654,-1.7360969567575573,-1.6394839925880569,-3.453211343594694,-4.96052656661246,-1.4561822291857238,-2.61082557629842,-1.3345646309955872,-1.1043284534714592,-1.3438403208926686,-0.11411035245048165,-0.2204782128717531
56,-0.8141704426897285,-0.9544032543788553,-1.9567329271274279,-1.5635478658638806,-1.5989650805775952,-3.5301791982255204,-3.8930812158542527,-2.1383667748118262,-3.187824259759988,-1.8134499422883983,-1.0633866447698321,-1.6456841602611987,-0.7896986790248741,-0.1492616915402889
57,-0.2295386354238337,0.15198395691468794,-2.0881010101831814,-1.329903059725161,-1.511737397282027,-3.2515758615458554,-2.477500452812043,-2.607583650774706,-3.466049752044296,-2.185218895661307,-1.00592097265588,-1.9803913507145923,-1.5216818610263565,-0.24781526667055123
58,0.3052497072064223,1.1851092147966056,-2.102747967371095,-1.0421413186355235,-1.3541135105187336,-2.644664877277902,-0.8906769382323888,-2.816919594077678,-3.3773414531488526,-2.3579852321687698,-0.8939427449098518,-2.283962268656036,-2.193387990430287,-0.4472487025435497
59,0.7525400379496653,2.1022161832477795,-1.9877287847824539,-0.7078964398050174,-1.1037957668937766,-1.7729945085253453,0.6750308933417997,-2.750169517991973,-2.8980497573906474,-2.261871327510571,-0.6931103815137138,-2.4916101533245905,-2.6901178191415,-0.6605262505323036
60,1.0869719987695283,2.8714237511066383,-1.742190845635327,-0.33598586226335464,-0.7449957451845193,-0.7285369798373771,2.0372290857167634,-2.421081956261893,-2.0528358245307157,-1.8611582116015193,-0.3801819299110635,-2.545264409728099,-2.9163845221067954,-0.7958605630072888
61,1.2982342995598275,3.4716076734264645,-1.3748773433084505,0.0629604798231503,-0.27311266573505166,0.379471508842891,3.0474092664178136,-1.8689504976512645,-0.911972348623441,-1.1616465746206406,0.05135805038350404,-2.399658229783805,-2.8103290340102127,-0.7705557905809161
62,1.392046921520989,3.8915823599373964,-0.9004616372555314,0.475929827661975,0.3017802136208597,1.437516921465169,3.610065537053961,-1.1515946795115695,0.41727929664533814,-0.21220487216170122,0.5882686773740927,-2.0267220758769,-2.3533573219889155,-0.5236076292872338
63,1.3890359210166179,4.128775153689609,-0.3358113131637114,0.8871764595769073,0.9532664523767577,2.340948965365417,3.6943604615689365,-0.33703575602004576,1.8038614977305534,0.8996905051839068,1.19747590767321,-1.4182984099691873,-1.5737740668899716,-0.02556704773842193
64,1.3214385151552692,4.18759771765514,0.30274934123656005,1.2782361602854388,1.639144093990135,3.0056247139035626,3.336705092470602,0.5047930553203285,3.1087754588168117,2.057800406061736,1.8288819397624319,-0.5873819925595607,-0.5440433291892237,0.7154815521248558
65,1.2279059242886043,4.077725152568774,1.000378062201835,1.6284127390444985,2.3043374838124207,3.3766274427233394,2.633854784643608,1.3091368049669905,4.201423244188804,3.1310287392916556,2.420619610736099,0.43185127412241364,0.6278291876186872,1.6525286909925274
66,1.1470102701068465,3.8124916804896736,1.7425116031657242,1.9157899008387158,2.885975388233932,3.433044011041208,1.7274275953882356,2.021484491163659,4.974302816532159,3.989562897062171,2.906029464752669,1.585030290839979,1.8115426568443862,2.7030355458378112
67,1.1103515048554522,3.407596857941749,2.5117382180302403,2.118753848996147,3.3201385796932943,3.1883298575947663,0.7819629516442267,2.6002292745030244,5.354259335151225,4.521176602978591,3.22147722052275,2.799547256758925,2.8705760714374757,3.7568179350254858
68,1.1363387548525319,2.880279030568363,3.2835130996540296,2.2179344459225345,3.54951659217804,2.686400339093099,-0.0404046105503818,3.0170138882540476,5.309066360036104,4.645645744275839,3.3140918944840827,3.987624930659749,3.6790014243459814,4.687656844557426
69,1.2257343153277889,2.2490443028880565,4.021905509815113,2.1983921568806903,3.531031585459532,1.9941727328729157,-0.6050203815770145,3.2552674469556986,4.848814417712357,4.325495209540869,3.1485683561379907,5.050753815240186,4.136930210986822,5.367473271070793
70,1.3598706819745108,1.5339390300880988,4.67675875248774,2.051804496389159,3.242417556770421,1.1917553120972335,-0.8258318921947378,3.307725374455525,4.022308834631477,3.5717586759984816,2.712312215279787,5.885764285660274,4.182727809091678,5.681592612873936
71,1.5020926275647424,0.7572349249260946,5.183549550899646,1.7783529226676469,2.68680514666822,0.3617643589031982,-0.6793260688135129,3.17383105140841,2.9093197255211196,2.4440346548940206,2.0183836170088845,6.39264669425965,3.800578517794675,5.5434336669171485
72,1.6024872854168843,-0.0557158561637214,5.466847883799568,1.387994523088165,1.89455899343428,-0.42069680410932137,-0.20901012238780706,2.857830973711791,1.6100021991781257,1.0447968647645298,1.1059037151100877,6.483933107368869,3.0225794353976765,4.906926435599239
73,1.605423693190307,-0.8757735968883242,5.447653347593895,0.9008353762384274,0.9219293342011288,-1.096043683153958,0.48049745223663637,2.368114589636571,0.23306117223079176,-0.49140484458254874,0.0378144976662876,6.0950558885143185,1.9252111595914623,3.775118259439841
74,1.458920037247639,-1.6697874009375078,5.054118626176869,0.34640877407044,-0.15352308348091512,-1.6252257614332783,1.2391691694949578,1.7179679198595483,-1.1157470864075898,-2.0126106079352457,-1.103879457273303,5.194678323556593,0.6206979978154353,2.203772521525786
75,1.124478422961171,-2.4011423228297106,4.234396865231978,-0.2382061310020682,-1.24034037058259,-1.9912812520498917,1.8949676769917205,0.9274847242557965,-2.343391192974994,-3.366279291449466,-2.2250228138014667,3.7936436353165064,-0.7556482847321657,0.2992696932855412
76,0.5858415391433821,-3.0312545688207115,2.9697127831275254,-0.8113300806105289,-2.242628802514128,-2.1975131032714,2.2816051487868627,0.02600148330147338,-3.376617597391323,-4.416313613455016,-3.227792780553381,1.9510032525007217,-2.060574621178555,-1.7892685400354211
77,-0.14482584465993273,-3.522034878732017,1.2853909957825769,-1.3304366056025627,-3.070461865324335,-2.2628798146436475,2.266545693493,-0.9458208285923418,-4.165768104187737,-5.058283479894102,-4.019989179600794,-0.22436083050702765,-3.158754122936015,-3.8830611603127005
78,-1.0245361790994543,-3.8391585402400716,-0.7424228110104392,-1.75631553835774,-3.6499382993273324,-2.215591573875464,1.7749508625381685,-1.935191699123254,-4.685357460057509,-5.231049050634764,-4.524236103810821,-2.577666968391959,-3.9375688059063623,-5.790762075994367
79,-1.9815590636315557,-3.9558027596473764,-2.986201503304348,-2.0571571223605587,-3.9315975894104653,-2.086128161365438,0.8057367957268368,-2.878413372263875,-4.931853920015605,-4.92339460344328,-4.686141159392534,-4.918248349848308,-4.319160485314264,-7.327846533185323
80,-2.922029374151209,-3.856368399808356,-5.273704408749743,-2.2120370397738625,-3.8960684695724543,-1.9009216460142555,-0.56301639992423,-3.704514178439409,-4.919433700960397,-4.174863420859793,-4.480492718304121,-7.0353510500190675,-4.268435915423275,-8.336209602806246
81,-3.7404321090141823,-3.5396213015335674,-7.401887809568058,-2.2133261771117816,-3.556169179323371,-1.6777754128550044,-2.1805333958696,-4.341185020146808,-4.674651715156154,-3.0706736755632518,-3.9147200235515056,-8.718495808983235,-3.796184538195346,-8.701764233561565
82,-4.332680525462685,-3.0206903803467933,-9.15691966600012,-2.067663275582838,-2.955145686308738,-1.423749364078748,-3.8411597678524885,-4.722394205464427,-4.230973356096926,-1.731318065660693,-3.029098109592324,-9.780332688249803,-2.957030956318998,-8.367957299271902
83,-4.610045825943446,-2.3314565403416596,-10.338103084654245,-1.7953002422956086,-2.161255622680688,-1.1357815724020721,-5.311270355180323,-4.7966247064142715,-3.6239644707321497,-0.29811767335375705,-1.8935333148209688,-10.07929606669963,-1.8425435779633332,-7.343519800810333
84,-4.511990054895817,-1.5190530777111588,-10.782734540315722,-1.4278366842070043,-1.2594021749192603,-0.8038143237984957,-6.361597278968787,-4.534433844130327,-2.8876905890439932,1.0834722515780315,-0.6011793639832085,-9.539104688688704,-0.5703942662314339,-5.70339813232382
85,-4.016033437673281,-0.6424498537896166,-10.388558965398152,-1.0045741665980086,-0.34092022407379174,-0.41573592594760855,-6.800420305920221,-3.9340438447209407,-2.0526013420105613,2.2806924526896277,0.7404490378084704,-8.162317404621373,0.7290587397362465,-3.5826031715913067
86,-3.1431406338056593,0.23263159096279973,-9.130601079188818,-0.5679111245316374,0.5071419083801572,0.03687701547166476,-6.502850906259368,-3.023940855972481,-1.1449345395604489,3.1882849332762553,2.0198513562094575,-6.035742587070872,1.9270860142731125,-1.1635555401177173
87,-1.9576853325032826,1.039974338225223,-7.069742129946954,-0.15833756757715603,1.2118539635036307,0.5533682695251311,-5.431935625271309,-1.8619347664497847,-0.18750080849687856,3.739356695664239,3.132185213225205,-3.3264282761571793,2.9100486640535603,1.3417224485046115
88,-0.5617696197231455,1.7196097034464741,-4.351398305270739,0.19034600405020735,1.7221083475538608,1.1200353692103209,-3.6484247091719566,-0.5307066482244523,0.7984011518740328,3.9109140167762395,3.9889401309072854,-0.26810224396736526,3.5904408284382248,3.712623367135124
89,0.9155615180337914,2.2242640745922992,-1.1939146154524491,0.45497647434173283,2.013278423396074,1.708391290918744,-1.3076222748001447,0.8695834402928688,1.7902741430786575,3.7234377179751306,4.5255771167847305,2.860863774999904,3.9143642134391485,5.741891270466831
90,2.33295763054359,2.5247168739152746,2.1323469568321722,0.6256245828019042,2.0883454872341,2.2760573286986188,1.3564849924927647,2.230650738940261,2.7613554900337434,3.234753778920453,4.70640400875766,5.765773930668718,3.8648540321318046,7.256123450718486
91,3.5534292096541527,2.6133562563941553,5.332956228356105,0.7064744803964628,1.9754899725968746,2.7702453170897554,4.057892116719893,3.4462247213954775,3.677767774132197,2.529321128036822,4.52637866257728,8.167126709923943,3.461081754604026,8.132679815483412
92,4.460869712586036,2.5053755396832234,8.121096689576596,0.7148186678236563,1.722603014455421,3.133385003447683,6.492659503925679,4.4218039405340654,4.496597167999194,1.704755273551933,4.009955965533584,9.831688700610897,2.753988351150228,8.311260384254213
93,4.974187333619663,2.2372780011622653,10.249050552204238,0.6782249050919327,1.3895560423462174,3.3101563670169476,8.376066460595975,5.083030229339001,5.165673696916583,0.8577979097099953,3.207439161151197,10.599339896863116,1.8192639821238414,7.798988872435634
94,5.057038158247487,1.862640755588767,11.535447854908872,0.6301615072010872,1.0393208209675944,3.2550247936078818,9.478086608885693,5.381951241672125,5.625740731391754,0.07194476804027505,2.1895048155613277,10.402228969293384,0.748745935303136,6.668510591441908
95,4.721695745241911,1.445417052890062,11.88469565595382,0.6045801698020913,0.7291322412126914,2.9393414124793074,9.65264629232116,5.300729394496285,5.815408281279255,-0.5914518870321341,1.0406268886432744,9.273563387828075,-0.3587295565236763,5.049317343316515
96,4.026391123989667,1.0514090405485035,11.295995139839285,0.6301282085650193,0.5028290420602919,2.357132773396798,8.85690315522545,4.852617542452848,5.678786372815679,-1.0975073549690162,-0.14794566406993861,7.344556417271017,-1.4061552892995635,3.1132036635169213
97,3.0664111977294217,0.7388829175879581,9.86076728900737,0.7247726057710311,0.38531460767156134,1.5288320465150795,7.158025759150355,4.08023465251912,5.175059323746505,-1.4373481133136548,-1.2851457170737686,4.82954036239893,-2.3062197291578492,1.055392138153952
98,1.9602101127481129,0.5495707898288179,7.748940969294381,0.8916455045905388,0.3797868050855582,0.5023762895030124,4.726517653878851,3.051342761672103,4.288620134626007,-1.6235487338492616,-2.2866171511134734,2.000845713999194,-2.9877854947971745,-0.9266163355189756
99,0.8326042343774388,0.5014423060149015,5.186154952538799,1.1168462375107835,0.4680341253425916,-0.6486962139439848,1.816824816078049,1.852472941728811,3.0379047232880834,-1.6828270238527316,-3.0805612076842426,-0.8434936842775597,-3.4007170172002303,-2.6540788850234085
100,-0.20236672357121616,0.5845704987444811,2.425223668533231,1.3697459562664431,0.6137243107132254,-1.8302622677345326,-1.2624131419392237,0.5808994452545426,1.4809106024786298,-1.6477319529155487,-3.612685220981394,-3.415057536596251,-3.518900859565569,-3.9854704183695375
101,-1.056234864903128,0.7611173102718645,-0.2840082116105473,1.6060378879813175,0.7682528444317435,-2.9355535091402154,-4.184767098410187,-0.664371123163653,-0.2843415581043792,-1.5490526184994566,-3.850021465591911,-5.468702672068323,-3.3413691927828597,-4.830140850437139
102,-1.6762435511321245,0.9699237302331543,-2.7221847774762087,1.7733824321446734,0.87839946717809,-3.855476113694964,-6.644497540700225,-1.7917600821405824,-2.125436058016308,-1.4103263255376541,-3.783343255391745,-6.830061103880183,-2.891498580326045,-5.155505009430361
103,-2.049301931058774,1.135462555737702,-4.721667350827993,1.8190624995499238,0.8947919595993501,-4.490389893305,-8.392235820020339,-2.7254621746008056,-3.887273570041961,-1.245233288303823,-3.4278878211021526,-7.41321668065384,-2.2143434372560997,-4.986937300232266
104,-2.199296182439321,1.1801109853184588,-6.178963554604884,1.6986626437055576,0.7800335782722186,-4.7620793399755845,-9.263342569088074,-3.4119805379499812,-5.408689107838151,-1.0579783730405148,-2.822142812144895,-7.22633772871597,-1.372288594729138,-4.400545554012097
105,-2.178464073632241,1.0379788222988136,-7.057372001459338,1.3844949143227554,0.5153464435418185,-4.624409769899705,-9.1953782656016,-3.823976152144186,-6.541747898896662,-0.84612578637378,-2.024589650769027,-6.364829507347461,-0.43935696180202416,-3.5100103146402803
106,-2.0545784142058663,0.6680488455709621,-7.380470347282475,0.8723857658372357,0.10473543559973113,-4.071111113145902,-8.23257901252963,-3.960858572139415,-7.170799552554293,-0.6048946438604222,-1.1085181066557372,-4.9934173909426764,0.5053421952361751,-2.449523542970088
107,-1.896397587569816,0.06428091699655449,-7.21848576357015,0.18555759649676531,-0.4240201631677788,-3.1393284596913174,-6.516993599949342,-3.8460097859128886,-7.228216496639381,-0.3317196650705404,-0.1552968450145476,-3.3201726630802404,1.3844259165348427,-1.3553885761987134
108,-1.760090196080457,-0.7393360150093543,-6.670553014949578,-0.6253078754567607,-1.0218183901758946,-1.9080345227326345,-4.267755259217551,-3.521090604207897,-6.704185878522308,-0.029951041137986342,0.7532540676785334,-1.56658216150711,2.12866801333216,-0.34894913364225555
109,-1.6790795976551314,-1.6700558920284485,-5.8462336908318475,-1.4861881522354046,-1.623913879637452,-0.4910705339309141,-1.751561572477331,-3.0384143485758255,-5.648889506316972,0.2891314224544259,1.5425563801196678,0.06183614333551738,2.682448871021026,0.47682316579479667
110,-1.6590372371900768,-2.624203552671977,-4.849406552046507,-2.3077216504635065,-2.1581263049336865,0.9746268568604793,0.7514277490356814,-2.4527521978159506,-4.166695258112894,0.6063737422479304,2.1521429869713526,1.4002101245763456,3.007761605103675,1.0654696078463284
111,-1.6787278710764724,-3.480642044112031,-3.7668346797589702,-2.9961319491998992,-2.554477993098086,2.344275765579839,2.9815670026299337,-1.8140467197297174,-2.4033241927210556,0.8967870389529493,2.54090820140899,2.3411168610520847,3.0865120898600074,1.399248947901544
112,-1.6962849898426395,-4.117927603465841,-2.662566794036562,-3.465577404881079,-2.754910579003671,3.4820185687413967,4.729073703627444,-1.1623061463109687,-0.528077021032502,1.1330858332248988,2.6901700507996464,2.8417873529199325,2.921067342774926,1.4957288925558507
113,-1.6594960577130884,-4.432487791563686,-1.578091744834482,-3.6501231266129053,-2.721680085437699,4.276924574768578,5.855115716649798,-0.5254649545392809,1.2861087117724441,1.289978827594172,2.604280343987242,2.9215937782746053,2.5331878536220964,1.3999255666949975
114,-1.5179923678944864,-4.354910661870783,-0.5370869293498698,-3.513519445089686,-2.443193240822723,4.655988153557346,6.302371368019714,0.07966858717017877,2.8818492397229054,1.3483722524677448,2.30883850722065,2.651184135649375,1.9615908654535295,1.173704215689808
115,-1.2349798736727973,-3.861697849500778,0.4471245127121723,-3.0552587334925723,-1.936403808041835,4.592313338203697,6.0944365668842995,0.6439503277013839,4.133203984043669,1.2987179185195052,1.8468488348095256,2.13575264961609,1.258429170929339,0.8843594891849318
116,-0.7963367377588153,-2.980558613622389,1.3635664010556499,-2.3119242276116694,-1.2453842191888422,4.107403520730117,5.325084308109892,1.161057291380975,4.95648450942359,1.1429423829881324,1.2733727460414883,1.4955490024732105,0.48495621706052683,0.5941616683623795
117,-0.21547492176262772,-1.7883673708287564,2.1970337019052315,-1.353549623438867,-0.43624924690474226,3.267360491092732,4.139742558362422,1.6226932588787546,5.315173137601527,0.894675161294353,0.649348930845121,0.8467921439478278,-0.2933796438158238,0.3522543428617102
118,0.4668147392549323,-0.40208189776245695,2.9243911405348073,-0.27545898929266655,0.4108545383643907,2.173679559795719,2.7124471382909983,2.015227699106278,5.219095782393718,0.577791487483027,0.035281284035823784,0.2857212710922701,-1.0121754841023394,0.18972623409729342
119,1.1874069132489913,1.0359857421798233,3.5144341489313224,0.8132713741253232,1.211555271759493,0.9500610201371907,1.221843952658288,2.318774012561165,4.718755366976568,0.2235464050129691,-0.5145611346319428,-0.12228097835746851,-1.613377455630989,0.11807547049921721
120,1.8698194561496335,2.376323122920873,3.9311932597388184,1.8031032268630411,1.8874777476958369,-0.2728627249888826,-0.1704368440826585,2.509088353243052,3.8961980031363166,-0.13323292212530727,-0.9569018287871693,-0.3475467878728226,-2.0503011900663033,0.13074854107829156
121,2.4355515499161897,3.4811323687014992,4.139855216168037,2.597229643070612,2.3754770460764405,-1.372812552244387,-1.3364357945580996,2.561950019967864,2.853938220453062,-0.45832698755322937,-1.26278551275189,-0.39501839691897506,-2.2919294784657804,0.20704802640442418
122,2.8158880835158495,4.241333152318509,4.113977948909695,3.1228835533837698,2.6346715865275825,-2.249220952652302,-2.191980490143996,2.4590412464856124,1.7033685027809125,-0.7220920467359159,-1.4192440265318504,-0.29810061834729235,-2.325979739877867,0.31749720172023904
123,2.9622751539209924,4.5893689423665265,3.842455600568009,3.3392949351484824,2.650426664328127,-2.8331135395758236,-2.6998373541640435,2.1939284092241387,0.5538169667875913,-0.9026993816903578,-1.429224054389966,-0.10901541615254931,-2.160242934756637,0.42971279177761684
124,2.853665577032898,4.50622435494699,3.334757721413649,3.241347333739702,2.434904933984386,-3.092531369535744,-2.8665291398995953,1.7766511187628142,-0.49690594334192256,-0.9882606005672644,-1.3098669953213482,0.11246549312003518,-1.8218213799210285,0.5139271119215417
125,2.499758948166075,4.021936216443747,2.6232930552963216,2.858612014736712,2.024288957660376,-3.033159549608755,-2.7342576992349814,1.2356700207877032,-1.369935874137349,-0.9776289943248431,-1.0893994883340299,0.3100047579153866,-1.354139018293506,0.5474707108321224
126,1.9397280074430243,3.209805851951245,1.762266210072932,2.2500812160912904,1.473220091910436,-2.6944597550366205,-2.3698348870818777,0.6164553640363398,-2.010463012068793,-0.8798576959245497,-0.8030449005911631,0.4397401345591104,-0.8119268721435547,0.5177410295643681
127,1.2367265754776715,2.1753681945816865,0.8230132871585061,1.4954899588078054,0.8473306568829572,-2.1421409286141064,-1.8526182029956637,-0.023297484425430733,-2.390393809833248,-0.7124734169321568,-0.4884761161259542,0.4761854474169653,-0.25473333501252765,0.4234186922056419
