,AF3,F7,F3,FC5,T7,P7,O1,O2,P8,T8,FC6,F4,F8,AF4
0,0.29969404326017635,-0.150778490534327,-1.0443320564347232,0.3915172788035776,0.40533932597842925,0.12167251362391303,0.07741333662022862,0.23109335762305433,-0.9080301835885031,-0.2444108836816246,0.1069448701300359,0.5711101574532932,0.4623974473580993,1.1082895506743162
1,1.7991289419660597,2.451526181961974,7.169025507623112,0.8806094905690252,1.4303578087817157,2.4766329069434034,2.051084240501787,-1.4784708163952944,-3.028038277610516,1.84987873971983,3.4267109523919306,1.3617152977282152,2.1661484378882205,2.452549106260802
2,3.1729896005896703,4.843098695743717,14.60436284772844,1.3353250880587715,2.359434735756878,4.62541239439519,3.8347588593620148,-3.054039529007415,-4.933170340704731,3.7144052819882716,6.397493305202681,1.9678714028576119,3.657168884412339,3.6149713806336625
3,4.327083646144845,6.828144700830647,20.630795024622437,1.720996755075182,3.1139408240533832,6.387849959334455,5.273231337920806,-4.37685543403319,-6.478402341267504,5.147803931757573,8.73399310877716,2.3382773425561965,4.79610331192785,4.542149237006552
4,5.187420991222535,8.248742974623692,24.767680348592187,2.0056659484165276,3.6279764486230817,7.618248595400312,6.245061292011794,-5.35366837158142,-7.552917474075311,6.0013575490933055,10.22269736472695,2.458755202424871,5.485363926155418,5.2036692049762925
5,5.705401097213192,8.997916607746648,26.728732074024137,2.1634185769989274,3.8545286923347577,8.219162175793885,6.674171768192959,-5.925160987484361,-8.092734208766963,6.194008178821081,10.742810378111566,2.353347642495384,5.678332606450412,5.5911128877309215
6,5.860144959975941,9.027843350412496,26.44408575950052,2.1774798071502377,3.7703218960788063,8.15061068537401,6.5367763098394684,-6.069972974602117,-8.086402436659439,5.7194965611775705,10.276274167266521,2.079047294713185,5.382011205042002,5.714253506450673
7,5.657919125435604,8.352570095188756,24.05834718952044,2.042647189552831,3.3788114230819737,7.433695717370811,5.862898433022808,-5.804048219716729,-7.573083583710746,4.645031991820316,8.906030365097784,1.714879036959856,4.6530368697256295,5.595232760264969
8,5.128998972167305,7.04512405879416,19.905557728323842,1.766681233019288,2.710876946253622,6.148137937008893,4.732320798126735,-5.175782690916521,-6.633764840637947,3.1018213705600646,6.8030876189259715,1.34705082986639,3.587890622092592,5.261859572828373
9,4.3226386044444896,5.229432202257815,14.464760740781784,1.3703653506851654,1.8229426455276037,4.4238868288035285,3.2654024641478916,-4.258063959559864,-5.3775850048378935,1.2686561968291232,4.204255721106659,1.0526223134225543,2.3088851290706187,4.741326119438262
10,3.3009998534118496,3.0679205323334884,8.302081226574082,0.8860839450807005,0.7924815880309564,2.4275995989843704,1.6097678191402245,-3.1386579388709133,-3.9260116662858477,-0.6495101690391027,1.3834417508346792,0.884475244008534,0.9480116626407746,4.055548431856798
11,2.132922436511512,0.7460330699696489,2.0066658015282526,0.3549394829064106,-0.288861913595955,0.3453808054940997,-0.0756569873130765,-1.9104623198511752,-2.3977590234290864,-2.4455254728892872,-1.3799325898253263,0.8602426439954206,-0.3691015143564609,3.2190245029313673
12,0.8883044366779189,-1.5448346148142789,-3.871697452293362,-0.17737611188247937,-1.3239983087665106,-1.6363575603931895,-1.6374587487417078,-0.6629239744550364,-0.8968728474550062,-3.933778610738923,-3.8316011390458296,0.9572811657826407,-1.5370177815166057,2.2396260835511277
13,-0.36635575368372714,-3.6243669679558557,-8.87599730162058,-0.6655440707498045,-2.2201469870144366,-3.349785170253223,-2.943473576476154,0.5245133704821171,0.49452251372213857,-4.970943261348056,-5.768635335412327,1.1148416579639848,-2.4804336406741343,1.1221932043332608
14,-1.5709782155156222,-5.338723321341273,-12.680637422128891,-1.0698344115892824,-2.8985720551249963,-4.662142594944896,-3.8956221929951407,1.5865865597318778,1.7184749297659445,-5.47125243322876,-7.058197365630678,1.2434480854233856,-3.159185747006884,-0.12572153344068437
15,-2.6734802086567,-6.572865043732812,-15.111652520950424,-1.3608861134038155,-3.3031372118866704,-5.487938320627236,-4.4383703208544745,2.4741557537679637,2.739206198218081,-5.414444805055361,-7.646906046531223,1.2403090782483488,-3.5680087679800265,-1.487029287721406
16,-3.6301492765962187,-7.258702024638998,-16.147434650571608,-1.523349785062927,-3.406554204657556,-5.795473824360444,-4.561897115897947,3.154395698485374,3.5383984961032953,-4.845408827803091,-7.56007577052542,1.0085422298562778,-3.731468137521587,-2.9285294885723374
17,-4.4052054818741855,-7.378386525232449,-15.901502525610907,-1.5577887833796236,-3.2134093044920564,-5.607022618942718,-4.299744847698196,3.6098641035957217,4.1096121829313415,-3.8656154002691445,-6.89139783631647,0.4772540185529173,-3.6951423826843204,-4.39597231167978
18,-4.970015799054013,-6.962602012154766,-14.591109625190494,-1.4804409982475133,-2.7594228562758065,-4.992792818270869,-3.721447257236902,3.837029173775447,4.453502417001711,-2.6175373875581567,-5.784864400865363,-0.3807895796398469,-3.514612409184179,-5.812002139900437
19,-5.302400756211405,-6.084234300108667,-12.49710799536525,-1.3207341637476382,-2.1068834596920545,-4.059593836747756,-2.9212869318181136,3.844656818439438,4.574937446759607,-1.26423786116923,-4.4117172291410105,-1.5369834329888794,-3.244070797962189,-7.077881506245529
20,-5.386375465660914,-4.848308252571559,-9.921263082966647,-1.1167822033530685,-1.336730943363949,-2.935795704830148,-2.0048195522982524,3.6522227210972344,4.482367466454958,0.03299786947561609,-2.9457915703345146,-2.9026109622438625,-2.9263608991140395,-8.079396384555565
21,-5.212521797691483,-3.3794655919466905,-7.147080452469863,-0.9094185102367455,-0.5382584353649512,-1.7546193666295065,-1.075055861391827,3.2883032390384836,4.189067053958379,1.1358346999857394,-1.5407321063923891,-4.333831664233781,-2.5859974000124475,-8.696756607509876
22,-4.77902714537507,-1.808499950232429,-4.409223625428298,-0.7355917899771898,0.2022175200499045,-0.6379641507690252,-0.2201759941278846,2.7887698140491155,3.7153519834741124,1.9459066019924882,-0.31216974491202515,-5.645966030543168,-2.2262467711349836,-8.817707403662661
23,-4.093272237957691,-0.25952112653966897,-1.8749552751457663,-0.6221130994759634,0.8121750353058744,0.3171593381755877,0.495631463349978,2.1945938591832572,3.0906516229413215,2.415363087964487,0.6728769112576756,-6.6357341569545865,-1.8307196955700291,-8.352529988739235
24,-3.173716414075393,1.160823252240165,0.3610153225175999,-0.580762060637719,1.2416795061048154,1.0479450898339133,1.0371208943835153,1.5491605416120775,2.354415093951059,2.5496150336730574,1.3982552696600459,-7.108845029814557,-1.3692224440738516,-7.2491859830656535
25,-2.051717682620447,2.370972605587842,2.269038786006913,-0.6056190524047727,1.4688996099953897,1.5298507781495658,1.3983030271819932,0.8951565269872559,1.5551801842494095,2.4021417367550133,1.892761926152008,-6.909369111998927,-0.806917669636103,-5.506601356029033
26,-0.7728463656488052,3.318305214883474,3.867066447568663,-0.673198997221874,1.501558490233575,1.7751507067009513,1.5983934682460226,0.2712825632953359,0.74762382755272,2.062420928500026,2.217475296640077,-5.946803711658015,-0.11525836756395805,-3.1840422946229863
27,0.6027774535243088,3.9791459382935446,5.197322853639092,-0.7455591135153098,1.374126263115511,1.826491464295707,1.6743069731600055,-0.29081292304728384,-0.012089910435627217,1.639058589466556,2.4487571826765353,-4.2167595756049785,0.7172162065650617,-0.4047521377431511
28,2.0015538091377025,4.3553932432381375,6.301921777561296,-0.7760959704692245,1.1411914984592912,1.7466183662964845,1.671086744610671,-0.7689233764021334,-0.6719594165330408,1.2408624207408279,2.6599377738668735,-1.8117918806238267,1.6762159586685579,2.647487513190015
29,3.3391958666502015,4.468665843894116,7.2021603259752975,-0.7173048461545336,0.8680186674292922,1.6059240295506167,1.6319132610968077,-1.1515876994391356,-1.1898818807348173,0.958818172267008,2.90479812586432,1.0799750446655276,2.7169119354322584,5.7394604135676035
30,4.5253719370036,4.353144000802858,7.885386788510226,-0.5294158673195426,0.6197188757700123,1.469723833705721,1.589338995884897,-1.4380463547504811,-1.5385627089394247,0.8516696450974318,3.2055619515562888,4.189243707812361,3.76421449477784,8.606938243257117
31,5.47007406763999,4.04836066363217,8.301880854808,-0.18860727750773904,0.4506693988147711,1.3871548084865166,1.5591499623012084,-1.636806463358192,-1.708849146674431,0.9371373812650337,3.5472865304613683,7.19201865303634,4.71852729764955,10.979063494656625
32,6.091315430284005,3.5930858012865112,8.372348397887272,0.3065317612843805,0.39578187973030354,1.3833213587303894,1.5378031909257623,-1.7630109549144328,-1.7110006549584342,1.1898759259824527,3.8794541538263214,9.745484422117322,5.466509999124799,12.606383450718404
33,6.323497534612679,3.021173734249424,8.00471603912824,0.9314441251796751,0.464944329431667,1.455807154438841,1.5038029812848164,-1.8350098130442154,-1.5736907829517592,1.5462387235536605,4.124401423175692,11.529151687919601,5.89555642994453,13.2894907813739
34,6.125580696647389,2.359853215359143,7.117220356785604,1.6357516971118493,0.6414888044813464,1.5760093726303115,1.4227501821923565,-1.8706562943990224,-1.3407881915471793,1.9149582065220787,4.191168509667104,12.286179045545405,5.910055195828976,12.904840313555718
35,5.488063815905575,1.6304840894070864,5.663583367478058,2.347402783946029,0.8849334924740244,1.6950261501901216,1.2552205166008046,-1.8838838802587297,-1.0661791226675916,2.192075723194334,3.9925452695113752,11.859468796118398,5.447138158654281,11.424355099422854
36,4.437748288366449,0.8513397203163738,3.6555275349502447,2.980530164311349,1.1376010371593233,1.7531433427344272,0.9661762945678719,-1.882072650296421,-0.807091850193717,2.2779352360423566,3.4626203688051502,10.217530821555412,4.489577220532928,8.925921242953246
37,3.0393446621108686,0.04157147038992329,1.1780947523697818,3.446139445871165,1.3341176733123157,1.6914171825085138,0.53434658952908,-1.86460653722739,-0.6165853771816738,2.093815512247607,2.572043701589199,7.466179829386599,3.073760092087645,5.5927588503693455
38,1.3932049407451637,-0.774749922869738,-1.6058158476935722,3.664247229799183,1.4123409260634028,1.4635129900559378,-0.04003836178872951,-1.82286946928952,-0.536057831408415,1.5958358983905274,1.3385006758426694,3.84377257486477,1.2912350273311122,1.7008640181720551
39,-0.3711581330366233,-1.5656751096234198,-4.463699524251656,3.575771198389881,1.324023585891968,1.0458882417275346,-0.7305870282327144,-1.7417384346264957,-0.5887674638531518,0.7841337042152957,-0.16945761419072797,-0.3002767114055275,-0.7168933448978476,-2.4048791269005125
40,-2.105592107166602,-2.2904778592226296,-7.114507147674249,3.1524076764504962,1.043544751337846,0.44461825970188984,-1.484183400007595,-1.6024190813994807,-0.7753794147648918,-0.29405609788214787,-1.8361556452260996,-4.541790455912913,-2.7725017028559757,-6.343878801223243
41,-3.6571098255261285,-2.901405508929711,-9.260430177411555,2.402941911377621,0.5733272038202641,-0.3023652423777544,-2.2249640490413194,-1.3862583223126395,-1.0724056749042283,-1.5479629675636628,-3.5099407219395347,-8.428991668685498,-4.678746047663936,-9.738980736088482
42,-4.883653793025438,-3.348130752447418,-10.625425996762345,1.37489859023253,-0.054930859545028965,-1.1281748828982987,-2.8625980593481386,-1.07899091217641,-1.4340780447557806,-2.853120444797594,-5.020464566588395,-11.535003437874666,-6.242089189714778,-12.257288048335077
43,-5.670039829523567,-3.5843747606471066,-10.995118719921365,0.151087904331268,-0.7834351839297748,-1.9447665608523959,-3.3039406685437682,-0.6747665041392519,-1.7977112750770177,-4.066247981306143,-6.199868898797882,-13.509226751258883,-7.295389734940831,-13.647883345558679
44,-5.942048750639217,-3.5756507634552976,-10.252086738611649,-1.1586622830171946,-1.5354311512074637,-2.654603391919914,-3.4665290210414716,-0.17928441051082977,-2.0920456107601195,-5.043220802257306,-6.904979326369976,-14.12103970442734,-7.71907067863161,-13.771778947547968
45,-5.676658262285374,-3.306722301561507,-8.400819825877447,-2.429589669473738,-2.225236536830765,-3.164489545147601,-3.2919765815730706,0.3885551307483677,-2.24750744495018,-5.657707672163178,-7.037347966140951,-13.290027572413587,-7.457461784471089,-12.620126727310625
46,-4.906740164122841,-2.787263300263855,-5.577805161025812,-3.536331144532489,-2.7696806371074962,-3.399469124886562,-2.7571874071579083,0.9968960209731197,-2.2069091551773465,-5.8179191353577,-6.558179256481631,-11.098514452451443,-6.527893709856985,-10.317977505611843
47,-3.719176792174999,-2.0543906367945035,-2.0441544536872747,-4.3676093869986365,-3.099269242308827,-3.3146139604085794,-1.8815006218396395,1.6032220083320565,-1.9349241818414127,-5.479136832010503,-5.49581990381054,-7.784344736595262,-5.020977489616274,-7.112562050515994
48,-2.2462064750076505,-1.1712025450774404,1.8393460381643336,-4.839328704664276,-3.167473434743356,-2.9028163872764594,-0.7283808624815514,2.1585479368919334,-1.4247787916884338,-4.6502721013496995,-3.944517302131657,-3.7143869069656885,-3.091639892129552,-3.346978861069973
49,-0.6507706978101674,-0.22112669642847987,5.652254027780886,-4.90437740988278,-2.9568659198823073,-2.197312446226511,0.5989746587698893,2.613032210327351,-0.7009977830007684,-3.3935559026486146,-2.054407940412774,0.6582289058894465,-0.9417589096114366,0.5779226476484232
50,0.8924471485273097,0.7013611485629867,8.964673175518296,-4.557914592207944,-2.481336238150457,-1.2684804746478433,1.967849934611983,2.9222573840155426,0.182333953909679,-1.8174649981165,-0.013995114183970432,4.84792594185596,1.2035320393461015,4.249045446638768
51,2.2178876434750205,1.5023899597681996,11.391016400067182,-3.8375550472317657,-1.7842121973121696,-0.21534703353846757,3.230892087199273,3.0532423008620206,1.147593974522345,-0.06397571517157358,1.9724983235739497,8.39478857378675,3.12282689666088,7.288412741625986
52,3.1891032120400093,2.1009632222048658,12.6399136731638,-2.818554480634526,-0.9326995278780658,0.8469625926328903,4.243764624399537,2.989210942905365,2.1030236128198903,1.7079666572794325,3.7097521343174673,10.919548574651085,4.625117509214259,9.396492870050928
53,3.7151218149569405,2.4398997967785343,12.553155172660325,-1.6047348601846032,-0.009537095603130317,1.80199611211656,4.8832034054948705,2.7322804150858113,2.954071054554864,3.340406421685661,5.034523741727483,12.168384466673983,5.572526342831986,10.38599455140944
54,3.7609033303356254,2.4936596871998336,11.12795688502942,-0.316390778886084,0.8969136081973759,2.5468346933921566,5.06299029376438,2.303538315758169,3.6149781765463893,4.693337053795281,5.834217452444977,12.041786908950005,5.895997713097639,10.20183281882603
55,3.350432174111076,2.271755261003406,8.519130098682604,0.9232738156846954,1.7028009771850765,3.004939955263283,4.7456195056638775,1.7404112396722409,4.01895508324224,5.658549056983569,6.058435280595559,10.603854040389743,5.601840779067889,8.924759202601049
56,2.5620515652013856,1.81717227593869,5.02058728482856,2.001533404054232,2.3378630466366452,3.135231756680304,3.948023224644948,1.0916995708501607,4.125597625482351,6.168865684758028,5.722188314208483,8.070988189257568,4.7683357286405945,6.758299797225686
57,1.5167713297818814,1.2000501763645715,1.0285853668502114,2.827815329525922,2.7524122342558583,2.9362393483414224,2.7405488396497475,0.4110731723409189,3.9247031820790004,6.202044109433767,4.900693187899796,4.781700706238799,3.5330471480460837,4.000850412108591
58,0.3612919295258053,0.5076455709101209,-3.0082677731796497,3.342403662712562,2.921530848058774,2.4449185927059927,1.2393130096405955,-0.24989644196467126,3.436226385236597,5.77941980378036,3.716875315174383,1.151713654675762,2.0728119439707697,1.0067269385709214
59,-0.7517759270745286,-0.16781164182606684,-6.6453400730951735,3.521325281575539,2.8461887518021105,1.7305091063556637,-0.40703968725573375,-0.8480043736538356,2.7066871024951236,4.960067293624924,2.3236699399801886,-2.3795617512269227,0.5793799515958925,-1.8586157788244035
60,-1.6836667119372648,-0.7414636889333213,-9.496883812048052,3.377054094445601,2.551396754323904,0.8844946473740563,-2.034404657473046,-1.3529431590317547,1.8028083082534174,3.831743914044559,0.8838182554735056,-5.404041534805897,-0.7657697310442784,-4.263300946767401
61,-2.3264477493459492,-1.1465043131881985,-11.282074676085129,2.955163284776434,2.081854291738261,0.008225957707570439,-3.4818685310124544,-1.749378483627043,0.8034560485338309,2.5001181616173387,-0.4499774868362839,-7.594282565890319,-1.8139140260154165,-5.947928430250291
62,-2.614997747077721,-1.3416804145549284,-11.856116972687978,2.327501819674095,1.4958002916273225,-0.7999945616292246,-4.6095530592710485,-2.0363126610649047,-0.20895071763862313,1.0777558449660731,-1.5519508873751116,-8.740808777194282,-2.4658860762438897,-6.7538344981869605
63,-2.532561588687886,-1.314703751014737,-11.222595672752426,1.5828229615928568,0.8579123549821139,-1.456599761902406,-5.3134482785242625,-2.2239930921541404,-1.1564832906889069,-0.3259089567561987,-2.335273542964559,-8.77292547415057,-2.681177035529884,-6.637469428402718
64,-2.1094791907135386,-1.0813881443849176,-9.5260065755048,0.8160166454975705,0.23211802276122567,-1.901733897523617,-5.535514036015006,-2.329088280721687,-1.9723560034394216,-1.612776999731016,-2.758091866183228,-7.76084654215598,-2.4785678892356593,-5.669627909704977
65,-1.4157175351502524,-0.6810461491066566,-7.026229758947573,0.11717981023029554,-0.3249055753127993,-2.104517242540912,-5.268027694889634,-2.3691743772120093,-2.605662925990741,-2.7020553938138425,-2.8234756841209303,-5.899552911317143,-1.9288181488098588,-4.020350809138681
66,-0.5487180113373978,-0.16925444810825785,-4.059199823113525,-0.4382962639406283,-0.7689350614044955,-2.064196072639017,-4.551962215686042,-2.3576852985513135,-3.0240113291511768,-3.533989712815368,-2.574014898452611,-3.4772605876685354,-1.1410753421407205,-1.93220297315288
67,0.38133329424112067,0.3905742482526636,-0.9898024932972886,-0.797613838442141,-1.0717103847781884,-1.807391287193806,-3.469970150848988,-2.3003596016833794,-3.2141653990994006,-4.071637116583942,-2.082441855518454,-0.833353395775616,-0.24546233817760543,0.31394497888144995
68,1.2664840188250488,0.9353450719051591,1.8361541672104478,-0.9356795251953127,-1.222571548619182,-1.3821962627616438,-2.13520786174504,-2.19389461051473,-3.1810301859108474,-4.301095626489237,-1.4400004288770722,1.688139058502926,0.6253641421812971,2.435731764469894
69,2.014087420084569,1.408950484820535,4.134270543508602,-0.8569903814287247,-1.2282354063130358,-0.8502510404265372,-0.677668504588691,-2.0270586469950813,-2.9454118393990427,-4.2305818647453455,-0.7443069953172262,3.7831122160924338,1.3530345687573897,4.183783797929658
70,2.5563220702024525,1.7667158463630233,5.712748606668872,-0.5941725903934282,-1.1108752455829085,-0.2780856905138257,0.7701456895247416,-1.784008790638227,-2.5409885957784235,-3.888611018234998,-0.08819568516319043,5.224180003016532,1.8465731042185431,5.369587596022837
71,2.8552360408930206,1.9774423971313795,6.488912829357864,-0.20337565416227055,-0.9047739215587027,0.27102658363884735,2.086486771656571,-1.4491173699051323,-2.0108498291341337,-3.321356015978207,0.4493923985747173,5.885215449503795,2.0505163190903284,5.883697485509822
72,2.9031733801955015,2.0233836370516634,6.489812643947608,0.24296486987189467,-0.6518997365990936,0.7437023425333698,3.171159138144228,-1.0123136259747838,-1.4038537472544224,-2.589131632159431,0.8099063951077804,5.7510457845240746,1.9476758365489595,5.702747381429871
73,2.7191412968041253,1.8988494484692504,5.837966160540955,0.6652095588938263,-0.39681707956512147,1.1009210627208341,3.952919830750693,-0.4738506930959593,-0.7709584118864562,-1.761920469516211,0.9589392600731311,4.91183219231237,1.5569964194213564,4.885330745413186
74,2.342199827792842,1.6082750786699622,4.725299639844686,0.9864468505332812,-0.18139706077018602,1.320100143968103,4.393077775457487,0.1524773342046936,-0.1616221497791908,-0.9139461629362834,0.8874300555234357,3.5437309207304244,0.9275738815106738,3.5582509749912954
75,1.8232502642613606,1.164512985370967,3.3797675627381767,1.142163572163692,-0.03983180541422379,1.394917401557863,4.4853975677556575,0.8383474527460375,0.3796398345414508,-0.11748166507970229,0.6106911518930702,1.8791778907264336,0.13024106489961493,1.895749241569617
76,1.2166511771776365,0.5878438933535095,2.0298457962591283,1.0885427287136444,0.005532750666190106,1.3333269969134045,4.252834332157874,1.5424135916423813,0.8164201401745935,0.5636909728275087,0.16569503986763587,0.17135619908786673,-0.7518028305584388,0.09497420873006997
77,0.5729240482266894,-0.09416463027733954,0.8720248342574783,0.8083993422769964,-0.0529377553595834,1.1543922583607569,3.741913707727876,2.2141220054325794,1.1231241578694842,1.080539720706473,-0.3929749327796747,-1.3420377606061107,-1.6320186411886424,-1.6488764103269251
78,-0.06652197898832439,-0.8462007417075328,0.04565243758778578,0.31400646922851927,-0.20699616227704642,0.8846019801917747,3.0157065672235577,2.799254196375558,1.2869849102344215,1.4039939057105202,-0.998176982516416,-2.470764739744469,-2.4282561345235947,-3.1646142365592644
79,-0.6721434885652647,-1.6246934323933555,-0.3818577031573178,-0.3535940401592434,-0.4332765263395764,0.5542616446543704,2.1463391210108775,3.2463346885535564,1.3091430293261301,1.5283241395799116,-1.5760011660834068,-3.09559720189054,-3.0686653046768857,-4.321873677425305
80,-1.2264398934290914,-2.3779248984120236,-0.4181012136752044,-1.1287911129689545,-0.6960107228493754,0.19439377399310045,1.207854133730227,3.5129137241970545,1.2045785345642162,1.4720280375318422,-2.0520661195766827,-3.180646956687023,-3.495697423413754,-5.041169863406808
81,-1.7219045916156617,-3.0474204525688693,-0.13744193013226083,-1.9286780912234878,-0.9514682638573393,-0.16561405990194017,0.2700393182675534,3.570770160733046,1.0007549998649634,1.2758100817001694,-2.358078507559332,-2.773323290293221,-3.6684464249548165,-5.29672425320681
82,-2.1574087200629193,-3.571060135479517,0.3365610229879084,-2.6625672080262066,-1.1536375063016389,-0.49956902658796914,-0.6063910166498695,3.4092661846662273,0.7349460067377531,0.997599569529112,-2.4383529802124952,-1.9925300587398131,-3.563784833263416,-5.112566887895179
83,-2.533852292702784,-3.888014070988581,0.8548680160300792,-3.242605106031874,-1.2604580231635414,-0.7853558567229597,-1.3730939415099246,3.036394983545701,0.4503535779662418,0.7049705661564244,-2.255895113551293,-1.0072922117845897,-3.1767870750692264,-4.5532345686741165
84,-2.8499496510637243,-3.9451871787700057,1.2689495695039101,-3.5941812313765493,-1.2397889481133078,-1.0053587095048913,-1.9958824317187709,2.4774500542412983,0.19129367952111276,0.4657580586425453,-1.797537365275233,-0.009198727630165349,-2.520815505431788,-3.7109233435395312
85,-3.098916952206466,-3.70444972593489,1.4551036197417804,-3.6648222281242613,-1.074286768599132,-1.1466656322436835,-2.455114516861178,1.7716460892406447,-0.002098917385467308,0.3380369645346286,-1.0775225979513683,0.8172830356183404,-1.6274142719017717,-2.69117399298387
86,-3.2666328542585523,-3.1496170659913365,1.3336301327119975,-3.4304453251147264,-0.7644793277442652,-1.201254736725729,-2.7448594298825357,0.967358214874103,-0.09903582758403656,0.36086925731187264,-0.13889822607548558,1.3224763078139836,-0.5458846410141625,-1.5990819815371011
87,-3.3315949053624543,-2.291999436721624,0.8803283416716,-2.8981843120896613,-0.3295488614287856,-1.1662630657454398,-2.8710369270338276,0.11684531460582405,-0.0824057051650368,0.5472607544945257,0.947835582878298,1.4134507376700067,0.657813636994116,-0.5276893971581621
88,-3.266735247701237,-1.1734101946006903,0.1290113094651649,-2.1054583400005105,0.19435547244391016,-1.0443170248658284,-2.8487496960760677,-0.7286600217277904,0.048419860518360114,0.8805640468064083,2.0891601389559216,1.0674556153539614,1.9033032867423187,0.4502796382798529
89,-3.0429171161228643,0.1342066729317858,-0.834923881766098,-1.1154610866643453,0.7581101165216212,-0.8437906891263655,-2.6990717113778837,-1.5227779603015519,0.2768493822807611,1.315126834153533,3.1760418638411108,0.33521141715534036,3.0995965087517123,1.2867521471674017
90,-2.633721040051684,1.5329340827801152,-1.8885549320584647,-0.009730963955265485,1.3054180057107672,-0.5787865559218428,-2.4456194881478566,-2.22631290440242,0.5706772002295256,1.781376308749099,4.0940627571514785,-0.6662169923552984,4.150690825934175,1.9586956023868294
91,-2.0209552656320393,2.9066978040112144,-2.8907624633582483,1.1211495319494746,1.7796540602798603,-0.2686268652947969,-2.111303413033488,-2.808051561693663,0.885948657028558,2.19484751785468,4.735297508091535,-1.7699064815665575,4.962857739275042,2.4650601895603392
92,-1.2002001981820964,4.132065892624829,-3.7037919632051954,2.187442710154422,2.13082936996935,0.0632872889455593,-1.7157034600931242,-3.244342694377065,1.172622419939136,2.468019465306978,5.010687427072401,-2.78268676278134,5.453153234680573,2.8211569023721617
93,-0.18563398470080886,5.09087489568015,-4.213791898047151,3.1094047253040005,2.321717477522755,0.39125991966312823,-1.273500805756297,-3.518024257078223,1.3812473601295985,2.5233281461042676,4.8614299820790885,-3.512758719290778,5.558322731006994,3.0515837013771385
94,0.9866062620522636,5.6831898530642855,-4.3473223358471325,3.8245213942542136,2.332297576023009,0.6895797731143597,-0.7942920686064773,-3.617351598839263,1.4696856152076476,2.305473960523534,4.267866235263529,-3.797705421871864,5.243012800313623,3.1828804099626
95,2.2571927201598934,5.838974256047109,-4.081506643238123,4.291993269466758,2.1619126431539364,0.9350103152079774,-0.28390487886838306,-3.535488914418676,1.4089069640209098,1.791185646677429,3.2545367289928615,-3.5292217925931686,4.50610332586633,3.2370160439081133
96,3.54501508824838,5.526947595845869,-3.44649617841893,4.4940964930587,1.8288790146408282,1.109125441573814,0.25295560046644194,-3.2708872315787585,1.1870505475797855,0.9949410207836359,1.890480472022511,-2.6712703179547006,3.384072076127441,3.22661401062365
97,4.751509642547706,4.759430119423979,-2.5200838737507314,4.4345580001427995,1.367660452383813,1.200124890243264,0.8092139617054831,-2.828553616262031,0.8112523138251855,-0.03028129226744325,0.28442294613874847,-1.2691493706384926,1.9505963308868917,3.1525323480137653
98,5.7678893664162265,3.5924699573891643,-1.4154643298114342,4.134553830591081,0.8240724153104156,1.2038400204261472,1.3718345477841394,-2.221898746864899,0.3070970559738571,-1.1974313549936701,-1.4248426460427668,0.5519486401566643,0.3120458113243869,3.004075799912606
99,6.484898974367474,2.121144421541915,-0.26412665608047703,3.627286580081225,0.24925725844344923,1.1237787373520793,1.919021858125512,-1.4746085379665363,-0.2841056967729196,-2.3944739829197794,-3.0819302001873488,2.599029660055671,-1.400938121634302,2.7617609756825834
100,6.80433706860004,0.4705385565532783,0.8034567858855178,2.9522632107611226,-0.30667170709364366,0.9702280912414166,2.419058712065228,-0.6218751020960096,-0.909762570946775,-3.4969635382083997,-4.530706102510976,4.632849404860277,-3.0450358450543384,2.4022149378136546
101,6.651227091970042,-1.2165583794446893,1.6764068100940468,2.1503492321645017,-0.8004025579814381,0.7585980883398734,2.8313954909190895,0.28963288107932234,-1.5115419020204455,-4.382484060460817,-5.630678175841274,6.39650413907514,-4.477812753429116,1.9044873542261231
102,5.985234999475186,-2.7938116791876673,2.2784961029231376,1.2604272888046026,-1.199822860134905,0.5073156473160401,3.1102081032821145,1.2034895235471408,-2.0313639231030294,-4.945119621740337,-6.272004624336871,7.647664649901592,-5.571750531356512,1.2568246884841934
103,4.809782340177708,-4.125746662641942,2.5774667039208685,0.3180817790556227,-1.4864956347496117,0.2356376125573046,3.210155873062764,2.0570497562763417,-2.4172148869055508,-5.108168881543213,-6.387364337573848,8.19045727518754,-6.22715787658397,0.46282144984749685
104,3.177343351552761,-5.100829559870403,2.5872670902798505,-0.643755904991455,-1.6559859809059874,-0.03826395765292501,3.093587923680201,2.786583637505684,-2.628264575171667,-4.833604246641018,-5.959331053562628,7.902863986646595,-6.382506801925435,-0.4541422791480749
105,1.189686544423985,-5.641880313304037,2.362960813846772,-1.5927341289682413,-1.7161572049367895,-0.29867465479423594,2.7380679782076274,3.3334540672353987,-2.6388924248033128,-4.127235218435799,-5.022462796233596,6.755900630354492,-6.0210584533373765,-1.4491199934025047
106,-1.00766432562427,-5.7128337852803535,1.9892057662569518,-2.4944588071861125,-1.6838707518922869,-0.5330291540059813,2.1428957307897036,3.650543721608575,-2.4413444408732765,-3.0390780673320896,-3.6599578746295913,4.821733100650923,-5.173074918634712,-2.4571048799160065
107,-3.2367600385808797,-5.321292607591634,1.564234337114628,-3.3103516843207426,-1.580759043743636,-0.7319299768341795,1.3333433358479034,3.7080305929860264,-2.046833913530169,-1.6589754851696326,-1.995341109345755,2.269226484141015,-3.913390527438372,-3.3979958587890335
108,-5.303536201136926,-4.5167542825724025,1.1820117193466584,-3.9969404578454917,-1.4288583157153127,-0.8886405968523866,0.3615986579528184,3.497655309292365,-1.4849706222402974,-0.10799108652139283,-0.18015247697062245,-0.6529629332487311,-2.3545828881069277,-4.184653263412963
109,-7.017496606376307,-3.3848098728384732,0.9155791610967045,-4.5072396795596426,-1.2468720249567187,-0.9983026250892062,-0.6961270386432052,3.034804188126938,-0.801480430096411,1.473506639848431,1.6210272430272363,-3.6439621521898165,-0.6364032177959155,-4.733132715209302
110,-8.212524496498032,-2.0379776761354367,0.8044295274241472,-4.794430289099132,-1.047687641557732,-1.057174129876076,-1.7462825540007498,2.3580131936858746,-0.054288342393599066,2.93986773654718,3.2466734896285114,-6.385626537688058,1.087525835199537,-4.973744696958043
111,-8.76621869582213,-0.6041342225850731,0.8481208139474938,-4.817522068379278,-0.8375156589612058,-1.0621669141925467,-2.687793571654099,1.5258303969775684,0.6918023525027185,4.1549007635890804,4.553941221035092,-8.580459717531262,2.664474783860251,-4.8613334617678
112,-8.615157316039708,0.786281899665597,1.0072970980648779,-4.548188720433396,-0.6167035955152506,-1.0108762952462933,-3.4238157138321506,0.6113109151288021,1.3714063595618904,5.0058547957439306,5.4323005716198,-9.987597193372615,3.9574047493761335,-4.383162020409522
113,-7.763891290574261,2.0130079584910026,1.2120130992652474,-3.9775985056894103,-0.38195568519751816,-0.9021638917151743,-3.873852595568518,-0.3052789285502403,1.9252047210231433,5.415198813328391,5.813877503551435,-10.452110236170993,4.85832601241172,-3.5630523526119733
114,-6.286228347660203,2.977356131649997,1.3759539416669158,-3.1219024396104214,-0.12941975134896438,-0.7371993932127592,-3.984525111375789,-1.1447321801711774,2.30618016271058,5.348910318903317,5.679501906391739,-9.923735922408714,5.298831247767278,-2.4609378902082146
115,-4.318382489782728,3.611117792678474,1.414034533147685,-2.025128452646843,0.1420621245720767,-0.5207215131546655,-3.7373959088893085,-1.8371801390256284,2.484638630702355,4.820278075685554,5.059856501674887,-8.462559829665008,5.256636770447653,-1.1676630117194036
116,-2.044678405757067,3.8820610254558914,1.2601688401301723,-0.758559213537446,0.4282707153562209,-0.2621706188934016,-3.152616256888892,-2.32937284951011,2.4513206385385153,3.8886531269287476,4.0315738472128135,-6.230961534916164,4.757322518043219,0.2044059221218623
117,0.3224642799675955,3.7954612622405,0.8818743325818696,0.5838066417304271,0.7181130731618053,0.023694976771908585,-2.2877191014206226,-2.5900399249774364,2.2181471776102537,2.653123869333931,2.708624834722656,-3.4730097266685607,3.8709454644176415,1.5337422052226886
118,2.565750637575932,3.39153763696623,0.2888758087935526,1.8934813607722305,0.9936995004365314,0.31703699092875604,-1.2315541910285193,-2.61262678744635,1.81647881435522,1.241690321903732,1.2298445289068458,-0.48418227888781,2.7037748169664093,2.7033170792075683
119,4.486492946613129,2.7391385503237076,-0.4660697572571307,3.0585443498822764,1.2320746620217424,0.5942231468516946,-0.09405464413415177,-2.415034534635769,1.2931252994383422,-0.2029080501821613,-0.2561033891239711,2.4244603142461303,1.3859975891409366,3.613685479312913
120,5.9254186717106165,1.9264747083926406,-1.2944687851985344,3.976144453856599,1.4083565013060146,0.8301410572470566,1.0068625914943312,-2.0364015224610803,0.7046572793490006,-1.5390832636783638,-1.606677094782061,4.962879990217256,0.056788542589880545,4.193734227853158
121,6.778290157414926,1.0500742965600984,-2.0862985985928484,4.564737806129595,1.4997494444348303,1.0012817464516481,1.959522299328515,-1.5313887538765671,0.11078871322210451,-2.642092685775239,-2.7005020374818094,6.89472863979355,-1.1514598441369794,4.407707708082133
122,7.004589234896337,0.20337036508043665,-2.7285653356247215,4.774285904378054,1.4897057163376088,1.089124537435987,2.6719106690507144,-0.9627965973283756,-0.4323085271854454,-3.4175775618389532,-3.449736927081602,8.06207010906415,-2.127774796563284,4.2577102948622505
123,6.628498776851289,-0.5336248671251099,-3.1247833524896635,4.592859725422979,1.3714483336000798,1.0832224184352417,3.0824452643123417,-0.3935809184389021,-0.8779288292498579,-3.8112202099140338,-3.8082703658015924,8.399374513435856,-2.794236656328552,3.781566657133635
124,5.732445282755239,-1.102271886602103,-3.211758544002551,4.048577928587284,1.1501556532042645,0.9833689242343383,3.1666135753567266,0.12059299708433327,-1.1933076270275318,-3.813287933038729,-3.77476329548407,7.935542844076797,-3.1131243073326504,3.046581697011289
125,4.444398273554994,-1.4699583459647778,-2.9705891234811244,3.206477233662234,0.8433290511348762,0.8003402320007558,2.9385884813646763,0.5372357947809561,-1.362181518000956,-3.4575270840398824,-3.3902198535570625,6.784346121781209,-3.08871646980249,2.140273008144443
126,2.92083240845234,-1.6310358644981828,-2.4299281788587157,2.160662218305256,0.47918545124803147,0.5549394757103886,2.4476642137853757,0.8306193319702078,-1.3852400064598833,-2.8146644174978652,-2.7305071086922066,5.125153938769561,-2.7636651521338274,1.159473113882939
127,1.3276722453568999,-1.6041786889574272,-1.66103901131882,1.0227869798668385,0.0932749084039881,0.27538658983536685,1.7701277928538064,0.9927253220395675,-1.278554891632601,-1.9815361874583295,-1.8949392935522624,3.176991039420666,-2.2106460381544917,0.19928557275810077
