,AF3,F7,F3,FC5,T7,P7,O1,O2,P8,T8,FC6,F4,F8,AF4
0,0.3019645129970163,-0.007515033709666501,0.08831974151263762,0.1267298340621737,0.31127714879734614,0.3481179449177987,0.28997736604238333,0.2665277226064019,0.22896787876925764,0.5620905126407597,0.2640711366891655,-0.21214570499008306,0.21379113109831155,-0.15765981743794177
1,1.1281585602473778,-1.003885990669473,-0.43616810870372313,0.005399492792427219,0.22900564081133348,2.1906917210578123,1.1552980375944086,-0.42402298792635457,1.6035408992981148,0.31821177911559023,-0.2419457323233209,-0.6807627895119492,0.8944860634836943,-2.114832282951738
2,1.9789649224216248,-1.8511416793437756,-0.7993436864287872,-0.07177944369763878,0.13619771165031766,3.8414328647724725,1.9138826290264408,-1.085858392120935,2.8170753007693934,0.06744467367342744,-0.709389614976153,-1.0323154047295973,1.511292394345255,-3.821664898658212
3,2.8390917124659376,-2.4442840482356596,-0.9031681945592932,-0.08148214519914056,0.04305735881343548,5.139307356386446,2.474891073411949,-1.6834280321967663,3.743677130923438,-0.16200557207942615,-1.0697262951421767,-1.1958466951587168,2.0160458657213494,-5.092420627350299
4,3.6773029784199465,-2.713900669763764,-0.6897922564026041,-0.013525923258744176,-0.04443036349823644,5.9597052751718795,2.7719891125311897,-2.1836787371130355,4.287479274503101,-0.3507036285351451,-1.2711299922349324,-1.126375871314731,2.3675709710547888,-5.795209380893254
5,4.445020831384062,-2.6352973189675897,-0.15220433323655203,0.12671826476388878,-0.12443717537873941,6.229213465519504,2.772120107436428,-2.5575439005999026,4.393047013467143,-0.49076842014050376,-1.2856845181166592,-0.8121480527454761,2.5348358041374914,-5.868256002059928
6,5.07834149396293,-2.2313814789574526,0.6622268207994495,0.3184514181872039,-0.19818470074411076,5.934211531732968,2.479736822313873,-2.781378583403337,4.051757224324717,-0.5859587973318651,-1.1129916246101765,-0.27736607013595505,2.499736908187153,-5.327070712399692
7,5.5036045257751045,-1.5688735131043068,1.6560378623376255,0.5281792150678623,-0.26808789115246295,5.122111810856532,1.935884335888894,-2.8383706607485957,3.303270376346786,-0.6491496076344917,-0.7797224216667025,0.42005419410084166,2.259287341143701,-4.261514989852967
8,5.646097044302126,-0.7483657576578412,2.693427750487398,0.7147108031473195,-0.3355934802184484,3.8950558830271866,1.2122511107069724,-2.7199636189478853,2.231641202685711,-0.69784722883838,-0.3352605795151249,1.195466408028655,1.8269346771208124,-2.823126792411665
9,5.440918841576055,0.11036275051825999,3.6180657614746945,0.835710605064292,-0.39923239155026563,2.3969040063006433,0.401027867566333,-2.4272756494652232,0.9561897646870695,-0.7488039608433427,0.1558318583491003,1.9483044537401506,1.232713975750367,-1.204413993114972
10,4.844571220517028,0.8856695730068013,4.2746362461107115,0.8548190496966358,-0.45338475660037225,0.795261014716318,-0.39797030978797093,-1.9723954266216712,-0.3820721444007633,-0.8129633405825949,0.6233393853957027,2.5752681335639553,0.5219729823342227,0.3870562912632294
11,3.8455460796748397,1.471503758362905,4.53121282253949,0.7482347711225658,-0.48813474340907487,-0.7390598944162818,-1.0910490374184785,-1.379305532567687,-1.6369892103120594,-0.8918681365360197,1.0014660850987045,2.9840974681342365,-0.24748555679031106,1.7562238505111483
12,2.4721425967569046,1.7924505062980929,4.2993535759701995,0.5096969581598386,-0.49038503154939567,-2.052421421291566,-1.603237310862925,-0.6840754878456905,-2.6747645100458315,-0.9763184716695379,1.2379935820712638,3.106070855015934,-1.0098168246825723,2.745992936898005
13,0.7959571943489822,1.814166337208987,3.54903665355898,0.15301734598993022,-0.44614480929670014,-3.0259555968799807,-1.887907586409235,0.06607307821803168,-3.3900973602193765,-1.0475646624159811,1.3012649084907983,2.905544461623344,-1.6968422002518442,3.257132740396002
14,-1.0700270188246592,1.5476834364341874,2.3161918113572275,-0.2883418785870274,-0.34364820135775453,-3.588170924531012,-1.9320351004864944,0.8151584111957482,-3.7186936970972235,-1.08077476853797,1.184114202913686,2.3852605056210887,-2.244554454833353,3.2599657586082915
15,-2.97913119572305,1.046977801169221,0.7015498165804002,-0.764714239585501,-0.17674853846528787,-3.721111496373613,-1.7564012199632297,1.5024275335873893,-3.6443236423666305,-1.0500485085437288,0.9043411028051057,1.5867275884885297,-2.5997256051972646,2.7963442333277078
16,-4.76401645630779,0.40020868070187077,-1.139299668536325,-1.2163124965863805,0.05209100423096514,-3.4595111990213243,-1.410834980323333,2.0677910255238405,-3.199374572070073,-0.9339506841159471,0.5018249557316264,0.5856339473560597,-2.7258144410750123,1.9717694593971569
17,-6.253813057052808,-0.2840141330508334,-3.013541223557633,-1.5811533074294326,0.3298956784743781,-2.883325949623014,-0.9653500112482074,2.458215361034455,-2.4588336307318532,-0.7204608045549764,0.03281021799240589,-0.51709604990019,-2.6073826522122223,0.9388714184210919
18,-7.293404279899931,-0.8932440996288057,-4.714277969536928,-1.8037289599416582,0.6329225185236635,-2.1048714325308224,-0.49864570627135896,2.6342786779976697,-1.5286562451944037,-0.41038479000443623,-0.4377860710496223,-1.6074353469451137,-2.2523750988051083,-0.1253575580452824
19,-7.762477745427832,-1.3281950147491028,-6.0462123813418795,-1.8431927193105149,0.9283505867470292,-1.2524349434011945,-0.08580475002231144,2.5759026480104956,-0.5303477040237288,-0.018606044514419592,-0.8450140041954933,-2.5720140206672086,-1.6918854311981455,-1.0453539256570734
20,-7.591821162066134,-1.5175999973914378,-6.850490119399995,-1.6798637627726463,1.1778788522362431,-0.45259417717335826,0.21291998698823283,2.286255038078369,0.41585862010494185,0.4270129010874282,-1.1323982880314474,-3.3117470920568444,-0.9773651483946026,-1.6722025877464535
21,-6.774546304799971,-1.4287624239193104,-7.025386272252407,-1.3190686974145867,1.3428271400197502,0.1864651846841098,0.3605783551626737,1.7930001224902412,1.206698881540538,0.8888269728121713,-1.2592951856551606,-3.753597533760995,-0.17557639987224546,-1.9048036818463485
22,-5.370460083603247,-1.0722926778177544,-6.54001562327061,-0.7916894646638334,1.3900183755395412,0.5885680343020242,0.34809689964177265,1.1464362370331231,1.7682066931947618,1.324095625766941,-1.206234259315055,-3.858984625878671,0.6381245428205525,-1.7040859038527625
23,-3.5026084862852773,-0.50039666134243,-5.4391400810419475,-0.15123465446199924,1.297515028060651,0.7184969187939181,0.19444299377242794,0.4145380759748611,2.06306264499911,1.6903425751108418,-0.9776143757190036,-3.6277812160053817,1.3873950488607862,-1.0983325501024146
24,-1.346002291915442,0.20096954191844502,-3.838314009413609,0.5322676405142432,1.0592309084962188,0.5852766336788109,-0.05744203772191688,-0.3245743808254069,2.0922158147005185,1.9505311302604469,-0.6014224762341494,-3.0974153392703476,2.0025475582572456,-0.1789124967208334
25,0.8904325896953514,0.9248789743387659,-1.909898928878024,1.1808082567318539,0.6875559091204912,0.23950722833479984,-0.3481426584287181,-0.991784823048605,1.8909495300438015,2.0773135819025756,-0.12598287342841868,-2.337230540684675,2.4273969643034374,0.9129654260507417
26,2.9866913983546186,1.5592481820253574,0.1382792338180533,1.7182640689735509,0.21340225129566,-0.23482886691976126,-0.6114475419832077,-1.5165106701595283,1.520392680474227,2.0558371802317494,0.3859086494775245,-1.4388838527886347,2.624609855445533,2.006606001941696
27,4.736601424690588,2.0033682592975737,2.088834801454139,2.0802794151859136,-0.3165341854023666,-0.7330018659432931,-0.784717367356666,-1.8452965317683994,1.0560889354559726,1.884865769791263,0.8647961793735106,-0.5040888568376694,2.5790452519172975,2.9264222114575893
28,5.971707884670848,2.182750282824534,3.7418382311939875,2.2228132666356095,-0.8450642984903083,-1.1449903639200159,-0.8184513237955152,-1.948279291368455,0.5755544113094172,1.5762557520858156,1.243405746372424,0.3686300717486909,2.298813386042712,3.51730657853118
29,6.581057045119487,2.0601467187362106,4.939308700586352,2.1281587425999424,-1.3116879895487563,-1.3717734268664645,-0.6837657485764685,-1.8226361084237563,0.146760223615592,1.1530682087090574,1.4654617600153068,1.0963723296453316,1.8140311529879771,3.667209912346096
30,6.5242491682227515,1.6411833050193065,5.5838767937894955,1.8075705325786542,-1.6606628127780274,-1.3403317493299878,-0.37685371222726927,-1.4925529829407547,-0.18080389367591865,0.6467712325069526,1.49340013740601,1.621800890514124,1.1734910255142865,3.323760191390046
31,5.835965494120233,0.9738309478406688,5.6491152444880655,1.3000949440049843,-1.848754387237672,-1.015339984246963,0.08006179748493082,-1.0057349230755712,-0.3813354344281852,0.09405960671078845,1.3139989402644783,1.9192595270663722,0.439656984171818,2.5026031871489596
32,4.6212755060503286,0.14184349286511394,5.18020639933704,0.6677206414807162,-1.8514591437101808,-0.4059019607926604,0.6412972101523929,-0.42695085568817565,-0.45369255694299576,-0.4662194196501533,0.9411545056467111,1.9962861181342908,-0.31746327214387837,1.286317964877315
33,3.0422464249323307,-0.7468488812472527,4.284981298276541,-0.012521826690928007,-1.666695204717748,0.4337183271249606,1.2433726493475097,0.17049514167942056,-0.41832015483289514,-0.9956837914018151,0.4153320599777235,1.8903982220352464,-1.0269528983648388,-0.18591560729962983
34,1.297533118698056,-1.5750941933894536,3.1167242552058614,-0.6584618967773528,-1.3153451389886268,1.4096508113794624,1.8129738398481121,0.7142013257625733,-0.3109370090634823,-1.4584294691425275,-0.20040663455355218,1.661697944696666,-1.6235065146997496,-1.7364361695065051
35,-0.40243770250406224,-2.2326726165516497,1.8512874180991257,-1.1933685560390626,-0.8385381558226149,2.399702267099375,2.276154915761142,1.141737401286422,-0.17426198636647583,-1.8225031181147096,-0.8274845846426573,1.3824283843605936,-2.0532668154436253,-3.1724861670477944
36,-1.8614878586912078,-2.631362668805117,0.6618340951161725,-1.5557937758449485,-0.2920866265751417,3.2690136563794456,2.5676023806983954,1.4081330914894454,-0.04930547912318364,-2.0610651884256903,-1.381283210191318,1.1250299215114008,-2.2785018852301477,-4.311652603016038
37,-2.9215524302601623,-2.716821517728856,-0.3051822860325203,-1.707368511305021,0.2610553900882075,3.888091625909061,2.6388075624067855,1.490807704802688,0.03225542465699966,-2.1535439605221463,-1.7819476560926277,0.9504357381010534,-2.2807739737854256,-5.005917229589554
38,-3.4813202099253426,-2.475666695276422,-0.94943135430823,-1.6375180225316275,0.7591475430570052,4.150821228814704,2.4641674411526897,1.3913327743003712,0.053356823407126,-2.0870301073214614,-1.965223154110767,0.8982908195214842,-2.0623910692239655,-5.161105833081358
39,-3.5072861077469186,-1.9368550049764526,-1.2288553181187554,-1.3644786785825407,1.1495759574990878,3.989996541067492,2.044324653322462,1.1338752187649903,0.013679770472261387,-1.857998726798966,-1.8919253996780871,0.9804894329500382,-1.6460715696755779,-4.7491905545606565
40,-3.035876954593269,-1.167281795766817,-1.162987162715865,-0.9324979880397954,1.395183854757086,3.3881790104057994,1.4064217970969983,0.7606432526485557,-0.0715927075317548,-1.4742169105849408,-1.5547240663156439,1.1789448947377548,-1.0728814005949925,-3.811898681184438
41,-2.166518346990814,-0.2623490606483778,-0.8271671929006733,-0.4056188433580406,1.4781751375535717,2.382278843119938,0.6013306883514313,0.3250820066862838,-0.17602416466162016,-0.956465478924588,-0.9811761378889793,1.4479018264527022,-0.3986211451312038,-2.4552765944185557
42,-1.0467276545754065,0.6670493667335307,-0.3387022444251374,0.14108377990429724,1.401160119053607,1.0610756482001058,-0.30172605121219837,-0.1161222935267679,-0.26829266566558674,-0.3395372352362923,-0.23236481103340917,1.7204646620972635,0.3110533380575873,-0.8360757927893198
43,0.14862743784213375,1.509209699212767,0.16284874829576912,0.631598996607167,1.1853728732316933,-0.44415890013172715,-1.2224588088735548,-0.511018833674939,-0.3194361912921671,0.3280816287877218,0.6029658043221284,1.9184392606464196,0.9864046559069478,0.8581067819211444
44,1.2410239980992583,2.165884033944092,0.5382781138948559,0.9990213294507833,0.8665186362307011,-1.9748307025449352,-2.077817421161536,-0.8191720427869218,-0.3095951291108384,0.986358347378465,1.418302303970102,1.964142397292701,1.5598421092153645,2.432232573922995
45,2.0717243298097343,2.564194944776837,0.6708844842802777,1.1941763638039975,0.4890380431903973,-3.3640727905117935,-2.790377027649962,-1.016284464503548,-0.2329704439202924,1.5679760502134055,2.1022339515900312,1.792576738970646,1.9721192606900555,3.707684704466622
46,2.5218809082674083,2.6646901707626456,0.48498119252040045,1.1916936746872873,0.09975484016908999,-4.457208736442234,-3.2959144307884873,-1.0960700463848234,-0.10003387757233125,2.0046565402061876,2.552790984273576,1.3623238258513328,2.1779967197269454,4.54354493019756
47,2.526780113928899,2.4646563901747633,-0.04184064912988712,0.9927767693069931,-0.2581148280906266,-5.130946251746896,-3.5494328882946813,-1.0692410898549343,0.06348876819887891,2.2350768050540815,2.691443651236159,0.6636787785386927,2.1508802414724135,4.85268223822827
48,2.082590676594698,1.9965350675688471,-0.8743327596108263,0.6244083419012264,-0.5497627429513341,-5.308770856344233,-3.5291027695173067,-0.9599370636308263,0.22076452321337656,2.213504241046791,2.474895529379164,-0.27708573481597776,1.885996545409286,4.610826733180558
49,1.2450674800961037,1.3219880122975878,-1.9235637655228899,0.13524074785349713,-0.7518458808026972,-4.970513012753968,-3.2378267328775543,-0.8003184083395471,0.3304615218027131,1.9179525531877128,1.902996492594889,-1.3979347252339696,1.4017596081924444,3.8577871069758958
50,0.1207700268385344,0.5227375989517294,-3.0585198269953016,-0.41112472768900404,-0.8535930834081487,-4.154840408908471,-2.7023820029988683,-0.6243072781261532,0.35468636605572446,1.356504175628727,1.0215316144278235,-2.6058029966801364,0.7391049634263741,2.691012536346265
51,-1.1476790847077758,-0.31032707508806395,-4.123559661714904,-0.9444400764763133,-0.856097014813911,-2.954366303623079,-1.9703153648967617,-0.46153795203892994,0.2668571536503485,0.5705165085109437,-0.0807379774463499,-3.785325508306777,-0.04127713531326557,1.2526502980968217
52,-2.400083609577868,-1.088178351648293,-4.959207239710411,-1.396513459933521,-0.7702046742389796,-1.5040348522397735,-1.104955240205777,-0.33247646591881214,0.05811308821165136,-0.3662539905580328,-1.2806794495034208,-4.810580020035517,-0.8637058593045392,-0.2880166063946997
53,-3.4783762075043314,-1.7333634357255054,-5.42341592677106,-1.7091723344621204,-0.6135878336182159,0.03568195051952444,-0.17905726146005818,-0.24541699990767815,-0.2588956181889953,-1.3530503516818009,-2.434200076322225,-5.558533484870699,-1.6439876087674195,-1.75443737878487
54,-4.24505832944664,-2.187317067881833,-5.410509516689668,-1.8405568257234746,-0.407615496440827,1.498574521100674,0.7322832831565802,-0.19572613396292238,-0.6495648376821466,-2.2718248656173037,-3.3929845596662527,-5.922733909078265,-2.2971517937032555,-2.9825602010589995
55,-4.598292665750017,-2.414676812356753,-4.865455232994451,-1.769138748616996,-0.1745696312357231,2.7328961445116797,1.5587408090200552,-0.16735414390671716,-1.0604440819058467,-3.00037547289997,-4.022605526446139,-5.825809203474225,-2.7458363897121245,-3.838314753303559
56,-4.482184561807288,-2.4045155259749853,-3.7918525710038766,-1.4952292771507192,0.06442967256056759,3.6193576886615997,2.241153263206012,-0.1363169890022088,-1.4255701027685073,-3.427434784047322,-4.219816168766391,-5.2294944673891415,-2.92859016871512,-4.231091614298191
57,-3.8915142472138795,-2.1688419108228087,-2.2528998166795513,-1.040079437412711,0.29064938711597416,4.084603331429477,2.736508052063476,-0.07560167775100197,-1.675241438312855,-3.4678231211897854,-3.9268565758903846,-4.141167108275734,-2.807272377612471,-4.122097351401939
58,-2.870890311980901,-1.7390155792694897,-0.365491641358937,-0.44294282061639306,0.4882043555500703,4.108464351030361,3.0209622134742578,0.03922851991401251,-1.7461018735537484,-3.0756056530249754,-3.1408917559857814,-2.6161848297495225,-2.3727034734282633,-3.5270883361602126
59,-1.5088931190329131,-1.160854159717422,1.7116126438116612,0.2433653477661126,0.6440141257961449,3.724133797935661,3.0905696599183146,0.2245505982043285,-1.5911944262588902,-2.2533055771453627,-1.9172250758551996,-0.755665827645795,-1.6477788579523054,-2.5135578914131096
60,0.07178889216295761,-0.4891927649183789,3.794013826596861,0.9578146207847914,0.7476015199351456,3.011376594686303,2.959696322192947,0.48415580431495225,-1.188598044630266,-1.055626077256444,-0.3656431027361476,1.3002900686889363,-0.6874249190684085,-1.19292813837238
61,1.726971222420218,0.21746705773913685,5.690387964941232,1.6368316513414505,0.791056121623878,2.083850830028454,2.657441324416035,0.8064377867298003,-0.5473763670534576,0.4132114826731015,1.3599320886099364,3.383568192914482,0.42493775761135866,0.2913325992924089
62,3.3049824382499615,0.9017600052795471,7.221657883863735,2.219793252848936,0.7693660994553226,1.0724255221253534,2.2226838146715915,1.1638729545177036,0.29015187094812595,2.00857731968631,3.077475715448693,5.3124399369051645,1.584371281254308,1.7784797307042952
63,4.660757755374601,1.511440160222052,8.238668872694683,2.653938119184296,0.6811420011073664,0.10691688264476591,1.6985776577261136,1.5150967532947714,1.2503922967586887,3.560171576766406,4.596830687474328,6.908266667061869,2.6743398549267114,3.1067885761761
64,5.668835124649592,2.0024369203032975,8.636675317574367,2.8984039553933365,0.5295681698430229,-0.701152632267576,1.127373920947145,1.80952798863197,2.2347620980049787,4.890766041729603,5.741316608793075,8.013038425508842,3.5786393633574494,4.129922472206649
65,6.234258939445462,2.3409945908612317,8.365336440492237,2.927195308819006,0.3232718090332018,-1.2723708612517148,0.5463456913355521,1.994099309915906,3.1297898424462773,5.836716654256639,6.368396656159369,8.50603278664864,4.194053415686984,4.731901703355897
66,6.300614245359895,2.5049733826930805,7.433397865704467,2.7309687072612823,0.07673421196663442,-1.567985938816852,-0.014661791261126954,2.0212677327972486,3.820002054595015,6.26769688209815,6.386861713563101,8.317781147088006,4.4422487344454025,4.839270690494028
67,5.854649998582032,2.48441228131247,5.907758000866836,2.3175879887341537,-0.19009658972624507,-1.592177043661624,-0.5338787929362949,1.8571720889408911,4.202129373744239,6.103128183059045,5.768364091581714,7.439630496737409,4.279414266038642,4.4292342102281665
68,4.927201536184775,2.281450255227603,3.907143064054431,1.7114621637123002,-0.45319766873107886,-1.3879991079694065,-0.996646235354995,1.4886462214431042,4.198882801859721,5.323160978939839,4.551804818532321,5.9275172334200015,3.7023550409785737,3.532830129488947
69,3.590391496620372,1.9096903587458585,1.5911024331166101,0.9517398339208695,-0.6868613512154352,-1.0279018521311716,-1.393337230733666,0.9278434211074583,3.770486650045763,3.972744289967199,2.8399717209988213,3.8991211712081633,2.7501592387088447,2.2326304474648837
70,1.9513692784236956,1.3930836753744058,-0.8545513902083045,0.08950154436514797,-0.8668321417900842,-0.6005033098418328,-1.7168524633520095,0.21349839236100174,2.9223401451506397,2.15822057143523,0.7888225274129118,1.5242968189201298,1.5011125236181682,0.6549945273185674
71,0.1431220307909511,0.7644088013330781,-3.2344322409546225,-0.8158423469102698,-0.9737180153431994,-0.19579374700473964,-1.9604114913968609,-0.5916798743056535,1.7076023621799568,0.036859678221049304,-1.4092415353382883,-0.9905024650519635,0.06515118312831764,-1.0425105939003327
72,-1.6868741489774535,0.06342203109076094,-5.360811742172338,-1.7006897351383037,-0.9960661342010354,0.10891038365362982,-2.1162455468089156,-1.407398840055191,0.22410062233307662,-2.199351232115528,-3.5460140320056515,-3.422302610019263,-1.4272785795090173,-2.6873325649203665
73,-3.38922109759014,-0.6652528353793214,-7.069799648726336,-2.5016374878602803,-0.9324819778971004,0.26016379699691433,-2.1755619218227986,-2.1452535571430618,-1.394331180335318,-4.343654741913863,-5.419498663435017,-5.5540498228577695,-2.838645333271237,-4.110133466534417
74,-4.825343215532827,-1.3744386049281,-8.235025452887808,-3.1598431878578435,-0.7922983976618561,0.23518571033149088,-2.1298440831990546,-2.720039164435357,-2.991261659974947,-6.195813061710053,-6.854693705666774,-7.196896951128053,-4.0384767787931715,-5.16300018519193
75,-5.879345738286068,-2.016877816151102,-8.777645692607589,-3.625095844465166,-0.5945445720713417,0.043465271343517936,-1.973231829631954,-3.061307792214085,-4.404360808758333,-7.58229344343196,-7.720809929300257,-8.209755390564647,-4.916608619671163,-5.735617612812082
76,-6.467971912429712,-2.547820162973878,-8.671864932250626,-3.859361145575859,-0.3652750745225164,-0.2767397162438315,-1.7054518453225451,-3.12346012104326,-5.483463719004583,-8.37315851206619,-7.943137169732063,-8.513799073836626,-5.394066143798905,-5.767514257117401
77,-6.547768756202795,-2.927661888957396,-7.945578305444396,-3.8395964152136863,-0.1336331377448261,-0.6661217162757563,-1.3345957625456821,-2.8928194675107224,-6.1078433851517175,-8.49397351994528,-7.508509833711344,-8.100173664983606,-5.430419412819829,-5.254878773237111
78,-6.118773834352254,-3.1245411775808316,-6.676188540551845,-3.559661026224229,0.07272443917391745,-1.0547576564941832,-0.8790094095555689,-2.3905429078597917,-6.200577225118286,-7.931702552965261,-6.464133571501833,-7.029964491511444,-5.026893367730985,-4.251035478671367
79,-5.224314445983944,-3.1167519308943317,-4.982089786051322,-3.0311820813105914,0.2320717437485845,-1.3734332633162762,-0.36767689535220394,-1.6708155464419687,-5.738198156565339,-6.734286045146334,-4.910313712135297,-5.426411428352467,-4.225023683684827,-2.8603983808279345
80,-3.9468533958655305,-2.89479948020615,-3.010710872215885,-2.2832765710795586,0.3321552029719902,-1.5640369364579634,0.1612610723828305,-0.8144568089335624,-4.754354720562413,-5.004281784277551,-2.988273700795303,-3.460307475063943,-3.101161911852868,-1.2265122631180991
81,-2.400198445734082,-2.4628982036082103,-0.9243365502459473,-1.3610850546333293,0.3721916251963455,-1.5875089955048567,0.6638707197062838,0.0812627523780766,-3.336906557089074,-2.8875399454488533,-0.8647035290638158,-1.3303572685581455,-1.7575906238483188,0.4844607489026345
82,-0.7187795488372265,-1.8397143207952749,1.114857997173299,-0.3231430652152533,0.36292353867732513,-1.4283635130044166,1.0953190482859712,0.9152360159438349,-1.61867807700323,-0.5583251809942036,1.2850936463974,0.759106429037568,-0.3113670306371562,2.102835892926986
83,0.9549611115801071,-1.0581912884295444,2.9590477437645055,0.7622963830426205,0.32464469209001623,-1.0954443361099346,1.4156257723041599,1.5958352754838612,0.23710327284869076,1.7974284416105366,3.293585092196919,2.6203296921338985,1.1177609364971792,3.474718537099337
84,2.4837840950084003,-0.16435410384928884,4.486847615075029,1.8217834961371566,0.2834481661635374,-0.6192087759486299,1.5953881881531817,2.0530675156215503,2.054948676301796,3.9989544007471998,5.015255747742525,4.101579161868434,2.418955450168973,4.47908186763809
85,3.748104352932674,0.7849374863322471,5.612076750330992,2.7817470999875966,0.2662661605083094,-0.04634069258144066,1.6205280184392932,2.247834231431693,3.6665841666317993,5.885904088150075,6.337429228979149,5.101514323607172,3.500103468415417,5.040407448915622
86,4.656396193595923,1.7252359660447711,6.288418650218161,3.5737734672484933,0.29550791805284055,0.5671927834686692,1.4952019936089052,2.1769343498196134,4.92929430550954,7.330600741678137,7.186864299494257,5.576877827744408,4.294817493097642,5.135266860593411
87,5.152513668741242,2.5886196981207257,6.509696088108585,4.139700297709444,0.3842102697804628,1.1634355875204823,1.2422548880704167,1.8730236715149238,5.740788139640196,8.246296998314286,7.531871542705928,5.542796631901523,4.766004733668291,4.792062257881071
88,5.219259116121878,3.3084593974594467,6.306015860973739,4.436130138512605,0.5325663852773564,1.6890000831487173,0.9009425783262502,1.399450100833488,6.04871534502898,8.590944445205036,7.3802285598282475,5.065980347533842,4.905875813365539,4.08412274636963
89,4.877975354913835,3.8245464241101104,5.736540176197635,4.437991846937543,0.7264966014940928,2.1000819866208933,0.5220681301570216,0.8406288890733,5.853731860683431,8.366532347194575,6.773637556952495,4.252045632430586,4.732757856854529,3.117318208181289
90,4.184389335350748,4.088218610653929,4.880036278587054,4.140834494858884,0.938604769989116,2.365508854511724,0.16109883305607905,0.289300814900701,5.205966824599312,7.614567959325047,5.779811773485185,3.2289509538458696,4.28549520111355,2.014141798893904
91,3.221336687950843,4.067057556685756,3.8245842172516014,3.5616231514620114,1.1314802016869894,2.467799408224604,-0.12979955458835196,-0.16747765502528303,4.195711486826228,6.4086764148582365,4.48345570175204,2.1289836236314983,3.616496454948882,0.8966928669635899
92,2.0893010358990725,3.748697374434601,2.6578484901436914,2.737916246226159,1.2629251851187686,2.4025556404751605,-0.3096295626926786,-0.46151954329067446,2.939960845490201,4.845537420189248,2.9774006339555674,1.0718362578286633,2.784580619070629,-0.1289142161657317
93,0.8958803128422664,3.1432972646094886,1.4591380168976038,1.725433114790038,1.2923751942216002,2.176738370133278,-0.35507896920667614,-0.553847832684013,1.566948336948143,3.035423659303518,1.354979304986541,0.15103659994350505,1.8486822997068242,-0.9844928649150899
94,-0.25466795686451005,2.2843005822353732,0.2941184087034398,0.5941583248326825,1.187582214011046,1.8064574479315987,-0.2645731632431082,-0.4405629662019429,0.2009483848158554,1.0934674522057426,-0.2955990756154684,-0.5745980539894219,0.8632202259258697,-1.6265033867536218
95,-1.2707465733515069,1.2272302269690283,-0.7874428211050714,-0.5767363270687754,0.9305754553971919,1.3148393416942712,-0.05908394908812047,-0.15326944123794123,-1.0506149399382525,-0.8675115809167632,-1.894532408874273,-1.0836303592800762,-0.12444004596236832,-2.046859635474785
96,-2.0807596860722484,0.04644170982149806,-1.7510454072125305,-1.7047570006532111,0.521997404888274,0.7303457674823778,0.2205898270182636,0.24607264759321398,-2.1062512075001374,-2.742183598050655,-3.371484747591495,-1.3888678770811749,-1.0744266952858976,-2.2681159965024817
97,-2.637921013329338,-1.1700473606163775,-2.5745699752144624,-2.710268057778252,-0.01688138860736668,0.08565930625147258,0.5197765062927066,0.6751244413600259,-2.9148986539071227,-4.435892362386006,-4.664961216065846,-1.5293787725192263,-1.9531120211897002,-2.334238590037695
98,-2.922296367572378,-2.327329240506737,-3.244118831317372,-3.522487435087289,-0.6448665560990378,-0.583006874834205,0.7782663654893521,1.044442148529662,-3.455824806217181,-5.866244278547934,-5.720850675105202,-1.559316368391929,-2.7308931645414996,-2.298847554954956
99,-2.940152713783144,-3.3314681584258756,-3.749725313342672,-4.0848198778333655,-1.3043056773010038,-1.2365092403221019,0.9397376861396919,1.2719666572396477,-3.734622328528675,-6.96378080411548,-6.491119566839172,-1.535617918791938,-3.3798820443661133,-2.2131529097130778
100,-2.720939259058029,-4.097786218921186,-4.082009411067629,-4.359115041815242,-1.9269904207122728,-1.8336928190072168,0.96076862072759,1.2964372236420978,-3.7765000065619834,-7.672516943952377,-6.933557579401696,-1.5066928968571265,-3.872357232450425,-2.115739516177996
101,-2.3124076326249994,-4.558804213578874,-4.230584866429881,-4.328529755088878,-2.4418364522372165,-2.3329828110232174,0.817980910654432,1.0876085311408752,-3.6183302703712052,-7.951035628895256,-7.013191539466014,-1.5039141615301537,-4.18062889794907,-2.025910908991265
102,-1.77448412580949,-4.6710348504917105,-4.184597254439531,-3.998782015554234,-2.783426580960448,-2.6948396258400305,0.512172306172808,0.6516716884973146,-3.300916957335639,-7.77455787740456,-6.705553538829423,-1.537140804804432,-4.278633663257715,-1.9415763650409055
103,-1.1725450185946484,-4.41987433945897,-3.9352790941284,-3.397700674111515,-2.900358729466983,-2.885037728166509,0.06880105204592267,0.031056815143378543,-2.8627236103857783,-7.138018115432253,-6.001492522296197,-1.5947481733131776,-4.145173520955725,-1.841808250584308
104,-0.5707302618610743,-3.8219745653172654,-3.479943244938078,-2.5730937926428625,-2.7623290472900326,-2.878479720625184,-0.4652120295515889,-0.7013082302334444,-2.3359122359379385,-6.059742019112162,-4.9127436538737115,-1.6478519312316608,-3.7683138860572902,-1.6933652699574084
105,-0.025876525431672903,-2.924697312927134,-2.8264889510735776,-1.5890757466589802,-2.3650050875965083,-2.66304031708334,-1.0278133669175489,-1.4523441661252865,-1.7450549271329163,-4.584938653958628,-3.477104647121052,-1.6577196235134621,-3.150130924588752,-1.4598083473572896
106,0.41743051932828473,-1.8025377053185723,-1.9973319557939948,-0.5211044558434705,-1.7319904339205436,-2.2427976774886194,-1.5502622812137974,-2.1221429880213996,-1.1083687386691568,-2.78796247446751,-1.7618919335700647,-1.5848742834531664,-2.3108095869056777,-1.1114272200340034
107,0.7302888280492873,-0.5507290133474383,-1.0317206568911121,0.5499180878870431,-0.9135220914449552,-1.6399854262554532,-1.9664015677757045,-2.618227682777843,-0.4408580582285827,-0.7722401951474678,0.13558201396961195,-1.3981820941807415,-1.2910844019951693,-0.6340992205504892
108,0.9011307999107137,0.723430892435361,0.01434734463580794,1.5440423055619572,0.018063544900579376,-0.8950987990614915,-2.2214079093748342,-2.8686291769839554,0.24160476895272082,1.3330681022742468,2.091438906495681,-1.0823024576986546,-0.1521983087950279,-0.0354223559203488
109,0.9354812966111298,1.9107014487614713,1.0709867654469158,2.3886617212454375,0.9756569278419114,-0.06480297841966962,-2.278831431969753,-2.8319055180810273,0.9184097488561712,3.3801950131168783,3.9629427291191686,-0.6422339517425104,1.0270908143778534,0.6530378532885039
110,0.8538887401049015,2.910429201411879,2.0599525682208646,3.024364340075352,1.8666909178845301,0.782405104608957,-2.125051291037719,-2.502743526808657,1.5616620536785148,5.213604821052581,5.600152792696689,-0.10423897449138718,2.156454936323443,1.3778593366906475
111,0.6882803129108174,3.6403479649355415,2.9022354388301688,3.409722220147292,2.6033658731182934,1.5724798401571112,-1.7706882976040514,-1.912475743380983,2.1358042961146593,6.68378319002346,6.86046191375722,0.48692937466683106,3.142382347966055,2.0699444739905037
112,0.4771684922207783,4.044550834866356,3.5267290888885663,3.5245591913154755,3.112554640299751,2.233412893450968,-1.2489529896380211,-1.1245999470982586,2.5998023675769906,7.6625585249671575,7.624343249776231,1.0739549793540086,3.898041660663555,2.653788740865049
113,0.260282822514197,4.098717263003437,3.878739620932637,3.3713565539632264,3.3441631586882137,2.7032141375726946,-0.6113022948389335,-0.22608830169962593,2.911733348916669,8.058043037448373,7.810240467082162,1.5950027769409343,4.353342868988624,3.0583436911816437
114,0.07329296047640242,3.811987339290865,3.9270764360262453,2.9746279713002477,3.2768915546519,2.937241863724594,0.07891702209175507,0.6841775187591026,3.0350670640473414,7.82706443598388,7.386450447045372,1.9925454771782907,4.463794152486071,3.2277323796098942
115,-0.056699682000881366,3.225271854548786,3.66863688713886,2.3782967151194123,2.920656235598602,2.9138552676319813,0.7539674658729862,1.5081719464937229,2.9455034738104144,6.983080907659797,6.378087565452264,2.221574786555006,4.216846537559537,3.130116084615892
116,-0.1143107031598481,2.4062143499343733,3.129738887787122,1.641313348450978,2.3153531247696915,2.637538033503932,1.3494158617304952,2.1609229812722224,2.6370042741078703,5.598035382504228,4.8677587350060225,2.255955701376108,3.6347100442137723,2.763318995966317
117,-0.09725121105597505,1.441421364036218,2.3639109878293616,0.8319361569231772,1.5261081730953434,2.138952988780247,1.811113678043049,2.5805210250204422,2.12569705803478,3.797358906138599,2.9893602292293147,2.09202061459282,2.773074480095708,2.1563324026944533
118,-0.01577485699038196,0.4268978905445197,1.44634949224733,0.02124137925116504,0.6356116113669452,1.4717939361217833,2.1006896309858996,2.7346874690750025,1.4506489012022226,1.7482788548160575,0.915340086303154,1.7489592960041356,1.7157183047735811,1.3664573746595292
119,0.10968689172710301,-0.542175075368935,0.46572192110404353,-0.7234825926833672,-0.26549368340776064,0.7067451488037323,2.1990000495168918,2.623184974767298,0.6710556541708348,-0.3574166434218472,-1.1612743640594612,1.2660637494766493,0.5655652822215692,0.4725058964825507
120,0.25231160804830166,-1.3811333014204377,-0.48563624983200276,-1.3447883153843985,-1.0889557219103767,-0.07672501455893205,2.107249263824787,2.2759651204015627,-0.13993791592134885,-2.324129932764345,-3.0479595439219542,0.69734878241346,-0.5667359122671676,-0.4349381103947639
121,0.38348902421141357,-2.023908834639005,-1.3218723365709615,-1.799962888898283,-1.7586974595204596,-0.7996870529974014,1.8457730757775874,1.747547092231899,-0.903930226377845,-3.974092633982576,-4.574217637981902,0.10441799574782712,-1.5752618427044274,-1.2647837303737273
122,0.4775103479696589,-2.4286498002614896,-1.9728224888069337,-2.064284423313023,-2.2188465064852365,-1.3929615672315103,1.4507453169771096,1.1086163672656018,-1.547132078887193,-5.167050949178479,-5.61069967270129,-0.4513604863345135,-2.3706774291269244,-1.9366217937723598
123,0.5156071751417914,-2.5803637806125783,-2.3911237319106093,-2.132343700652169,-2.439066332577112,-1.8049854922391702,0.9692964948342985,0.43615892562755393,-2.00985374944715,-5.815371457374011,-6.083347356525775,-0.9162728838355088,-2.8899551493314086,-2.3902867551003677
124,0.4887186579289118,-2.4904452324078883,-2.556378840138804,-2.0173457319345007,-2.416612564335119,-2.0072751781314726,0.4536990876599734,-0.19643459035796612,-2.2541112104928236,-5.892554004721392,-5.980623079541042,-1.250297343552266,-3.102677695874612,-2.5925133010621644
125,0.3985831066108059,-2.1933264164714887,-2.475930885431087,-1.748530121355899,-2.1749753145073747,-1.9967646099083474,-0.044646262445044056,-0.7279563096115014,-2.268171009721232,-5.434055284616894,-5.3528561450023275,-1.4310305946492325,-3.0131253424677866,-2.539859041826134
126,0.25703286326580516,-1.7408247790997184,-2.182270566466076,-1.3670598482970284,-1.7594187554568217,-1.794750032120108,-0.48070520827431573,-1.115605791684697,-2.0673604619383417,-4.530409027981356,-4.303855322308311,-1.4551085907260117,-2.6579480993180318,-2.257625553479133
127,0.08367241062921804,-1.1950036790622598,-1.7275521638354612,-0.9208972271927,-1.2301299329489683,-1.4426753194192228,-0.8201710999344654,-1.338215244586196,-1.6910740392824528,-3.3137132606672264,-2.9760460263216775,-1.3370968089503832,-2.0998555558261676,-1.795094909007431
