,AF3,F7,F3,FC5,T7,P7,O1,O2,P8,T8,FC6,F4,F8,AF4
0,-0.5003897045313516,-0.722233278477934,0.022655296281371886,-0.414361834126237,-0.20906554408913125,0.15247894956326283,0.22495610701214927,0.47622183960146236,0.31248013437123007,-0.10040617968050775,0.09958697204582924,0.41573590753502904,0.29926523960042073,0.09845914085443934
1,-1.9373568044349492,-1.2963279214810273,0.07338077226094172,-0.18416851606335893,-0.11648977329172996,-0.012644856871056535,-1.2770261112768055,-0.9063310075566826,0.20088449652276313,-0.8540659893495192,-1.907549796441799,-0.2444174385084525,-1.111008830916527,-0.6484359382166699
2,-3.1449768540342435,-1.712300902583987,0.12432079569838349,0.13921299422372174,0.032758210324576625,-0.16386757988936282,-2.6222800150656673,-2.1989243340036855,0.07675307319302715,-1.5493481816159929,-3.7667458484937644,-0.873689886796598,-2.4198970264680946,-1.3195639747444732
3,-3.9667242518527654,-1.9019392521091054,0.17467278704900163,0.5754915478644349,0.25315927093671786,-0.2836542942389068,-3.656311512680538,-3.2942119042026805,-0.04961344926944412,-2.1239682733602407,-5.333369378745185,-1.4280264652946189,-3.511454619052035,-1.8455140998769815
4,-4.300262434564657,-1.8325436773210433,0.22327657367714762,1.1167103913828,0.5432731235076427,-0.3572300911463184,-4.262741309122933,-4.102973048149675,-0.16612113307757786,-2.5249773510752864,-6.489335773844413,-1.8716806842189013,-4.294293705117402,-2.179103344641469
5,-4.111431525393938,-1.5123987266663217,0.2684161431435069,1.7245275116232104,0.8842544729329869,-0.3742621683730711,-4.377374528509055,-4.561950914293598,-0.25947894115226544,-2.7136389715313154,-7.153388450940495,-2.1805037239877625,-4.7103956424799165,-2.3009786664834184
6,-3.438169428694381,-0.9896305546161163,0.30767704376658905,2.333309879320348,1.2413974889253137,-0.3303847542079027,-3.9957142286516354,-4.639353883612063,-0.3163991356692012,-2.6691299251450427,-7.287547724636836,-2.3437345924412836,-4.739773509240004,-2.2208048175852735
7,-2.3838529037024245,-0.3445546171363249,0.3379096339767987,2.858819348098199,1.5685735186163843,-0.22833400210518162,-3.1730006291384223,-4.337541602982047,-0.3253559630006206,-2.3907434456370535,-6.899179497860938,-2.3641076330520665,-4.400599719624605,-1.9739607374436487
8,-1.1011576844866722,0.323326114935103,0.35534548398274635,3.2112760968457974,1.8149663454922933,-0.07843403031477741,-2.016822231334374,-3.6926605637084333,-0.27871290552211403,-1.8984044767258084,-6.038644091842036,-2.2563378459131456,-3.745011934654578,-1.61438985839449
9,0.23102700496928233,0.9116141698051187,0.35589843319980247,3.3107552698229132,1.9331240299312331,0.10179477510332557,-0.6732927106456038,-2.7712453683622122,-0.17489069480375455,-1.2314394219372586,-4.792971758505465,-2.0442748749315087,-2.8513552091149985,-1.2048643913572257
10,1.4340626340205949,1.331960577419066,0.33565260046507,3.1023558173599004,1.8870975263301597,0.289043344416652,0.6914083901699337,-1.664042148516865,-0.020142641499965527,-0.44566608754317194,-3.27641401431557,-1.7571950409317818,-1.8140325820877903,-0.806323772964267
11,2.3553703366483134,1.5248575916778246,0.29150018009072615,2.5684823931738263,1.6593678267097638,0.4566324041152695,1.9117735569522887,-0.4775307776074512,0.1705370301607254,0.3910178191934524,-1.6189956230746942,-1.4258006173525437,-0.7323670826292226,-0.46806473620755434
12,2.8897140775531494,1.4697849827683769,0.22184946011262266,1.735936373966464,1.2553936108863128,0.5777615405201886,2.8433728011139627,0.676177912597113,0.373791837373594,1.2042626869402742,0.045680689659891104,-1.0785042033270509,0.3000965871875052,-0.22037911365786467
13,2.99284601680915,1.1889399559209404,0.12728879273998456,0.676276778453611,0.7049286851464142,0.6292309121387448,3.380388644170585,1.690215049394618,0.5598238197193209,1.9197216749894335,1.5921459655115133,-0.7384960470423708,1.2045933083387794,-0.07079204875769411
14,2.68562955258007,0.7438150466136998,0.011076140264372893,-0.5010295985046165,0.059722151904970926,0.5951334183936352,3.468124947153861,2.4735968956234875,0.6958487304834206,2.469840518724412,2.913213696914178,-0.4219399370995183,1.9235143219309854,-0.0044264263584283415
15,2.048254971465859,0.2250635690563769,-0.12066676088636528,-1.6619663272034915,-0.6122413741067462,0.4699392865081973,3.1089777467666093,2.9605572791833357,0.7507613768829479,2.8004034294517575,3.9277355072094506,-0.13744561109175066,2.4236628595042893,0.011684265411686894
16,1.2056963595792871,-0.26278392629163244,-0.25914138965632516,-2.66601926835898,-1.2352607802232398,0.2604143954905289,2.3611859213589685,3.1175105832363603,0.7003842029723021,2.8762035401729293,4.585443223321117,0.11324571682655024,2.69635402863782,0.02117489083742382
17,0.3068836359453894,-0.6193019632442833,-0.3934711736370125,-3.386257278647048,-1.7360379027189399,-0.014060962671421703,1.3305974846721185,2.9467447688502633,0.5324564889754481,2.6852131707379336,4.868686895532102,0.3336180771991664,2.7547477427089753,0.06917082785487356
18,-0.4990299788323077,-0.7659024062368011,-0.5116766706267712,-3.7283404071542052,-2.0539406716743063,-0.32298704631611874,0.15657957152931698,2.486246414461094,0.2504496205557487,2.2407121030484594,4.791191472022324,0.5301741338623257,2.6291258547213596,0.1929785672533251
19,-1.0855778289341613,-0.6603504470079714,-0.601926205568014,-3.64542012753648,-2.149870736344584,-0.6279913168267931,-1.0060540235798294,1.8054825476616194,-0.12460898874059481,1.580992015976977,4.394216596818359,0.7101164153028187,2.3610009615734944,0.4142589183935454
20,-1.3675942659421991,-0.30557580383086114,-0.6539068345332744,-3.1464669188788195,-2.01235366034574,-0.8874827688197487,-2.0067322564900634,0.9974549232622186,-0.554862942324047,0.7664802900517785,3.740691036513872,0.8793295369460181,1.996959822002828,0.7340050560071848
21,-1.3128514140503633,0.2488117483381083,-0.6601284849750139,-2.2965482317022228,-1.6598507232989212,-1.0621322573206882,-2.717900239626584,0.16783314976268676,-0.9890823054370027,-0.12560102187272426,2.908000668316453,1.04095851138352,1.5830208160107953,1.1311347623172452
22,-0.9452090410906205,0.9127270286436728,-0.6169718728070366,-1.2088212306201427,-1.1388400792292095,-1.1204421170170686,-3.05051805635818,-0.5776096103946953,-1.3685779863480942,-1.008629201428051,1.980148041428768,1.1947175526598957,1.1600712598911596,1.5648744784944182
23,-0.3391184798211926,1.5687172637683737,-0.5253206196336181,-0.02929380524164173,-0.517847058773504,-1.0436196886940479,-2.9644087892414057,-1.14575926738977,-1.6348711220041694,-1.7953324730278046,1.039988402662049,1.336904473177189,0.7607031820369193,1.9804801071322762
24,0.39336830462912814,2.0900383284299235,-0.3906754335357,1.0834646968644217,0.12177869047154806,-0.8290354674672124,-2.4722948542183185,-1.4675410149368113,-1.7380727490941965,-2.4069791699632446,0.16219163288096997,1.4609733300255252,0.4075321050572056,2.3173130055895146
25,1.1208561189586332,2.360944622898019,-0.2227229615171785,1.9806903439860306,0.6970328652720199,-0.491719413780483,-1.6372062049265301,-1.5064720094986666,-1.6447495288793585,-2.7819649140956435,-0.5925175161021349,1.5584509178896704,0.11289091734054432,2.5179465487982524
26,1.7132022435248897,2.296041590915909,-0.034410404209531335,2.5445596096198804,1.1347475844967028,-0.06360377579158641,-0.5637991818908664,-1.2632821418791738,-1.344070539179704,-2.8827758828715973,-1.1814276477577852,1.619972500206841,-0.1203471403184625,2.536859551652499
27,2.0612860677594154,1.8556413080702818,0.15935440922594904,2.70494904363384,1.3817048004296641,0.4094805803245942,0.6151273035936866,-0.7759949529558418,-0.8512446361636525,-2.7004649619913175,-1.5819754046876444,1.6362498893640756,-0.2971395517343507,2.34738474748584
28,2.09303655449403,1.0546328573379966,0.3432096247774619,2.4493206437001565,1.411865008577768,0.8727487125997099,1.7550904347299547,-0.11543479797977305,-0.2076244419364459,-2.256050881304147,-1.7918856444328055,1.598856982484029,-0.428175274414401,1.9459005429888345
29,1.7834825409015536,-0.03665280287868234,0.5028628361774504,1.8242603396585986,1.2296385104063572,1.2687834887850764,2.7172570434212524,0.6233088611389667,0.5226951547513817,-1.5985949427616744,-1.8274240400217656,1.5008060781215982,-0.5275936553789587,1.3527288688082588
30,1.1575846520726254,-1.2998889734388386,0.6264471786323798,0.9284484551298731,0.8687360413403659,1.5444862951145695,3.384564064368582,1.3324486165878722,1.2594886036128334,-0.8000824490781031,-1.720011821576377,1.336970528541328,-0.6107248705965882,0.6097489064504718
31,0.28574667785265323,-2.5835457101934547,0.7055566224212804,-0.10187510792026992,0.38682132567631977,1.6578177724444698,3.6748063618727946,1.9047421894324033,1.9155024133906355,0.05240094302073272,-1.511569168625717,1.1044638141786522,-0.6919664266805795,-0.2247427728989648
32,-0.7269954829707714,-3.7229384253275364,0.7358572987968933,-1.11276902153107,-0.14316390821828437,1.5835032139241314,3.5493384833541137,2.2468762497490977,2.406996308240529,0.8663879100607208,-1.2490470026973814,0.8030968723470631,-0.7828512965965682,-1.0829945013130653
33,-1.7562181857875714,-4.562638066395837,0.7172321633024482,-1.9548069000203807,-0.6436314872780137,1.3169886141837435,3.016622496288934,2.291447336125978,2.6644591519115024,1.554588016155408,-0.9786758427634262,0.43599980721389364,-0.8903523969534629,-1.895440287612794
34,-2.6753462653567976,-4.977991568466818,0.6534768046372557,-2.504359421400592,-1.043296313871815,0.8761247156639492,2.1304750073690144,2.0061487956182766,2.6421676871719173,2.045087814923141,-0.7404992914511551,0.010417563662130074,-1.0155023764692441,-2.5978778308916346
35,-3.3722955863775583,-4.892645724646457,0.5516167224456752,-2.680828062673164,-1.2868126795956933,0.3003035151041505,0.9834462338122656,1.399064299010324,2.3253378033938716,2.289974639650414,-0.5637601016304372,-0.46141216430350496,-1.1524670076746382,-3.1372457528509154
36,-3.7632018237958675,-4.289584310636707,0.42095614550813665,-2.4573709103489065,-1.3417387440156316,-0.3529517399260916,-0.3037561602500964,0.5193689743030712,1.7338442396438631,2.271283437894795,-0.46365963594522347,-0.9614941262247074,-1.2882657262508987,-3.475413371186904
37,-3.801523196500964,-3.214169975283475,0.27199277474070366,-1.863684553149312,-1.201949678292728,-1.01366210894818,-1.5955422500257541,-0.5467861389242831,0.9218389929714478,2.003421031600343,-0.43990738886635805,-1.4656981575310992,-1.4033526322127226,-3.590816014683826
38,-3.4816298339141127,-1.7688633668141829,0.11533982439703964,-0.9806285132552028,-0.8872126525757568,-1.6067939271031846,-2.755964675177954,-1.6849176654690075,-0.02694428120114381,1.5316015879660752,-0.47730795146281957,-1.944069290033401,-1.4732283552330645,-3.478165228149485
39,-2.836878337229005,-0.10048125300655605,-0.039214595937881354,0.07230105490807072,-0.43923478813929645,-2.0606289778939946,-3.662996576856388,-2.7645803032905083,-1.0078901322363636,0.9263012506367495,-0.5484005639779169,-2.3620753122896825,-1.4711338006544776,-3.1467539132910005
40,-1.9329669080179328,1.6181256693517907,-0.18340883900174373,1.154615273167659,0.08500282975591193,-2.315197520503043,-4.221150011761292,-3.654197649849854,-1.9073616797219264,0.27426020552276553,-0.6178939198217983,-2.6829125222059638,-1.3716910498388606,-2.618010170288154
41,-0.8579597308221271,3.2093829838839207,-0.3109080506368983,2.1248767719850754,0.6214792824807432,-2.329806300876051,-4.3712186821770995,-4.23672537120265,-2.6164016812590543,-0.3329412345556764,-0.6483692022424785,-2.8708035170300423,-1.155142014700969,-1.9229227364724508
42,0.2893076595861441,4.512375030366858,-0.41738795384591837,2.860171549157412,1.107661091422779,-2.088738314780629,-4.096218807425265,-4.42431812407538,-3.0446112633726092,-0.8113085427002399,-0.6065087248570465,-2.895015754455263,-0.811645181537351,-1.099797878834904
43,1.410696722877956,5.40147252953808,-0.5003338175739312,3.2722284979822702,1.490119392510925,-1.604358139888658,-3.422964692515167,-4.170178108216489,-3.1323978455374215,-1.0962116101932071,-0.4689892551256567,-2.734148513317305,-0.3449734891219623,-0.19256733407209956
44,2.418594316046611,5.799851598517792,-0.5586294393601722,3.3180022476405573,1.7302768422645178,-0.9171174900207423,-2.419127104927708,-3.4759985353077347,-2.8598774530937106,-1.1518604047666656,-0.22718148346454467,-2.380111955906322,0.22505875317644536,0.7503913290640597
45,3.2430232605412512,5.686333615786277,-0.5920433855955096,3.0034314510414064,1.8076892705137853,-0.09229597643518134,-1.1860553348282235,-2.3938708276486564,-2.251057911286174,-0.9770505334158915,0.11007877906644677,-1.8411765094323649,0.8620166285840422,1.6771826485229215
46,3.835510686650094,5.094951049127991,-0.6007348163090205,2.3801385874473397,1.7206895748976052,0.7863061426825165,0.1519342919923609,-1.0221595435077158,-1.3724906469224176,-0.6061999396343412,0.5161523997829903,-1.1435149868208756,1.5144917258464379,2.5334715092867914
47,4.169764520500956,4.107667235122478,-0.5848944580308264,1.5358860309900608,1.4846277760579683,1.6251293757985097,1.4607265862104832,0.5044060833208234,-0.3262960341379084,-0.1053171415563015,0.9488892762663629,-0.3307950023162476,2.1200751542769183,3.264143834408642
48,4.239710981344029,2.841598882416176,-0.5446067108991177,0.5804896416199677,1.128263910356326,2.3311512566700734,2.6106687257270274,2.0294157518221843,0.761756170261492,0.4367511164165181,1.355401118629863,0.5384050321272971,2.611430336575289,3.815889960299605
49,4.05579647454833,1.4327789137399594,-0.4799701138499374,-0.3705128187640677,0.6890633818343354,2.8225662197501,3.490398796747472,3.3925639145312694,1.757710446387244,0.9207533088109991,1.6788177724385747,1.395307801929065,2.9239109135429766,4.140847752106631
50,3.6406026740568525,0.018862324806612943,-0.3914542359221633,-1.211916767919254,0.20819152282401163,3.0385930147458082,4.0187086578367754,4.448397144768308,2.53648439755856,1.2515363869714788,1.8662248786608764,2.167423022543274,3.0038841790475037,4.201160804630518
51,3.024750691516999,-1.276822218153489,-0.28041422394148147,-1.862277401227584,-0.2740812617701282,2.9471967528015557,4.153074020864677,5.0836861248685175,2.9982850388217375,1.3526404981961544,1.8767549098725675,2.7861556743362694,2.816722440865912,3.9739989851788464
52,2.243810623114474,-2.3578229239713977,-0.14964273523516694,-2.2728803451063273,-0.7220352777773144,2.5497081494491267,3.8938225572966045,5.231195551356141,3.082160815993106,1.1789014657216823,1.688693808907152,3.194640628165178,2.353349233091167,3.4563189810636676
53,1.3365546212317216,-3.1622993582077124,-0.00382166470198643,-2.4312135397175303,-1.1069242926390293,1.881655824119555,3.2833935348754157,4.878034616505601,2.7747910295987555,0.7251591299413044,1.3045023596480454,3.3547677074843096,1.6342987032292748,2.668478453746765
54,0.3444827173654059,-3.665329635902049,0.1502545676282509,-2.358807143693446,-1.4081113217627068,1.0095653295613576,2.4007172995683157,4.067431065480961,2.1132050061580427,0.029628178995475575,0.7528503895232375,3.2523674795731314,0.7104730518374167,1.6558135920721837
55,-0.6878013613925741,-3.8760248436406037,0.30377902503251697,-2.1041910607570546,-1.6130705220111434,0.02397085576740081,1.35134041914606,2.8936003837529,1.1809062283544887,-0.8288258820964589,0.08711335311450845,2.8996998097470414,-0.3398490618681925,0.487471519296733
56,-1.7120125253717582,-3.830435872221612,0.44639905444763733,-1.732434708050073,-1.716555513938401,-0.9706292109450324,0.254466179452919,1.4902727106805644,0.09775096213829167,-1.739434307676448,-0.6197527483183682,2.3347127951767135,-1.4177299932735383,-0.7478595983440991
57,-2.6761120501090265,-3.581782462824216,0.567032760929434,-1.3131741051601986,-1.719308042243643,-1.867728369801284,-0.7715044056715298,0.014278244026730858,-0.9952177750814327,-2.573363795364209,-1.2835213724000385,1.6169786716435017,-2.4134818627076418,-1.9492125314642634
58,-3.5253350754036337,-3.189800926950041,0.6549581268846899,-0.9091407320706641,-1.626678796104106,-2.571252846725828,-1.6231221504831566,-1.3737350866522937,-1.9540668318974503,-3.2009412443484,-1.8192527736415758,0.8207037601394869,-3.21875123085526,-3.012979547103418
59,-4.204654913167157,-2.7109724687372316,0.7010473929850509,-0.5669867450728221,-1.44746243595012,-3.0069526199992795,-2.223929183402761,-2.5289656365429267,-2.6510122914404497,-3.509991459454172,-2.152758376622843,0.02567580686903883,-3.739385607181405,-3.843856928513438
60,-4.662675542726402,-2.1910849194292275,0.6989854484794512,-0.31170915334585303,-1.1931278731553845,-3.131295961290342,-2.5328365862889854,-3.3399309205780026,-2.9916525965499376,-3.4227454460438804,-2.231398463766317,-0.6926260122576577,-3.90747265263185,-4.365705515397244
61,-4.856582825304553,-1.6610648964845454,0.6462987792869278,-0.1453081627775195,-0.8774771377386746,-2.9366993954443887,-2.547751715987505,-3.7414376966028025,-2.928030064654053,-2.9088618710629524,-2.032625555442292,-1.2723461597701544,-3.69093483574902,-4.530821420013463
62,-4.757481977908662,-1.136389561484467,0.5450335898079055,-0.049587120640526026,-0.5166226572669826,-2.4523645533257654,-2.303987147138903,-3.721321332975981,-2.46566797542991,-1.9925464077896826,-1.5689086312800151,-1.672613213758002,-3.0992773545978864,-4.32623239800127
63,-4.355262611582487,-0.6197525863386416,0.4019571529343829,0.00767188438446904,-0.1290648567776005,-1.7405427100342963,-1.8676804573992694,-3.320061379043896,-1.66350963929854,-0.7525024315774589,-0.8881125968356547,-1.8778254470428821,-2.184509966849983,-3.7759859436419796
64,-3.662100197242851,-0.10611840300787005,0.2282114422589023,0.06444085408880183,0.2643967015940382,-0.8886389245514522,-1.3251358765367078,-2.6233578706183005,-0.6266327071183232,0.6855930886785276,-0.06900926614261975,-1.8981939501991143,-1.0368480598390863,-2.938927428656976
65,-2.71383460166981,0.4110649208460147,0.03841678444551019,0.1556584463061221,0.6411644265819488,0.0018766441326075523,-0.7695717830737007,-1.748740364166628,0.5073966425143,2.163349702999882,0.787719408486037,-1.7664533994184142,0.22452676137756655,-1.9021016088154648
66,-1.568743926039285,0.933857202400927,-0.15070238197923927,0.3055099993678777,0.9779147917928436,0.8283393247090345,-0.28713925054775713,-0.8281361426090992,1.5867636842893513,3.5089372918089774,1.5719545649086528,-1.5312612990441599,1.4646902391867282,-0.7705508477057561
67,-0.3036105294593276,1.4552723558856866,-0.3220276328910432,0.5221122961787135,1.2522636139568921,1.499865808260983,0.05579394187766915,0.011087206039736066,2.4657939450975546,4.558876664029037,2.178503291196834,-1.2483498106692288,2.548644848819354,0.34517259024777786
68,0.9926081211477794,1.9570970736753257,-0.45989591216747,0.7954709570619347,1.4448877987815125,1.9487141983121283,0.22224918800929339,0.6638653112867962,3.0246976526406515,5.179410419858212,2.521415363212686,-0.9708762762391518,3.3574971154828166,1.3421033320398066
69,2.2268099441903018,2.410512545424648,-0.5518616951969537,1.0989732606164644,1.541818546678004,2.1384979957689914,0.20970487597156737,1.0614117731362176,3.18592499014744,5.284493863669584,2.5462410003982217,-0.7405684740745362,3.8030567812902727,2.136778309434393
70,3.3105046197777055,2.7793998985675246,-0.590147173611779,1.3940435732820613,1.5365157890692192,2.0681302201122893,0.04983073698563739,1.1794415561016454,2.9248344952817344,4.847855368414851,2.238434652194372,-0.5811462947124545,3.838910331239257,2.6743348853755537
71,4.16818496855065,3.0256982936331873,-0.5725901509618052,1.6370334050556294,1.4312974291021305,1.7709428747045435,-0.19714296911135729,1.0395338090657582,2.2731618248972887,3.9073666824912356,1.6265977863336332,-0.4951367655825601,3.466437428155726,2.9335569781035886
72,4.744236710486016,3.115801963172515,-0.5029616418072139,1.7870411735054896,1.2377454569466368,1.3090817392773901,-0.4526645724045131,0.7035634073442615,1.3147855860812012,2.561024446590643,0.779946114581078,-0.46463954047058514,2.7348791404848036,2.927222579758964
73,5.00751280227425,3.0267952481290985,-0.3906046484538565,1.8132240884362962,0.9758473078590443,0.7639308700666487,-0.6332502311870455,0.2621741599559631,0.17437479305740672,0.9550216433960725,-0.19980984063043622,-0.4559309260779386,1.7353473493414573,2.697795055503202
74,4.953041382497914,2.751362935671432,-0.2494294226022662,1.700296898156862,0.671841836050554,0.22388981800848373,-0.6650537126242068,-0.1808438836887683,-0.9994898395648761,-0.7344909479699562,-1.1911793201841603,-0.4271228818226852,0.5894821859689084,2.309189029869218
75,4.600762006927391,2.3004628807541025,-0.09637698331755161,1.451279111796926,0.35499063932629615,-0.22877077681269725,-0.49740674257767276,-0.5258126616671402,-2.05435021626514,-2.323457380673332,-2.068528584807662,-0.3375357293209579,-0.5657967425507856,1.835922588968909
76,3.9916170240476885,1.7032536112899488,0.050477525541075784,1.087077814997854,0.05373311114564266,-0.530080061449418,-0.11319779370140373,-0.6933871667940543,-2.8542581326891323,-3.642756440151949,-2.7185209509067105,-0.1571057594241888,-1.5954532145085496,1.351344270159358
77,3.1816888588370325,1.0042514394950735,0.17397295617309083,0.6430742643632951,-0.20815120358471031,-0.6437715160254662,0.4656444462221778,-0.6372705399523909,-3.2976915128681674,-4.558718907106143,-3.0551028067073887,0.12589924337053793,-2.3831521151610273,0.9167321653098777
78,2.2353148794472633,0.25816537707351783,0.2598403812481652,0.16341244895545481,-0.41469936079781783,-0.5664989241426185,1.1786246590226719,-0.3515332620791816,-3.330564455195009,-4.988585969744203,-3.030974134054679,0.5003288095490821,-2.845522519347243,0.5728905330418873
79,1.2182002910749128,-0.4767523668481927,0.29839935347122726,-0.3059240645360074,-0.5596481015727924,-0.32803241411689493,1.9333177473755185,0.1285021068282145,-2.9526278458773705,-4.90893748187318,-2.6439727264146597,0.9317209149343734,-2.942008494071946,0.3354543951655456
80,0.1914793822342657,-1.1457602493346073,0.2857872475601961,-0.7239779698430705,-0.6466514435782141,0.013667908000807534,2.617455997284033,0.7318640664386693,-2.21651274536721,-4.356150276409669,-1.9375066055642933,1.3662663645209856,-2.679048678601582,0.19452692841615984
81,-0.7925410775884761,-1.703953343828847,0.22457786316384948,-1.0604103293200249,-0.6877296788105043,0.3818391154022319,3.1149029847622445,1.3631045362607104,-1.2197028689600857,-3.4190863145683235,-0.9949862868639207,1.7386880624685486,-2.1080888312289865,0.11860625332898149
82,-1.6925532005641843,-2.120879249727202,0.12369781192537145,-1.2988806860350077,-0.7001740569015018,0.6934123389305004,3.323295166803542,1.9172971773498664,-0.09069181631659484,-2.225291507709888,0.07097186888304313,1.9828623004390575,-1.3177590526336864,0.06210055772059493
83,-2.478322634039752,-2.3827866631835732,-0.0023891995005601795,-1.4377266144408496,-0.7024383014183045,0.8727582764111881,3.170776284115147,2.2965538580547245,1.0286428266753578,-0.9228548657712753,1.1330874040425154,2.043481043351485,-0.4213298272275896,-0.02482418513652077
84,-3.129037546982029,-2.492282280386633,-0.13519082351756534,-1.4879835700385482,-0.7097741457448323,0.8645759801826338,2.6292616920115424,2.4255305095162845,2.00193812631579,0.33938929851215976,2.065714592256145,1.8867864850322242,0.45880908354049876,-0.18568746130159433
85,-3.6306032111172173,-2.465625059953968,-0.25427345319137473,-1.4692867918757049,-0.7304630374507712,0.6438928660252212,1.7220678381370007,2.263556156566322,2.7158949244391626,1.4305107789539646,2.760689806215074,1.5084613750174745,1.207514972345766,-0.4481722423944115
86,-3.9727132445144466,-2.3282768929574233,-0.33974009530152044,-1.4045726502846454,-0.7634320982222518,0.2215365888421224,0.5244854895067305,1.8115443973203915,3.0941221930918212,2.2524761012710703,3.1406128370890882,0.9371391124861606,1.7318811584519356,-0.8172321170372502
87,-4.146518322233717,-2.109592165607913,-0.37484341925164777,-1.3146824507641137,-0.7978215147129588,-0.3559018987480004,-0.8431346026354876,1.1126519532830432,3.1055175089134304,2.7496315418375112,3.167837644993068,0.23265842908797166,1.9728443589164673,-1.27202364161558
88,-4.14353546169048,-1.8376270182583732,-0.3484295942011724,-1.2139412276815618,-0.8147247678601321,-1.0117679831070727,-2.2291198338247247,0.24660552757869442,2.7662501490234903,2.911721135536674,2.8480748792764814,-0.5209675198011315,1.91190260524103,-1.767269929481146
89,-3.956129760709085,-1.5349706698992174,-0.25688859746515375,-1.1075496303790897,-0.7909093284998472,-1.6499873410605597,-3.4693362102391685,-0.6814232637203886,2.135340330942022,2.7704752801080215,2.228280792569971,-1.2269995085475394,1.5721416892811402,-2.2389630009655144
90,-3.579519029196848,-1.216265569164796,-0.10530679565792923,-0.9912388120051694,-0.7039189906050225,-2.1691494072842947,-4.408648978002738,-1.5557023906991663,1.3047199288941045,2.3907345218613623,1.3893092400653417,-1.790168999642782,1.0135818526649034,-2.613610105683677
91,-3.014883048964208,-0.8877401943010719,0.09241559508422663,-0.8531792576569812,-0.5376421688788314,-2.47795082145035,-4.921992097129487,-2.2663487300799794,0.38538909545052913,1.857800206799861,0.4345110995242151,-2.1314007351196165,0.32365432197763494,-2.819638367368798
92,-2.2728828850421854,-0.5486964152360221,0.3146076664570795,-0.6777006365849454,-0.28727340457321143,-2.5096565685079075,-4.932024743487132,-2.72483557673166,-0.5082487826559898,1.2631299441546098,-0.5240285253041985,-2.2006506435416835,-0.3957229936934701,-2.799196219779647
93,-1.3767644935418022,-0.1945416724278029,0.5340109373932482,-0.4500518616371406,0.03736315573739529,-2.233337642446991,-4.420780415732073,-2.8763470920640657,-1.273635736516311,0.69058196420885,-1.379686536801459,-1.9856790498615948,-1.0425737154339978,-2.5184945565939683
94,-0.36425125414524817,0.17930905893631538,0.7209195083608887,-0.16125662882161884,0.4109212677507687,-1.6600990574836523,-3.433541175977587,-2.7072263920150452,-1.8328103644623406,0.20517815111442883,-2.0440465679800917,-1.5151958245705741,-1.5287536446136503,-1.9750276763208496
95,0.7123935437867739,0.5734778157341973,0.8469385293116648,0.1878847784614873,0.794468393656778,-0.8432509016663594,-2.0742694943728415,-2.2464959271644007,-2.1410107425062543,-0.15413905850397017,-2.4566038695794292,-0.8557067559680015,-1.7914086430195422,-1.2004670819066106
96,1.7884686151196159,0.98142960674554,0.8888975430353783,0.5844407341075051,1.140159588649476,0.12771838936494395,-0.4931342605800385,-1.5612863354858313,-2.190117613206748,-0.3769545247162226,-2.5903337296925555,-0.10240225618182008,-1.800510834750087,-0.2586583381684429
97,2.7910924954667116,1.3877131894773667,0.8323855492191705,1.0031469523579908,1.3980596618999446,1.1385752433011236,1.1322041888149437,-0.7468801352803206,-2.0066906548740997,-0.4789911542423312,-2.4526390233024276,0.6346070815121623,-1.561585877957834,0.7611211375602193
98,3.6452618773610017,1.768054453458229,0.6743786802820361,1.4084960448422867,1.5240977734168708,2.065575038681672,2.618997031909965,0.08715249517160262,-1.645139215619959,-0.49558320290140756,-2.0818383686730124,1.2466416595739582,-1.1134497548944184,1.7547741427280443
99,4.281056057679057,2.0913948363698562,0.42451726350036467,1.7588667472040536,1.4878661799873547,2.7923161880686007,3.8024251020265143,0.8326825444450289,-1.1772715219984553,-0.47232885874882036,-1.5399452322610452,1.642885179092131,-0.5214787236881668,2.616409238918186
100,4.641124306094886,2.323624402460836,0.1047511058842296,2.012096063735733,1.278912590891235,3.2257797352028,4.556083775952946,1.3982975797067458,-0.6799776340875259,-0.45463911919871913,-0.9029417808988266,1.7643478007272637,0.13245969460469187,3.2519510824702746
101,4.687502000059256,2.4324530385549865,-0.2527088307115932,2.1316477093524813,0.9103433535014117,3.309225554701083,4.807166995973388,1.721873320611875,-0.22303826224512396,-0.47802235824780526,-0.2500157600475216,1.5931685390516688,0.7618655364263522,3.5914069365125694
102,4.406840130265393,2.392646134316986,-0.6089480449946536,2.0924135818380734,0.41893441563063577,3.0300706658422896,4.54436476972676,1.7786020026899114,0.14102960865191785,-0.5607693697188573,0.3467212933803405,1.1557711417524552,1.287521631291072,3.598049275160799
103,3.8132971716040194,2.190763765377705,-0.9229970739370198,1.8852198472760964,-0.13851356455292538,2.4216162773525767,3.8175531381289463,1.5833361117173284,0.38356843043646033,-0.7002601174697791,0.8306769152365109,0.5193292156177334,1.6478026682367464,3.2732222276498706
104,2.948610864055276,1.8286000514242853,-1.1569713478019374,1.5192903980826968,-0.6922237174011538,1.5584052660516856,2.7295359371584422,1.1869806043102489,0.5019245236627843,-0.8734748060146269,1.1663620202792333,-0.2179764165369365,1.8060186957223618,2.6561151936678793
105,1.8792040223715496,1.3247085819704196,-1.281006349154202,1.0222201437960525,-1.1689544825529736,0.5459346237060314,1.4212066449495806,0.66757476274057,0.5170068535056637,-1.0415651106176147,1.3415557109182923,-0.9414744675139427,1.7539129596468235,1.8185694917769084
106,0.6905397681503693,0.713686341849678,-1.2772982655876646,0.4373837448399955,-1.5025774919084498,-0.4937319251440721,0.05236753868357226,0.11750300293942129,0.46688555613746524,-1.1576447586532266,1.366002377120275,-1.5371310857256528,1.5110152203376248,0.8556838294956942
107,-0.5207172846110892,0.04322555506169383,-1.142669599498444,-0.18090473886648123,-1.6440860945557638,-1.4383323169860531,-1.2190451496360026,-0.3711545715067061,0.39769706364484964,-1.1764022312935227,1.2670914001068785,-1.9087237261170202,1.1201543863081815,-0.12643853039469588
108,-1.6559001620943083,-0.6307233326663642,-0.8892767530237311,-0.7738212124221735,-1.5694264512473723,-2.1813917568799663,-2.2564800594530965,-0.7208558070438308,0.3535470620820548,-1.063811011485487,1.0833877703087311,-1.9924773337740622,0.6399759882345306,-1.024082634517879
109,-2.6238891599154526,-1.2500547512599598,-0.5433340415278995,-1.2851469856581537,-1.2838418679157113,-2.6455749212516704,-2.960483875569795,-0.8802190441820038,0.36724219230932764,-0.8051710652855851,0.857160763205329,-1.7669475075979517,0.13571250201303348,-1.7486114369976176
110,-3.3499485785736622,-1.7610669284553175,-0.1420072822931782,-1.668064247350834,-0.8219461543606829,-2.791600586707416,-3.278701187164053,-0.8312609816125488,0.4535106534062118,-0.4099728490591066,0.6271566243652957,-1.256637838256461,-0.33034228166790347,-2.23674633648721
111,-3.782858373578313,-2.1205928920268096,0.27111265540235524,-1.890674809012303,-0.2434074621702503,-2.621618962929539,-3.209134543288011,-0.591181974105751,0.6059144606886621,0.08740222501966523,0.4227656657555548,-0.5287718899809335,-0.7072273336772072,-2.4571074860714566
112,-3.899533606028632,-2.300870412397026,0.6513490096016341,-1.9394769130746445,0.3751791153407482,-2.176800218221492,-2.7966256901051243,-0.20851305385422506,0.7979851275313197,0.6314236698946339,0.26045958248191925,0.31633477140850663,-0.9613895921130355,-2.4122374492233156
113,-3.7066060638705203,-2.2924906211077563,0.9583752042440334,-1.820341336734446,0.9510386088704283,-1.5297392181613259,-2.1234657062445685,0.2456468576847001,0.9883448693176178,1.1531008787907435,0.1429635123886474,1.1598927185458474,-1.079666068132548,-2.135987703298806
114,-3.238795726628645,-2.105039875253683,1.1610261255857075,-1.5569059116935466,1.4069646939762277,-0.7730118154025426,-1.2958081533063266,0.6897858560903802,1.1288469813424655,1.5804195392559877,0.06114207806056788,1.8820756597580937,-1.068917652984568,-1.686813299175956
115,-2.554289036896554,-1.7653853449581711,1.240858643886023,-1.186698825706458,1.6822846516242178,-0.005712423274625236,-0.4280380870205922,1.0454820175531847,1.1742180515047393,1.8498176393742822,-0.0019052538629869321,2.3796601485338043,-0.9526046576609838,-1.13810229941835
116,-1.727717891174335,-1.3138981307277273,1.19401777491819,-0.7556409695276723,1.7413767224426129,0.6800040811264481,0.37261445824783135,1.2500353571365115,1.0914116284136022,1.9167701808617,-0.06544544726431248,2.5811955589666025,-0.7650818142051998,-0.5670770177006739
117,-0.8416414506848102,-0.7992029522423162,1.0312063337789288,-0.31180748236508554,1.5784626844979108,1.210473080951697,1.01913211757775,1.2662077610585818,0.8669329941414768,1.7636537749797432,-0.14555689513568215,2.4573840001809817,-0.5447406964417524,-0.04397779388672452
118,0.022381827210650594,-0.27224159331549336,0.775820516584817,0.10059281548079455,1.217985949205593,1.5386569575939306,1.4538443506818626,1.087576399023417,0.5107551403992104,1.4034796663297788,-0.25058866854116285,2.025071470998301,-0.32727507303730935,0.3768562022740573
119,0.7920201408628138,0.21949656476425397,0.46056227387448706,0.44614961296222033,0.7105772288730949,1.647958638476936,1.6527264043998342,0.7387640969055094,0.056053863287629874,0.8787578531198551,-0.3785912632248306,1.3442434382898614,-0.14025464162922988,0.6627531942245821
120,1.4107264654091811,0.6368021116768054,0.12303516050659698,0.7014621151331102,0.12529388676559325,1.5515000110054393,1.6247136374700326,0.270669772533501,-0.4452578414610198,0.255580673366485,-0.5172572346376804,0.508528652384521,0.0001246438466215591,0.8046338093919275
121,1.8419538608129327,0.9520636783204561,-0.19905343406944634,0.8563325988213321,-0.4606153456484079,1.2873382140843026,1.406605960074678,-0.24835862751233534,-0.9304493873537862,-0.38614963002720765,-0.6463664692214103,-0.369238492385374,0.08972728345822673,0.8150859416373681
122,2.0707315853442005,1.1507996028472456,-0.4724367868217979,0.9130085429664361,-0.9728127442159765,0.9106594412732657,1.0547192909640222,-0.743822443328398,-1.3359593921020703,-0.9647335434887402,-0.7421793904454669,-1.1740471577666758,0.13475663475233435,0.7232431871267447
123,2.102697343139616,1.2314356035279088,-0.6719991848979082,0.8838526104936197,-1.3501418923768516,0.4843563992380023,0.6348046785974831,-1.1468964903463508,-1.6076752559991052,-1.4089031862968373,-0.7827891623554057,-1.805575597190636,0.14825818458255527,0.5676363622948886
124,1.9610129847535158,1.2036230968658759,-0.7832130972944414,0.7880275206591858,-1.5525477020917307,0.06951799853960672,0.21186235339787604,-1.4048200952982943,-1.709677235061063,-1.6682061706388147,-0.7532342257708092,-2.1922067693568033,0.14579221516960175,0.38845732116372683
125,1.6818108193676917,1.0855609671503872,-0.8030593689520515,0.6478578735220526,-1.5655452384003157,-0.28276349016376395,-0.1586694213365293,-1.4882228736231724,-1.6299114499407144,-1.7198286503616635,-0.6492354607489436,-2.3000426619158496,0.14130288951316433,0.220653597313465
126,1.308905711224602,0.9008407423191291,-0.7394067846453739,0.48547717606255586,-1.4007169149420728,-0.5371941332822454,-0.43722936253283096,-1.3943489620942002,-1.381835904637818,-1.5708021904082365,-0.4787410226486112,-2.1356674711706307,0.14405927080287537,0.08898116752598204
127,0.8884769569010327,0.6752936235671549,-0.6090407870714064,0.32021603746737964,-1.0923622666670219,-0.6770855835119792,-0.6033259304328653,-1.1458870455714292,-1.0018323575939672,-1.2553812482842381,-0.2609573871089691,-1.7425071653266797,0.15720984565165375,0.005658487014243147
