,AF3,F7,F3,FC5,T7,P7,O1,O2,P8,T8,FC6,F4,F8,AF4
0,4251.794922,4237.436035,4228.717773,4228.205078,4246.153809,4224.102539,4240.0,4217.436035,4170.769043,4219.487305,4212.307617,4220.0,4245.128418,4232.820313
1,4249.230957,4231.794922,4222.563965,4218.974121,4243.077148,4215.897461,4234.871582,4213.846191,4168.205078,4217.436035,4204.615234,4220.0,4240.0,4230.769043
2,4246.666504,4230.256348,4220.512695,4217.94873,4237.94873,4218.461426,4235.897461,4213.333496,4167.692383,4211.794922,4197.436035,4217.94873,4231.794922,4225.128418
3,4247.692383,4231.282227,4217.94873,4219.487305,4234.358887,4220.512695,4235.897461,4220.512695,4167.692383,4209.743652,4198.974121,4217.436035,4232.820313,4217.94873
4,4246.666504,4228.717773,4216.410156,4217.436035,4236.410156,4216.922852,4232.307617,4222.05127,4166.153809,4213.333496,4198.974121,4216.922852,4232.307617,4218.461426
5,4240.512695,4229.230957,4216.410156,4216.922852,4241.025879,4222.05127,4237.436035,4218.461426,4170.256348,4217.94873,4199.487305,4218.974121,4233.333496,4220.0
6,4236.922852,4230.769043,4211.282227,4221.538574,4241.025879,4232.307617,4244.615234,4221.025879,4173.846191,4216.410156,4201.538574,4217.94873,4234.871582,4216.922852
7,4232.307617,4221.538574,4200.0,4220.0,4235.384766,4229.230957,4237.94873,4218.461426,4168.205078,4211.794922,4197.436035,4205.128418,4224.102539,4210.256348
8,4221.025879,4214.358887,4192.307617,4213.846191,4232.307617,4220.0,4228.205078,4210.256348,4170.256348,4214.358887,4191.794922,4196.922852,4216.410156,4205.128418
9,4220.512695,4222.05127,4196.410156,4215.384766,4238.461426,4221.538574,4232.820313,4214.871582,4182.563965,4223.589844,4198.461426,4204.615234,4224.615234,4213.333496
10,4237.436035,4235.897461,4206.666504,4227.179688,4246.666504,4228.717773,4240.512695,4223.077148,4189.230957,4233.846191,4210.769043,4216.410156,4235.384766,4230.256348
11,4246.666504,4242.563965,4213.846191,4232.820313,4248.717773,4230.769043,4238.974121,4222.563965,4183.077148,4233.846191,4211.794922,4223.589844,4235.897461,4235.897461
12,4240.512695,4239.487305,4211.794922,4228.205078,4246.666504,4228.205078,4237.436035,4220.512695,4174.871582,4222.563965,4203.077148,4224.102539,4231.794922,4224.102539
13,4232.820313,4232.820313,4204.102539,4225.128418,4246.153809,4221.025879,4234.871582,4222.563965,4170.769043,4212.307617,4192.307617,4217.94873,4222.05127,4212.820313
14,4233.333496,4233.846191,4203.589844,4229.230957,4246.666504,4215.384766,4231.794922,4225.128418,4172.820313,4212.820313,4192.307617,4215.384766,4217.436035,4216.410156
15,4236.922852,4237.94873,4206.666504,4230.769043,4245.128418,4218.974121,4235.384766,4227.179688,4178.974121,4220.0,4201.538574,4218.461426,4227.692383,4222.05127
16,4234.871582,4233.846191,4207.179688,4223.589844,4243.589844,4219.487305,4233.333496,4225.641113,4174.871582,4217.436035,4195.897461,4219.487305,4228.205078,4213.846191
17,4232.307617,4232.307617,4211.282227,4223.589844,4244.615234,4220.0,4230.769043,4224.615234,4163.589844,4210.256348,4186.153809,4218.974121,4218.461426,4210.256348
18,4236.922852,4236.410156,4213.333496,4229.743652,4247.692383,4230.256348,4240.512695,4225.641113,4164.102539,4213.333496,4189.743652,4220.512695,4217.94873,4217.436035
19,4233.846191,4233.846191,4206.153809,4225.128418,4245.641113,4236.922852,4245.641113,4225.128418,4168.205078,4213.846191,4191.794922,4217.436035,4220.512695,4216.922852
20,4220.0,4227.692383,4195.897461,4214.871582,4242.05127,4229.230957,4235.384766,4222.05127,4167.692383,4207.179688,4184.102539,4212.307617,4215.897461,4212.307617
21,4215.897461,4225.641113,4190.256348,4212.820313,4236.922852,4218.974121,4227.179688,4223.077148,4172.307617,4210.769043,4185.128418,4210.256348,4216.410156,4214.871582
22,4225.641113,4227.179688,4189.230957,4215.384766,4232.307617,4213.846191,4225.128418,4225.128418,4181.538574,4225.128418,4189.743652,4211.282227,4224.615234,4217.94873
23,4230.256348,4231.794922,4197.436035,4223.589844,4240.0,4219.487305,4230.769043,4227.179688,4185.128418,4232.307617,4195.897461,4222.05127,4229.743652,4218.461426
24,4233.333496,4235.384766,4204.102539,4230.769043,4247.179688,4227.692383,4238.461426,4230.256348,4184.615234,4232.820313,4205.641113,4232.307617,4233.333496,4217.94873
25,4230.256348,4232.307617,4198.461426,4224.102539,4238.461426,4223.077148,4233.846191,4229.230957,4176.922852,4224.615234,4198.461426,4224.102539,4228.717773,4210.256348
26,4219.487305,4226.666504,4194.358887,4215.384766,4230.769043,4212.820313,4225.128418,4225.641113,4163.589844,4208.717773,4184.102539,4211.794922,4217.436035,4201.538574
27,4221.538574,4227.692383,4204.102539,4216.410156,4233.846191,4212.820313,4224.615234,4224.615234,4156.410156,4202.05127,4178.461426,4213.333496,4212.307617,4201.025879
28,4234.358887,4231.794922,4212.820313,4218.461426,4234.358887,4217.436035,4229.230957,4222.05127,4153.333496,4198.974121,4173.846191,4217.436035,4212.307617,4203.077148
29,4235.384766,4227.179688,4212.307617,4215.897461,4230.256348,4214.358887,4226.666504,4211.794922,4138.974121,4186.666504,4167.179688,4213.846191,4211.282227,4200.0
30,4230.256348,4219.487305,4215.384766,4213.846191,4230.769043,4209.230957,4223.077148,4208.205078,4131.282227,4182.563965,4167.692383,4217.94873,4212.307617,4199.487305
31,4233.333496,4224.615234,4225.641113,4214.871582,4232.307617,4214.871582,4231.794922,4220.0,4148.717773,4199.487305,4175.897461,4228.717773,4216.410156,4208.205078
32,4234.871582,4232.307617,4231.794922,4217.94873,4232.820313,4219.487305,4240.512695,4230.769043,4169.743652,4216.922852,4185.641113,4231.282227,4217.94873,4213.333496
33,4232.820313,4228.717773,4228.205078,4215.897461,4232.307617,4217.94873,4235.384766,4230.769043,4179.487305,4219.487305,4190.769043,4224.102539,4220.512695,4215.897461
34,4229.743652,4224.102539,4222.05127,4215.897461,4232.820313,4222.563965,4231.282227,4231.794922,4189.230957,4222.05127,4190.769043,4218.461426,4222.563965,4220.512695
35,4221.538574,4224.102539,4219.487305,4220.512695,4234.358887,4228.717773,4233.846191,4231.794922,4192.307617,4226.666504,4189.230957,4217.436035,4217.436035,4215.897461
36,4213.333496,4217.94873,4212.820313,4216.410156,4233.333496,4222.05127,4228.205078,4223.589844,4173.333496,4214.358887,4179.487305,4206.153809,4205.641113,4195.897461
37,4209.743652,4211.794922,4200.0,4209.230957,4229.230957,4216.922852,4223.589844,4216.410156,4154.871582,4195.897461,4166.666504,4193.846191,4196.410156,4181.538574
38,4211.794922,4215.384766,4199.487305,4212.820313,4229.743652,4218.461426,4228.717773,4220.512695,4160.0,4200.512695,4170.769043,4202.563965,4205.641113,4185.128418
39,4214.871582,4220.512695,4211.282227,4217.94873,4231.282227,4218.461426,4229.743652,4226.666504,4169.743652,4216.922852,4181.538574,4214.358887,4218.461426,4195.897461
40,4217.436035,4225.128418,4214.358887,4215.897461,4229.743652,4217.94873,4225.641113,4224.615234,4169.230957,4215.897461,4184.102539,4214.358887,4216.922852,4198.461426
41,4226.666504,4229.743652,4215.384766,4215.897461,4229.743652,4219.487305,4227.179688,4222.563965,4168.717773,4208.717773,4184.102539,4221.025879,4215.897461,4198.974121
42,4235.384766,4231.794922,4226.666504,4218.974121,4233.333496,4224.615234,4235.384766,4224.102539,4172.307617,4213.333496,4187.179688,4233.846191,4219.487305,4208.717773
43,4235.384766,4232.307617,4233.333496,4218.974121,4233.846191,4225.641113,4236.410156,4225.641113,4173.846191,4216.922852,4187.179688,4232.307617,4221.538574,4218.974121
44,4237.436035,4235.384766,4233.333496,4218.461426,4232.307617,4219.487305,4231.282227,4226.666504,4176.922852,4215.384766,4189.743652,4229.743652,4226.666504,4219.487305
45,4246.153809,4236.922852,4234.358887,4220.512695,4233.333496,4219.487305,4231.794922,4234.358887,4181.538574,4221.025879,4198.461426,4240.0,4231.794922,4214.358887
46,4245.128418,4232.820313,4235.384766,4223.077148,4231.794922,4227.179688,4238.974121,4239.487305,4188.717773,4228.205078,4201.025879,4248.717773,4229.743652,4211.282227
47,4235.897461,4229.230957,4236.410156,4221.538574,4231.282227,4230.769043,4245.128418,4240.0,4195.897461,4229.230957,4197.436035,4243.589844,4228.205078,4212.820313
48,4229.230957,4230.769043,4231.282227,4218.974121,4233.846191,4232.820313,4247.179688,4239.487305,4189.743652,4225.641113,4196.410156,4235.384766,4226.666504,4210.769043
49,4224.102539,4231.794922,4218.974121,4218.974121,4233.333496,4233.333496,4242.05127,4232.307617,4171.282227,4217.94873,4188.717773,4231.794922,4218.461426,4203.077148
50,4223.589844,4231.794922,4213.333496,4218.461426,4230.769043,4230.256348,4235.384766,4223.589844,4169.230957,4215.384766,4183.077148,4228.717773,4215.384766,4198.461426
51,4227.179688,4233.333496,4216.922852,4220.0,4231.794922,4233.333496,4234.358887,4229.743652,4191.282227,4227.179688,4194.871582,4227.692383,4226.153809,4199.487305
52,4222.05127,4234.871582,4214.871582,4222.563965,4232.307617,4230.769043,4232.820313,4237.436035,4202.563965,4235.384766,4203.077148,4228.717773,4230.256348,4203.077148
53,4214.871582,4233.846191,4211.794922,4220.512695,4230.256348,4219.487305,4228.717773,4229.230957,4190.256348,4228.205078,4193.333496,4230.256348,4224.615234,4206.666504
54,4218.461426,4233.846191,4214.871582,4217.94873,4227.692383,4215.384766,4227.179688,4219.487305,4176.410156,4221.025879,4186.666504,4238.461426,4224.615234,4207.692383
55,4221.025879,4232.820313,4215.384766,4217.94873,4226.153809,4218.974121,4225.641113,4222.05127,4170.256348,4217.436035,4187.179688,4249.230957,4229.230957,4209.230957
56,4218.461426,4230.769043,4214.358887,4219.487305,4228.205078,4219.487305,4223.589844,4225.641113,4168.717773,4215.384766,4187.179688,4250.256348,4229.743652,4214.358887
57,4219.487305,4231.282227,4216.410156,4221.538574,4229.230957,4216.922852,4227.179688,4229.230957,4174.871582,4221.025879,4188.717773,4248.205078,4231.794922,4218.974121
58,4226.666504,4233.846191,4220.512695,4221.025879,4228.205078,4215.897461,4230.769043,4228.717773,4180.0,4223.077148,4190.769043,4250.769043,4233.846191,4220.0
59,4227.692383,4234.871582,4222.563965,4217.436035,4228.717773,4214.871582,4225.641113,4220.512695,4169.743652,4215.384766,4187.692383,4252.307617,4229.230957,4214.871582
60,4221.538574,4232.307617,4220.512695,4217.436035,4231.794922,4215.897461,4223.589844,4216.922852,4161.538574,4211.282227,4186.666504,4250.769043,4226.153809,4212.307617
61,4215.897461,4231.794922,4216.922852,4223.077148,4231.794922,4223.077148,4230.769043,4224.615234,4174.871582,4216.922852,4187.179688,4250.769043,4227.692383,4216.922852
62,4223.077148,4238.461426,4222.05127,4229.743652,4233.846191,4233.333496,4233.846191,4235.384766,4195.897461,4223.589844,4190.769043,4253.846191,4229.743652,4221.025879
63,4230.769043,4248.205078,4228.717773,4230.769043,4238.974121,4232.307617,4231.282227,4238.461426,4205.641113,4233.333496,4202.05127,4263.077148,4233.333496,4218.461426
64,4222.563965,4242.563965,4223.077148,4225.641113,4235.897461,4219.487305,4230.769043,4234.358887,4197.94873,4237.436035,4202.05127,4264.615234,4230.769043,4213.846191
65,4218.974121,4232.820313,4216.922852,4227.692383,4231.282227,4216.410156,4230.256348,4226.666504,4186.153809,4225.641113,4188.717773,4255.384766,4222.563965,4213.333496
66,4227.179688,4240.512695,4223.077148,4231.282227,4234.871582,4222.563965,4232.307617,4224.615234,4183.077148,4216.922852,4185.128418,4249.230957,4220.0,4215.897461
67,4220.0,4246.666504,4218.461426,4222.05127,4235.897461,4223.077148,4233.846191,4224.102539,4176.922852,4215.384766,4184.102539,4246.153809,4215.897461,4209.230957
68,4203.077148,4233.333496,4202.563965,4213.846191,4231.794922,4217.94873,4225.128418,4220.0,4168.717773,4206.153809,4170.769043,4241.025879,4207.179688,4195.384766
69,4205.641113,4225.641113,4204.102539,4215.897461,4231.794922,4210.256348,4210.256348,4218.461426,4173.846191,4202.563965,4168.717773,4240.512695,4208.717773,4198.461426
70,4217.94873,4238.974121,4215.897461,4218.461426,4233.333496,4204.615234,4213.333496,4228.717773,4186.666504,4215.384766,4184.615234,4252.820313,4216.410156,4212.307617
71,4222.05127,4249.743652,4219.487305,4218.974121,4238.974121,4205.641113,4223.589844,4232.820313,4187.692383,4220.512695,4186.153809,4263.589844,4220.0,4211.282227
72,4215.897461,4243.077148,4213.846191,4216.922852,4241.538574,4204.102539,4221.025879,4217.436035,4163.589844,4204.615234,4171.794922,4256.410156,4214.358887,4200.0
73,4206.153809,4234.358887,4206.153809,4215.897461,4236.922852,4202.05127,4215.897461,4203.077148,4135.384766,4190.256348,4165.641113,4244.102539,4204.102539,4195.384766
74,4203.589844,4232.307617,4203.589844,4217.436035,4239.487305,4210.256348,4222.563965,4213.333496,4142.05127,4193.846191,4169.230957,4244.615234,4203.077148,4199.487305
75,4205.641113,4235.384766,4204.615234,4220.0,4249.230957,4216.922852,4225.641113,4227.692383,4167.179688,4202.05127,4171.794922,4247.179688,4209.230957,4197.94873
76,4202.05127,4233.333496,4198.974121,4218.461426,4248.205078,4207.179688,4216.410156,4227.179688,4174.358887,4202.05127,4169.230957,4235.897461,4203.589844,4186.153809
77,4197.94873,4228.717773,4191.282227,4215.897461,4243.077148,4197.436035,4210.256348,4219.487305,4173.846191,4199.487305,4166.153809,4224.615234,4195.384766,4183.589844
78,4198.974121,4229.230957,4194.871582,4216.410156,4245.641113,4197.94873,4212.307617,4216.410156,4177.94873,4202.563965,4169.230957,4231.282227,4205.128418,4196.922852
79,4200.0,4233.333496,4200.0,4215.384766,4246.153809,4198.461426,4212.820313,4216.410156,4174.358887,4203.589844,4172.307617,4243.077148,4215.384766,4205.128418
80,4197.436035,4232.820313,4196.922852,4212.307617,4242.563965,4197.436035,4208.717773,4208.205078,4163.077148,4201.025879,4168.205078,4239.487305,4210.769043,4201.538574
81,4195.897461,4230.769043,4195.897461,4215.897461,4242.05127,4200.512695,4208.717773,4201.538574,4154.871582,4200.0,4165.641113,4231.282227,4204.615234,4200.512695
82,4199.487305,4230.256348,4194.358887,4215.897461,4243.077148,4205.128418,4211.794922,4202.05127,4146.153809,4193.333496,4163.077148,4234.358887,4203.589844,4194.358887
83,4197.94873,4226.153809,4190.256348,4205.641113,4243.589844,4200.0,4204.615234,4203.077148,4136.922852,4184.102539,4154.358887,4234.871582,4198.974121,4184.615234
84,4197.436035,4229.743652,4193.846191,4205.641113,4243.589844,4188.717773,4193.846191,4203.077148,4135.384766,4181.538574,4154.871582,4230.256348,4198.974121,4192.307617
85,4206.666504,4241.538574,4203.077148,4215.897461,4248.205078,4189.743652,4198.461426,4215.384766,4154.871582,4191.282227,4170.256348,4242.563965,4213.333496,4213.846191
86,4210.256348,4242.05127,4204.615234,4218.974121,4256.922852,4200.512695,4214.358887,4231.794922,4183.589844,4210.256348,4180.512695,4264.615234,4223.589844,4222.05127
87,4202.563965,4234.358887,4200.0,4213.333496,4258.461426,4204.615234,4220.0,4231.282227,4190.256348,4217.94873,4175.897461,4261.538574,4215.384766,4207.179688
88,4195.384766,4231.282227,4193.846191,4206.153809,4248.205078,4202.05127,4214.871582,4217.94873,4180.512695,4206.153809,4168.205078,4245.641113,4201.538574,4192.820313
89,4192.820313,4232.820313,4188.717773,4203.589844,4245.641113,4203.077148,4216.410156,4210.769043,4176.410156,4200.512695,4171.282227,4247.179688,4198.974121,4198.974121
90,4188.717773,4230.769043,4186.153809,4205.128418,4253.333496,4204.615234,4219.487305,4209.743652,4170.769043,4202.05127,4169.743652,4248.205078,4201.538574,4202.05127
91,4180.512695,4222.05127,4176.922852,4201.538574,4253.333496,4201.538574,4212.307617,4207.692383,4155.384766,4192.820313,4155.897461,4233.846191,4195.384766,4187.179688
92,4180.0,4224.615234,4175.897461,4200.512695,4254.358887,4196.922852,4206.153809,4206.153809,4149.230957,4189.230957,4156.410156,4235.897461,4194.871582,4186.153809
93,4193.846191,4242.563965,4192.307617,4211.794922,4264.102539,4189.743652,4207.692383,4208.205078,4147.179688,4200.512695,4172.307617,4257.94873,4210.769043,4201.538574
94,4198.974121,4247.179688,4196.922852,4214.358887,4267.179688,4177.94873,4200.0,4205.641113,4137.94873,4201.025879,4176.410156,4261.538574,4216.410156,4206.666504
95,4186.666504,4233.333496,4187.179688,4203.077148,4257.94873,4169.230957,4190.769043,4204.102539,4141.538574,4188.205078,4167.692383,4249.743652,4204.615234,4199.487305
96,4179.487305,4227.179688,4182.563965,4197.436035,4249.743652,4176.922852,4192.820313,4209.230957,4161.025879,4183.077148,4161.538574,4247.692383,4194.358887,4187.692383
97,4174.871582,4227.179688,4174.871582,4199.487305,4253.333496,4194.358887,4199.487305,4211.282227,4169.230957,4185.641113,4154.358887,4247.179688,4191.282227,4179.487305
98,4169.230957,4226.153809,4168.205078,4201.025879,4262.563965,4203.077148,4209.743652,4210.769043,4172.307617,4189.230957,4153.846191,4243.589844,4190.256348,4181.538574
99,4173.846191,4230.769043,4174.871582,4201.538574,4264.102539,4203.589844,4215.384766,4207.179688,4172.820313,4189.743652,4156.922852,4249.743652,4189.743652,4187.179688
100,4181.025879,4231.282227,4177.94873,4198.974121,4259.487305,4202.05127,4210.769043,4198.974121,4155.897461,4183.077148,4152.307617,4257.436035,4190.769043,4183.077148
101,4182.563965,4231.794922,4176.922852,4198.974121,4262.05127,4194.358887,4211.794922,4191.282227,4145.128418,4182.05127,4154.358887,4260.0,4195.897461,4182.563965
102,4187.179688,4241.538574,4185.641113,4208.717773,4265.641113,4187.179688,4218.974121,4192.820313,4151.794922,4191.282227,4167.692383,4263.589844,4203.077148,4195.384766
103,4189.230957,4244.615234,4187.179688,4211.794922,4263.589844,4181.025879,4214.358887,4202.05127,4152.820313,4193.333496,4172.820313,4267.179688,4203.077148,4198.974121
104,4182.563965,4232.820313,4177.436035,4202.563965,4262.05127,4173.846191,4205.641113,4206.153809,4153.333496,4188.205078,4164.102539,4265.641113,4201.538574,4188.717773
105,4174.358887,4227.179688,4169.743652,4197.94873,4258.974121,4171.282227,4202.05127,4201.025879,4168.717773,4189.230957,4155.897461,4262.05127,4201.025879,4186.153809
106,4169.230957,4229.230957,4163.589844,4196.410156,4249.743652,4170.256348,4194.358887,4194.871582,4171.282227,4188.717773,4151.794922,4257.436035,4190.769043,4187.692383
107,4168.205078,4227.179688,4160.0,4194.358887,4249.230957,4175.384766,4190.256348,4191.794922,4163.077148,4183.077148,4150.256348,4256.922852,4183.077148,4183.077148
108,4173.333496,4225.128418,4167.179688,4197.436035,4260.0,4192.820313,4203.589844,4193.846191,4176.410156,4189.230957,4156.410156,4264.102539,4190.769043,4181.538574
109,4177.94873,4230.256348,4172.820313,4200.0,4264.102539,4202.563965,4216.410156,4197.436035,4189.230957,4195.384766,4159.487305,4267.179688,4195.384766,4186.666504
110,4178.974121,4233.846191,4167.692383,4198.461426,4261.538574,4196.410156,4213.846191,4195.384766,4172.820313,4186.666504,4155.384766,4261.538574,4188.717773,4186.153809
111,4176.922852,4233.333496,4165.128418,4201.538574,4264.102539,4193.846191,4211.282227,4191.794922,4155.384766,4181.025879,4151.794922,4260.0,4184.615234,4182.05127
112,4174.358887,4229.743652,4167.179688,4198.461426,4263.589844,4192.307617,4213.846191,4196.410156,4154.871582,4183.077148,4152.820313,4262.563965,4186.153809,4184.102539
113,4177.436035,4231.282227,4168.205078,4193.333496,4261.025879,4181.025879,4208.205078,4202.563965,4157.436035,4186.153809,4157.94873,4264.615234,4191.794922,4191.282227
114,4187.692383,4240.512695,4171.282227,4200.0,4262.05127,4171.794922,4201.538574,4206.666504,4162.563965,4193.333496,4162.05127,4268.717773,4198.974121,4193.333496
115,4183.077148,4241.025879,4171.282227,4200.512695,4257.94873,4174.358887,4200.512695,4207.692383,4170.256348,4192.820313,4157.94873,4265.641113,4194.871582,4186.666504
116,4167.179688,4229.230957,4163.077148,4187.692383,4249.230957,4183.077148,4200.0,4204.615234,4169.230957,4178.974121,4152.307617,4253.333496,4178.461426,4179.487305
117,4164.615234,4224.615234,4155.897461,4185.641113,4249.230957,4191.794922,4201.025879,4200.512695,4167.692383,4175.384766,4151.282227,4241.025879,4169.743652,4174.358887
118,4167.692383,4230.769043,4154.358887,4192.307617,4256.922852,4200.0,4207.179688,4195.897461,4172.307617,4180.512695,4151.282227,4233.846191,4173.333496,4169.743652
119,4167.179688,4234.358887,4157.94873,4191.794922,4258.974121,4201.025879,4206.153809,4190.256348,4165.128418,4178.974121,4150.769043,4231.282227,4179.487305,4169.743652
120,4169.230957,4235.897461,4163.077148,4191.282227,4255.384766,4191.794922,4198.974121,4187.179688,4155.384766,4178.461426,4152.820313,4230.769043,4182.05127,4175.384766
121,4171.794922,4242.563965,4165.641113,4196.410156,4256.410156,4189.230957,4198.974121,4188.205078,4162.05127,4185.128418,4153.333496,4234.871582,4183.077148,4181.538574
122,4173.846191,4250.256348,4168.717773,4201.025879,4263.589844,4201.025879,4204.615234,4190.769043,4171.794922,4187.692383,4156.410156,4244.615234,4188.205078,4184.102539
123,4170.256348,4242.563965,4165.641113,4197.436035,4260.512695,4201.025879,4200.512695,4192.820313,4168.205078,4181.538574,4155.384766,4242.05127,4185.641113,4180.512695
124,4165.128418,4231.794922,4158.974121,4192.307617,4249.230957,4189.230957,4190.256348,4191.282227,4165.128418,4180.512695,4149.743652,4231.794922,4181.538574,4184.102539
125,4175.384766,4244.615234,4167.692383,4196.410156,4255.384766,4192.820313,4195.384766,4194.358887,4177.94873,4192.307617,4157.94873,4243.589844,4192.307617,4195.384766
126,4192.820313,4260.0,4187.179688,4203.589844,4265.128418,4204.102539,4208.205078,4203.077148,4186.153809,4201.538574,4173.846191,4266.153809,4205.128418,4206.153809
127,4194.358887,4253.846191,4193.333496,4202.563965,4254.871582,4201.538574,4212.307617,4202.563965,4176.410156,4194.871582,4175.384766,4273.846191,4203.077148,4214.358887
