,AF3,F7,F3,FC5,T7,P7,O1,O2,P8,T8,FC6,F4,F8,AF4
0,4230.769043,4216.410156,4231.282227,4216.922852,4251.794922,4228.205078,4220.512695,4225.641113,4201.538574,4232.820313,4214.871582,4276.922852,4233.333496,4220.512695
1,4233.846191,4208.205078,4234.358887,4216.922852,4251.794922,4236.410156,4219.487305,4225.641113,4198.461426,4229.230957,4220.0,4279.487305,4234.358887,4227.179688
2,4229.743652,4197.436035,4225.641113,4204.615234,4245.128418,4221.538574,4207.179688,4219.487305,4188.717773,4211.794922,4211.282227,4275.384766,4225.128418,4215.384766
3,4229.743652,4200.0,4227.179688,4204.615234,4243.077148,4214.871582,4209.743652,4221.025879,4191.282227,4214.871582,4207.179688,4276.922852,4225.128418,4210.769043
4,4241.025879,4204.102539,4240.512695,4216.410156,4246.153809,4221.025879,4224.102539,4229.743652,4202.563965,4227.692383,4215.897461,4286.153809,4232.307617,4225.128418
5,4250.769043,4201.025879,4249.743652,4215.897461,4246.666504,4219.487305,4227.692383,4231.794922,4204.102539,4223.589844,4218.974121,4291.794922,4234.358887,4235.384766
6,4246.666504,4196.922852,4248.205078,4210.256348,4243.077148,4223.077148,4225.128418,4229.230957,4197.94873,4214.871582,4213.846191,4290.769043,4228.205078,4232.307617
7,4242.563965,4198.461426,4246.666504,4213.333496,4242.563965,4230.256348,4230.769043,4229.743652,4198.974121,4219.487305,4214.358887,4291.282227,4226.666504,4228.717773
8,4246.153809,4200.0,4250.256348,4212.307617,4244.615234,4223.589844,4237.94873,4230.256348,4201.025879,4221.538574,4218.461426,4288.717773,4229.230957,4228.205078
9,4243.077148,4200.512695,4246.666504,4207.692383,4245.128418,4219.487305,4230.769043,4227.692383,4200.512695,4216.922852,4217.436035,4280.512695,4229.230957,4222.563965
10,4238.974121,4200.0,4236.922852,4209.230957,4245.641113,4226.666504,4221.538574,4225.641113,4201.025879,4215.384766,4214.871582,4276.410156,4227.179688,4213.333496
11,4242.563965,4202.05127,4234.871582,4213.333496,4248.205078,4232.820313,4225.128418,4223.589844,4201.025879,4220.512695,4215.897461,4278.974121,4226.666504,4217.436035
12,4241.025879,4202.05127,4234.358887,4214.871582,4248.205078,4229.743652,4230.256348,4223.589844,4201.538574,4224.615234,4217.436035,4274.871582,4228.205078,4222.05127
13,4236.922852,4195.897461,4230.256348,4211.282227,4246.153809,4224.102539,4225.641113,4225.128418,4201.025879,4226.666504,4219.487305,4267.692383,4227.692383,4217.436035
14,4245.128418,4200.0,4237.94873,4211.794922,4246.666504,4223.077148,4224.102539,4225.641113,4200.0,4229.230957,4224.615234,4272.820313,4233.333496,4223.077148
15,4254.358887,4210.769043,4247.179688,4219.487305,4249.230957,4222.563965,4228.205078,4224.102539,4201.538574,4233.846191,4233.333496,4282.563965,4245.128418,4238.461426
16,4245.641113,4207.179688,4237.436035,4217.436035,4249.230957,4218.974121,4223.589844,4228.205078,4203.589844,4235.897461,4235.897461,4276.922852,4243.589844,4237.436035
17,4233.333496,4196.410156,4221.025879,4206.666504,4247.692383,4216.922852,4219.487305,4228.205078,4202.05127,4230.256348,4227.179688,4262.05127,4230.256348,4221.025879
18,4232.307617,4196.922852,4218.461426,4208.717773,4247.179688,4220.512695,4224.102539,4229.230957,4197.436035,4227.692383,4222.563965,4259.487305,4229.743652,4215.897461
19,4235.897461,4207.692383,4225.641113,4217.436035,4247.692383,4225.641113,4227.692383,4233.333496,4196.922852,4230.256348,4228.205078,4264.615234,4244.615234,4224.615234
20,4238.974121,4216.922852,4229.743652,4219.487305,4251.282227,4230.256348,4232.307617,4232.820313,4200.0,4232.820313,4234.871582,4268.717773,4249.230957,4231.794922
21,4236.922852,4213.846191,4223.077148,4217.94873,4252.820313,4230.256348,4232.307617,4229.230957,4196.922852,4232.820313,4229.743652,4265.641113,4238.461426,4227.179688
22,4229.230957,4202.563965,4211.794922,4215.897461,4250.256348,4229.230957,4225.128418,4228.717773,4196.410156,4230.256348,4218.974121,4254.871582,4229.743652,4221.538574
23,4220.0,4198.461426,4205.641113,4214.871582,4248.205078,4231.282227,4222.563965,4231.282227,4205.128418,4230.769043,4216.922852,4245.641113,4226.666504,4218.461426
24,4210.769043,4192.820313,4198.974121,4211.282227,4246.153809,4230.256348,4222.563965,4232.307617,4208.717773,4224.102539,4216.410156,4234.871582,4218.461426,4205.641113
25,4207.179688,4185.641113,4194.871582,4204.102539,4243.589844,4226.666504,4214.871582,4229.743652,4202.563965,4215.384766,4212.307617,4228.205078,4210.769043,4200.512695
26,4218.461426,4192.307617,4202.563965,4207.179688,4244.102539,4222.05127,4209.743652,4224.102539,4198.974121,4220.0,4214.358887,4238.974121,4219.487305,4215.897461
27,4230.256348,4201.025879,4214.358887,4217.436035,4246.666504,4217.436035,4216.922852,4225.128418,4198.974121,4232.307617,4230.256348,4258.461426,4237.436035,4229.230957
28,4235.897461,4202.05127,4227.179688,4216.922852,4248.717773,4223.077148,4222.563965,4231.282227,4198.461426,4234.358887,4241.538574,4270.769043,4246.153809,4235.897461
29,4240.512695,4206.153809,4235.384766,4215.897461,4247.692383,4230.769043,4224.102539,4230.256348,4196.922852,4234.871582,4241.025879,4273.333496,4243.589844,4243.589844
30,4238.461426,4202.05127,4228.717773,4215.384766,4240.0,4224.615234,4223.589844,4225.641113,4187.692383,4231.282227,4229.743652,4268.205078,4235.897461,4237.436035
31,4227.179688,4185.641113,4216.410156,4205.641113,4231.282227,4218.974121,4220.512695,4225.641113,4178.461426,4215.384766,4217.436035,4259.487305,4226.153809,4224.615234
32,4229.743652,4188.205078,4221.025879,4205.641113,4231.794922,4229.230957,4225.128418,4223.589844,4188.717773,4217.436035,4223.077148,4262.563965,4224.102539,4226.153809
33,4241.538574,4202.563965,4233.333496,4216.410156,4235.384766,4235.897461,4234.358887,4223.077148,4204.615234,4235.384766,4234.358887,4272.307617,4231.282227,4232.820313
34,4241.538574,4200.0,4232.307617,4216.922852,4233.333496,4225.128418,4232.820313,4224.102539,4202.563965,4229.743652,4232.307617,4273.846191,4233.333496,4230.769043
35,4238.974121,4193.333496,4231.282227,4212.820313,4231.794922,4218.461426,4230.769043,4229.743652,4203.077148,4221.538574,4230.256348,4276.410156,4231.794922,4228.205078
36,4237.94873,4197.94873,4234.871582,4215.384766,4235.384766,4222.05127,4233.846191,4233.333496,4213.333496,4232.820313,4236.922852,4274.358887,4232.820313,4229.230957
37,4235.384766,4201.538574,4232.307617,4215.897461,4235.384766,4218.461426,4229.230957,4230.256348,4209.743652,4233.846191,4235.897461,4267.692383,4232.307617,4230.256348
38,4232.307617,4199.487305,4228.205078,4215.897461,4231.282227,4213.333496,4223.589844,4225.128418,4200.0,4224.615234,4229.230957,4269.743652,4230.769043,4230.769043
39,4235.384766,4203.589844,4232.820313,4219.487305,4237.436035,4221.538574,4231.282227,4227.692383,4201.025879,4227.179688,4234.358887,4274.358887,4234.358887,4232.307617
40,4241.538574,4213.846191,4237.94873,4218.974121,4245.128418,4233.333496,4237.436035,4233.333496,4194.358887,4226.153809,4237.436035,4271.794922,4237.94873,4236.410156
41,4237.94873,4214.871582,4231.282227,4217.436035,4237.94873,4230.256348,4228.717773,4228.717773,4175.897461,4212.307617,4223.077148,4261.025879,4230.769043,4230.769043
42,4226.666504,4204.102539,4220.512695,4216.410156,4230.256348,4221.538574,4219.487305,4223.077148,4172.820313,4205.128418,4209.743652,4250.769043,4215.897461,4212.820313
43,4220.0,4201.025879,4214.358887,4210.256348,4228.205078,4223.077148,4220.0,4226.666504,4182.563965,4202.05127,4209.230957,4245.128418,4205.641113,4202.05127
44,4214.871582,4200.0,4209.743652,4202.563965,4221.538574,4222.563965,4221.025879,4228.717773,4188.205078,4200.0,4205.128418,4240.0,4203.077148,4200.512695
45,4205.128418,4189.743652,4200.0,4198.974121,4215.897461,4216.410156,4218.461426,4225.641113,4193.333496,4207.692383,4201.538574,4230.769043,4201.025879,4200.512695
46,4206.153809,4188.717773,4198.461426,4200.512695,4217.436035,4215.897461,4215.384766,4224.102539,4198.461426,4215.384766,4209.230957,4225.641113,4199.487305,4207.179688
47,4216.410156,4198.461426,4208.205078,4201.538574,4217.94873,4215.897461,4210.256348,4221.025879,4197.436035,4213.846191,4213.333496,4231.794922,4203.589844,4210.256348
48,4213.333496,4198.974121,4212.820313,4201.538574,4221.538574,4214.871582,4209.230957,4218.461426,4195.897461,4213.333496,4211.282227,4231.282227,4209.743652,4202.563965
49,4206.153809,4199.487305,4213.333496,4207.692383,4228.717773,4222.05127,4221.538574,4221.538574,4201.538574,4220.0,4216.410156,4233.846191,4215.897461,4205.641113
50,4209.230957,4208.717773,4217.94873,4216.922852,4231.794922,4235.384766,4233.333496,4227.179688,4203.077148,4221.538574,4219.487305,4241.025879,4217.94873,4211.794922
51,4215.384766,4212.307617,4223.077148,4217.94873,4232.307617,4235.384766,4230.256348,4223.077148,4195.384766,4217.436035,4217.436035,4238.974121,4217.436035,4205.641113
52,4214.871582,4206.666504,4220.512695,4214.358887,4225.641113,4222.563965,4222.563965,4218.461426,4183.589844,4213.846191,4212.820313,4235.897461,4215.384766,4203.589844
53,4215.897461,4207.692383,4222.05127,4214.871582,4218.461426,4212.820313,4215.384766,4220.512695,4175.897461,4210.256348,4210.256348,4246.153809,4218.461426,4214.871582
54,4227.692383,4216.922852,4234.358887,4218.974121,4225.128418,4215.384766,4214.358887,4224.102539,4187.692383,4217.436035,4220.0,4261.538574,4229.230957,4227.692383
55,4236.922852,4219.487305,4239.487305,4218.974121,4227.692383,4219.487305,4225.128418,4226.666504,4209.743652,4232.820313,4236.410156,4268.205078,4237.436035,4235.897461
56,4228.717773,4215.384766,4232.820313,4216.410156,4218.974121,4223.589844,4230.256348,4230.256348,4214.358887,4238.461426,4238.461426,4263.589844,4233.333496,4235.384766
57,4218.461426,4210.256348,4222.563965,4215.384766,4215.897461,4228.205078,4223.589844,4230.256348,4203.077148,4230.256348,4226.666504,4246.666504,4222.05127,4220.0
58,4212.307617,4203.589844,4216.410156,4212.820313,4218.461426,4232.307617,4222.563965,4226.153809,4198.974121,4220.0,4216.410156,4233.846191,4214.871582,4204.615234
59,4208.205078,4199.487305,4215.897461,4210.769043,4214.871582,4230.256348,4224.615234,4226.666504,4201.538574,4216.922852,4212.820313,4240.0,4212.820313,4205.128418
60,4209.230957,4200.512695,4214.871582,4213.333496,4212.820313,4222.563965,4218.974121,4227.179688,4198.974121,4216.410156,4212.307617,4247.179688,4213.333496,4211.794922
61,4213.846191,4202.563965,4214.871582,4217.94873,4214.871582,4216.410156,4214.358887,4222.05127,4198.461426,4216.410156,4213.846191,4240.512695,4214.358887,4213.333496
62,4215.384766,4207.692383,4218.974121,4219.487305,4218.974121,4217.94873,4215.897461,4222.05127,4200.512695,4216.410156,4213.846191,4231.282227,4214.871582,4211.282227
63,4215.384766,4214.358887,4223.077148,4226.666504,4226.666504,4220.512695,4220.0,4227.692383,4195.897461,4217.436035,4214.358887,4231.794922,4216.410156,4213.333496
64,4217.436035,4215.897461,4223.077148,4228.205078,4226.666504,4218.974121,4222.05127,4226.153809,4192.820313,4215.897461,4217.94873,4235.897461,4218.461426,4217.94873
65,4215.384766,4214.358887,4220.0,4221.538574,4220.512695,4223.077148,4221.538574,4224.102539,4197.436035,4215.897461,4219.487305,4232.820313,4219.487305,4217.436035
66,4216.922852,4214.871582,4223.589844,4223.077148,4217.94873,4231.282227,4223.589844,4229.743652,4201.025879,4225.128418,4218.461426,4231.794922,4222.05127,4217.436035
67,4224.615234,4215.897461,4232.307617,4225.641113,4216.410156,4228.717773,4227.692383,4236.922852,4200.512695,4231.794922,4225.128418,4241.025879,4228.205078,4225.128418
68,4231.794922,4214.358887,4236.410156,4220.0,4215.384766,4218.461426,4224.615234,4236.410156,4208.205078,4231.794922,4234.358887,4249.230957,4233.333496,4235.384766
69,4233.846191,4208.205078,4235.384766,4217.436035,4212.820313,4222.05127,4218.461426,4231.282227,4216.410156,4230.769043,4227.179688,4249.230957,4230.769043,4230.769043
70,4228.717773,4202.563965,4230.769043,4217.94873,4208.717773,4227.692383,4216.922852,4225.641113,4210.769043,4229.743652,4216.410156,4243.077148,4225.128418,4222.05127
71,4220.0,4201.538574,4221.538574,4216.922852,4208.717773,4221.025879,4213.846191,4222.05127,4202.05127,4222.563965,4214.358887,4231.282227,4216.410156,4218.974121
72,4214.358887,4196.922852,4216.410156,4215.384766,4207.692383,4214.358887,4207.692383,4220.0,4200.512695,4215.384766,4208.717773,4216.922852,4206.153809,4211.794922
73,4215.384766,4193.846191,4221.538574,4217.436035,4205.128418,4218.974121,4209.230957,4218.974121,4201.538574,4216.410156,4207.179688,4214.358887,4205.641113,4209.230957
74,4216.410156,4200.0,4222.05127,4224.615234,4209.230957,4226.153809,4215.897461,4218.974121,4199.487305,4218.974121,4214.871582,4215.897461,4213.846191,4213.846191
75,4216.410156,4202.563965,4217.94873,4226.666504,4209.230957,4224.102539,4216.922852,4218.461426,4196.410156,4217.436035,4214.871582,4211.794922,4215.897461,4208.205078
76,4214.871582,4197.436035,4217.94873,4218.461426,4202.05127,4216.922852,4215.897461,4218.974121,4196.410156,4212.820313,4209.743652,4209.230957,4211.794922,4198.974121
77,4213.846191,4198.974121,4224.615234,4220.512695,4203.589844,4222.05127,4223.077148,4225.641113,4201.538574,4213.846191,4212.820313,4213.333496,4214.358887,4204.615234
78,4223.077148,4205.128418,4232.307617,4232.307617,4206.153809,4231.794922,4229.743652,4225.641113,4205.641113,4226.153809,4217.436035,4219.487305,4220.0,4216.922852
79,4232.820313,4205.641113,4233.333496,4227.692383,4201.025879,4222.563965,4226.153809,4220.0,4203.589844,4230.256348,4218.974121,4219.487305,4223.589844,4218.974121
80,4226.153809,4200.0,4230.256348,4215.897461,4200.512695,4214.358887,4218.974121,4221.025879,4203.077148,4221.538574,4218.974121,4217.94873,4226.153809,4217.436035
81,4223.589844,4200.0,4230.256348,4222.563965,4203.077148,4224.615234,4219.487305,4223.077148,4203.077148,4221.025879,4216.410156,4219.487305,4226.666504,4216.410156
82,4232.307617,4209.230957,4232.820313,4230.769043,4203.589844,4234.358887,4220.512695,4223.077148,4199.487305,4230.256348,4217.436035,4222.563965,4226.153809,4217.94873
83,4226.666504,4208.205078,4225.641113,4223.077148,4201.025879,4232.307617,4216.410156,4224.615234,4206.666504,4232.307617,4220.512695,4218.461426,4222.05127,4214.871582
84,4210.769043,4197.436035,4213.846191,4214.358887,4197.94873,4225.641113,4215.384766,4227.179688,4216.410156,4230.769043,4217.94873,4205.641113,4215.897461,4207.692383
85,4211.282227,4195.897461,4216.922852,4215.384766,4197.436035,4222.563965,4215.897461,4228.205078,4212.307617,4233.333496,4216.922852,4196.922852,4213.846191,4212.820313
86,4220.0,4203.589844,4228.717773,4221.025879,4197.436035,4226.153809,4215.384766,4228.205078,4201.025879,4232.820313,4220.0,4198.461426,4216.410156,4213.333496
87,4221.025879,4204.102539,4227.692383,4223.077148,4198.974121,4233.333496,4218.461426,4224.615234,4201.538574,4230.769043,4220.0,4197.436035,4216.410156,4204.102539
88,4218.974121,4201.025879,4221.538574,4221.538574,4200.0,4231.794922,4223.077148,4225.641113,4211.282227,4232.820313,4218.461426,4190.769043,4217.94873,4207.692383
89,4216.410156,4202.05127,4220.0,4218.461426,4199.487305,4220.512695,4216.922852,4227.692383,4216.922852,4233.333496,4218.461426,4182.563965,4217.94873,4215.384766
90,4215.384766,4201.538574,4216.922852,4223.077148,4198.461426,4216.410156,4207.179688,4225.128418,4216.922852,4229.230957,4218.461426,4174.871582,4215.897461,4210.769043
91,4221.025879,4208.205078,4222.05127,4230.769043,4199.487305,4219.487305,4208.717773,4224.615234,4210.769043,4230.769043,4220.0,4173.333496,4224.615234,4211.794922
92,4221.025879,4214.358887,4227.179688,4231.794922,4200.0,4220.512695,4216.410156,4228.205078,4204.615234,4230.769043,4220.0,4174.871582,4230.256348,4220.512695
93,4216.922852,4206.666504,4219.487305,4228.205078,4200.512695,4221.025879,4215.897461,4225.641113,4200.512695,4221.538574,4214.358887,4169.743652,4221.538574,4217.436035
94,4225.128418,4205.641113,4222.563965,4230.769043,4201.025879,4226.666504,4215.384766,4224.102539,4200.0,4221.025879,4219.487305,4168.717773,4220.512695,4215.384766
95,4232.820313,4214.358887,4230.256348,4234.871582,4201.025879,4231.794922,4222.563965,4228.717773,4209.743652,4231.794922,4228.205078,4172.820313,4227.692383,4217.94873
96,4222.05127,4207.692383,4218.974121,4228.717773,4201.025879,4231.282227,4222.563965,4228.717773,4217.94873,4233.846191,4221.538574,4163.589844,4220.512695,4210.769043
97,4212.820313,4195.384766,4210.769043,4222.05127,4199.487305,4229.230957,4215.897461,4223.077148,4212.307617,4229.743652,4212.307617,4148.717773,4210.256348,4201.025879
98,4217.94873,4206.666504,4215.384766,4226.666504,4196.922852,4230.256348,4216.922852,4221.538574,4204.102539,4226.666504,4214.358887,4150.256348,4212.307617,4199.487305
99,4225.128418,4218.461426,4218.461426,4232.820313,4196.410156,4233.333496,4221.025879,4224.615234,4203.077148,4226.153809,4218.461426,4160.512695,4214.871582,4207.692383
100,4227.179688,4215.897461,4223.589844,4233.333496,4197.94873,4228.717773,4218.974121,4222.563965,4203.077148,4226.666504,4216.410156,4161.025879,4213.846191,4214.358887
101,4228.717773,4214.358887,4228.205078,4231.282227,4197.94873,4223.589844,4217.94873,4222.563965,4200.512695,4223.589844,4213.333496,4154.358887,4213.333496,4214.871582
102,4229.743652,4215.897461,4226.153809,4231.794922,4199.487305,4229.230957,4220.0,4225.641113,4201.538574,4218.461426,4213.846191,4154.871582,4212.820313,4213.333496
103,4233.333496,4221.538574,4231.794922,4238.974121,4201.025879,4235.384766,4222.05127,4226.666504,4203.589844,4220.512695,4219.487305,4164.615234,4216.922852,4213.333496
104,4232.307617,4227.692383,4240.512695,4247.179688,4201.025879,4233.333496,4221.538574,4222.563965,4200.512695,4220.0,4217.94873,4169.230957,4216.922852,4211.282227
105,4235.384766,4230.256348,4245.128418,4248.717773,4206.666504,4232.307617,4221.538574,4223.589844,4199.487305,4220.512695,4215.897461,4170.769043,4217.94873,4213.846191
106,4249.230957,4232.820313,4250.769043,4247.692383,4212.820313,4233.333496,4227.692383,4228.205078,4209.743652,4230.256348,4227.179688,4177.94873,4228.717773,4228.717773
107,4250.256348,4233.333496,4251.282227,4249.743652,4208.205078,4230.256348,4233.846191,4230.769043,4218.974121,4235.384766,4232.820313,4178.974121,4232.307617,4235.384766
108,4236.410156,4226.666504,4243.589844,4247.692383,4202.05127,4229.230957,4231.794922,4230.256348,4215.897461,4231.794922,4224.102539,4169.230957,4223.077148,4224.102539
109,4222.563965,4217.436035,4233.846191,4238.974121,4200.512695,4232.820313,4226.666504,4229.230957,4212.307617,4225.128418,4217.436035,4156.922852,4212.820313,4211.282227
110,4215.897461,4212.820313,4224.102539,4232.307617,4197.436035,4233.846191,4226.153809,4231.282227,4211.282227,4223.077148,4215.384766,4151.282227,4205.128418,4208.205078
111,4221.025879,4214.358887,4223.077148,4232.820313,4196.410156,4234.358887,4230.769043,4235.384766,4214.871582,4230.256348,4221.025879,4152.307617,4205.641113,4212.307617
112,4232.307617,4221.025879,4230.256348,4236.410156,4200.512695,4236.410156,4234.871582,4237.436035,4226.666504,4238.461426,4230.769043,4154.871582,4216.410156,4217.436035
113,4229.230957,4222.563965,4228.717773,4235.384766,4201.025879,4234.871582,4236.922852,4236.922852,4229.230957,4233.333496,4226.666504,4154.358887,4218.461426,4216.922852
114,4219.487305,4216.922852,4223.077148,4233.333496,4200.0,4231.794922,4234.358887,4235.384766,4216.922852,4221.025879,4213.333496,4151.794922,4203.589844,4211.794922
115,4224.615234,4218.461426,4222.563965,4234.871582,4201.538574,4233.846191,4231.794922,4231.282227,4215.897461,4215.384766,4211.282227,4153.846191,4198.974121,4213.333496
116,4227.692383,4225.128418,4222.563965,4234.871582,4198.974121,4233.846191,4231.794922,4229.230957,4215.384766,4215.897461,4213.846191,4152.307617,4202.563965,4214.871582
117,4224.615234,4227.692383,4224.102539,4235.897461,4198.974121,4229.230957,4226.153809,4230.256348,4203.589844,4215.897461,4214.871582,4152.307617,4203.589844,4213.333496
118,4227.179688,4228.717773,4232.307617,4242.563965,4201.538574,4227.179688,4222.563965,4230.769043,4204.615234,4215.384766,4216.922852,4164.102539,4209.743652,4216.410156
119,4234.358887,4231.282227,4236.410156,4247.692383,4202.563965,4227.692383,4227.179688,4229.743652,4215.384766,4217.436035,4216.922852,4173.333496,4215.384766,4220.512695
120,4243.077148,4233.846191,4235.384766,4247.692383,4209.230957,4231.282227,4235.897461,4234.358887,4215.897461,4223.077148,4221.025879,4172.307617,4216.922852,4223.077148
121,4246.666504,4234.871582,4235.897461,4249.230957,4214.358887,4241.538574,4241.025879,4239.487305,4223.077148,4231.282227,4231.794922,4172.307617,4215.897461,4228.717773
122,4238.461426,4232.307617,4234.358887,4252.307617,4208.205078,4249.743652,4240.512695,4240.0,4231.794922,4233.333496,4232.307617,4174.871582,4217.94873,4232.820313
123,4230.256348,4224.615234,4226.153809,4247.179688,4200.512695,4244.102539,4233.333496,4235.384766,4222.563965,4223.589844,4220.0,4166.153809,4214.871582,4225.128418
124,4231.794922,4222.563965,4223.589844,4243.077148,4203.589844,4236.410156,4229.230957,4234.358887,4214.358887,4217.94873,4213.846191,4154.358887,4205.641113,4217.94873
125,4232.820313,4227.179688,4226.666504,4246.666504,4205.641113,4235.384766,4232.820313,4234.871582,4219.487305,4220.0,4217.94873,4157.436035,4207.179688,4219.487305
126,4229.743652,4223.077148,4225.641113,4245.641113,4200.512695,4235.384766,4234.358887,4232.307617,4218.461426,4218.974121,4220.0,4161.025879,4212.307617,4220.512695
127,4230.256348,4215.897461,4224.102539,4240.0,4198.461426,4232.307617,4229.743652,4228.717773,4211.794922,4214.871582,4215.897461,4156.410156,4206.153809,4217.436035
