,AF3,F7,F3,FC5,T7,P7,O1,O2,P8,T8,FC6,F4,F8,AF4
0,4172.307617,4189.230957,4185.128418,4191.794922,4200.0,4200.512695,4199.487305,4191.794922,4198.974121,4198.461426,4202.05127,4212.820313,4213.333496,4205.128418
1,4174.871582,4187.179688,4186.153809,4192.307617,4198.461426,4200.512695,4201.538574,4188.205078,4202.563965,4195.897461,4201.538574,4212.307617,4210.256348,4207.692383
2,4172.820313,4183.077148,4184.615234,4185.128418,4197.94873,4200.512695,4201.025879,4192.307617,4186.666504,4185.128418,4187.692383,4206.666504,4198.974121,4197.436035
3,4174.871582,4184.615234,4186.153809,4185.128418,4197.436035,4202.563965,4206.153809,4197.436035,4188.205078,4188.717773,4191.794922,4209.230957,4196.922852,4197.436035
4,4182.563965,4188.205078,4196.410156,4195.897461,4201.025879,4208.205078,4216.922852,4207.692383,4220.0,4210.256348,4213.846191,4224.102539,4211.282227,4213.846191
5,4185.128418,4185.641113,4203.589844,4199.487305,4204.102539,4207.692383,4218.974121,4218.974121,4240.0,4222.563965,4222.05127,4232.820313,4216.922852,4216.922852
6,4183.589844,4184.102539,4199.487305,4193.333496,4202.563965,4203.077148,4215.384766,4217.436035,4233.846191,4215.897461,4215.384766,4229.743652,4207.692383,4207.179688
7,4182.05127,4181.538574,4191.282227,4190.769043,4200.0,4206.153809,4215.384766,4215.897461,4221.025879,4208.205078,4208.717773,4217.436035,4201.025879,4200.512695
8,4173.846191,4174.358887,4185.641113,4189.230957,4201.538574,4213.846191,4217.94873,4217.94873,4209.743652,4201.025879,4194.871582,4203.589844,4193.333496,4191.282227
9,4166.153809,4172.820313,4184.102539,4186.153809,4202.05127,4217.436035,4217.436035,4208.205078,4201.025879,4192.307617,4183.077148,4196.410156,4182.563965,4183.589844
10,4166.666504,4172.820313,4182.05127,4184.615234,4198.461426,4212.820313,4214.871582,4195.897461,4195.384766,4185.641113,4185.128418,4196.410156,4181.025879,4184.615234
11,4165.641113,4171.794922,4180.0,4184.615234,4197.436035,4205.128418,4213.846191,4198.461426,4195.897461,4182.05127,4183.077148,4197.436035,4184.102539,4184.615234
12,4172.820313,4178.974121,4187.179688,4189.743652,4200.0,4203.077148,4212.820313,4200.512695,4204.102539,4191.282227,4182.05127,4205.128418,4185.128418,4185.128418
13,4192.820313,4188.205078,4200.512695,4200.512695,4200.512695,4202.05127,4205.128418,4192.820313,4201.025879,4196.410156,4194.871582,4217.436035,4191.794922,4196.410156
14,4201.538574,4190.256348,4201.025879,4202.05127,4199.487305,4197.436035,4204.102539,4182.05127,4183.589844,4188.717773,4199.487305,4215.384766,4193.333496,4200.0
15,4202.563965,4197.94873,4202.563965,4201.538574,4201.025879,4201.538574,4214.871582,4183.589844,4182.563965,4194.358887,4197.94873,4214.871582,4196.410156,4201.025879
16,4202.563965,4200.512695,4205.128418,4204.102539,4202.563965,4201.538574,4212.307617,4195.384766,4190.769043,4202.563965,4202.563965,4216.410156,4201.025879,4207.692383
17,4190.256348,4187.692383,4194.358887,4196.922852,4197.94873,4189.743652,4194.871582,4196.922852,4183.589844,4188.717773,4194.871582,4203.589844,4190.769043,4196.922852
18,4185.128418,4183.077148,4189.743652,4193.846191,4195.897461,4191.794922,4197.436035,4193.333496,4187.692383,4182.05127,4185.128418,4198.974121,4184.615234,4184.615234
19,4194.871582,4190.256348,4202.05127,4200.512695,4200.0,4204.615234,4213.846191,4200.512695,4208.717773,4200.512695,4197.94873,4211.794922,4196.922852,4196.922852
20,4193.846191,4190.256348,4205.641113,4198.461426,4200.0,4204.102539,4209.743652,4206.153809,4212.820313,4205.128418,4202.563965,4218.974121,4197.436035,4204.615234
21,4184.102539,4185.128418,4197.436035,4193.333496,4197.436035,4198.461426,4200.512695,4196.922852,4200.0,4192.307617,4184.102539,4210.256348,4183.589844,4189.743652
22,4184.615234,4186.666504,4199.487305,4196.922852,4199.487305,4200.512695,4208.717773,4190.769043,4195.897461,4193.333496,4183.589844,4204.102539,4185.641113,4185.128418
23,4186.666504,4188.205078,4200.0,4202.05127,4202.563965,4202.05127,4213.846191,4197.94873,4206.153809,4201.538574,4199.487305,4204.615234,4196.410156,4192.820313
24,4184.102539,4186.153809,4191.282227,4198.974121,4201.025879,4201.538574,4204.102539,4201.538574,4216.410156,4201.025879,4202.05127,4203.589844,4199.487305,4189.743652
25,4183.077148,4186.153809,4185.128418,4191.282227,4197.94873,4201.538574,4198.974121,4200.512695,4221.025879,4200.0,4197.94873,4200.512695,4198.974121,4183.589844
26,4179.487305,4184.615234,4183.077148,4185.128418,4196.410156,4200.0,4199.487305,4200.512695,4218.461426,4202.05127,4197.436035,4196.922852,4199.487305,4182.563965
27,4178.461426,4182.563965,4187.179688,4188.717773,4195.897461,4196.410156,4193.846191,4199.487305,4214.871582,4200.512695,4201.538574,4201.025879,4202.563965,4189.230957
28,4196.922852,4188.717773,4201.025879,4203.589844,4201.538574,4191.794922,4195.897461,4202.563965,4217.436035,4208.717773,4210.769043,4219.487305,4215.897461,4204.615234
29,4206.153809,4192.820313,4207.179688,4204.102539,4201.538574,4188.717773,4200.512695,4202.05127,4208.717773,4214.358887,4210.256348,4232.307617,4222.05127,4210.256348
30,4190.256348,4179.487305,4195.384766,4187.692383,4190.769043,4192.820313,4197.436035,4188.717773,4186.153809,4193.846191,4196.410156,4214.871582,4202.563965,4196.922852
31,4179.487305,4168.205078,4186.153809,4181.025879,4189.743652,4201.025879,4205.641113,4187.692383,4186.153809,4178.974121,4192.307617,4193.333496,4187.179688,4185.641113
32,4181.538574,4169.230957,4187.179688,4184.102539,4198.974121,4204.615234,4214.871582,4203.589844,4206.153809,4187.692383,4191.794922,4198.461426,4189.230957,4186.153809
33,4179.487305,4172.307617,4186.153809,4185.641113,4200.512695,4203.077148,4206.666504,4204.615234,4201.025879,4190.256348,4185.641113,4202.05127,4191.282227,4185.128418
34,4175.897461,4172.307617,4185.641113,4187.179688,4196.922852,4198.461426,4197.436035,4196.410156,4187.179688,4183.077148,4184.102539,4189.230957,4183.077148,4174.358887
35,4170.256348,4170.769043,4184.102539,4188.717773,4196.922852,4192.820313,4196.410156,4197.436035,4190.256348,4180.0,4181.025879,4183.589844,4173.333496,4162.05127
36,4169.743652,4176.410156,4183.589844,4189.743652,4199.487305,4194.871582,4197.436035,4200.0,4198.461426,4185.641113,4180.512695,4196.410156,4176.922852,4168.205078
37,4182.05127,4186.153809,4192.307617,4198.461426,4203.589844,4209.743652,4210.256348,4205.641113,4212.307617,4202.05127,4192.820313,4211.794922,4189.743652,4185.641113
38,4184.102539,4189.743652,4199.487305,4205.128418,4206.153809,4215.897461,4220.512695,4211.282227,4218.974121,4203.589844,4196.410156,4218.974121,4191.794922,4185.128418
39,4172.307617,4180.512695,4195.384766,4196.410156,4201.538574,4206.666504,4208.717773,4202.05127,4205.641113,4186.153809,4184.615234,4214.358887,4177.94873,4172.820313
40,4177.436035,4178.461426,4193.846191,4194.871582,4197.94873,4194.358887,4197.436035,4193.846191,4193.333496,4182.05127,4187.179688,4211.794922,4179.487305,4179.487305
41,4198.461426,4198.461426,4207.692383,4211.794922,4203.589844,4187.179688,4202.563965,4202.05127,4192.820313,4200.0,4205.641113,4230.256348,4203.077148,4203.077148
42,4202.05127,4208.717773,4213.846191,4216.410156,4207.179688,4191.282227,4208.717773,4203.589844,4186.666504,4208.205078,4211.282227,4241.025879,4210.256348,4210.769043
43,4178.461426,4184.102539,4194.358887,4192.820313,4195.897461,4197.94873,4202.05127,4189.230957,4170.769043,4184.102539,4186.153809,4216.410156,4182.05127,4189.743652
44,4160.512695,4164.615234,4182.563965,4178.461426,4187.179688,4200.0,4197.436035,4185.128418,4169.743652,4162.563965,4159.487305,4196.922852,4160.512695,4172.307617
45,4175.897461,4182.05127,4197.436035,4194.871582,4197.436035,4205.641113,4209.230957,4200.0,4192.820313,4173.846191,4174.358887,4215.897461,4180.512695,4186.153809
46,4190.769043,4194.358887,4207.179688,4204.615234,4201.538574,4209.230957,4212.307617,4207.179688,4203.589844,4183.589844,4196.922852,4232.820313,4196.922852,4203.589844
47,4184.102539,4183.589844,4197.436035,4192.307617,4189.230957,4195.384766,4196.922852,4200.0,4187.692383,4173.846191,4189.743652,4226.666504,4189.743652,4197.94873
48,4187.692383,4181.025879,4195.897461,4191.282227,4188.717773,4183.077148,4193.333496,4205.128418,4190.256348,4178.974121,4190.256348,4229.230957,4194.358887,4195.897461
49,4196.922852,4187.692383,4205.128418,4203.077148,4200.512695,4193.846191,4204.102539,4218.974121,4206.666504,4198.461426,4209.743652,4233.846191,4207.179688,4204.102539
50,4190.769043,4188.717773,4201.025879,4204.102539,4202.05127,4204.102539,4205.128418,4217.94873,4203.589844,4202.05127,4207.179688,4222.05127,4199.487305,4198.974121
51,4177.94873,4182.563965,4187.179688,4195.897461,4198.461426,4203.589844,4200.0,4205.128418,4198.461426,4194.871582,4188.205078,4210.256348,4186.153809,4181.538574
52,4174.358887,4178.974121,4182.05127,4190.769043,4198.461426,4206.153809,4197.94873,4196.410156,4198.461426,4186.153809,4178.974121,4205.128418,4176.922852,4168.205078
53,4189.230957,4189.230957,4197.436035,4200.0,4203.077148,4214.358887,4200.512695,4198.974121,4201.538574,4188.717773,4187.179688,4215.384766,4178.461426,4181.025879
54,4206.153809,4203.589844,4212.820313,4214.871582,4206.153809,4212.307617,4203.589844,4199.487305,4200.0,4201.538574,4198.974121,4235.384766,4194.871582,4203.077148
55,4205.128418,4202.05127,4214.871582,4212.307617,4201.538574,4196.922852,4199.487305,4194.358887,4186.666504,4201.538574,4200.0,4240.0,4200.512695,4204.615234
56,4203.589844,4196.410156,4216.410156,4206.666504,4196.410156,4187.692383,4195.384766,4200.0,4184.102539,4197.94873,4196.410156,4236.922852,4194.358887,4204.615234
57,4216.410156,4201.538574,4220.0,4210.256348,4198.974121,4192.307617,4201.025879,4216.410156,4208.205078,4210.256348,4203.589844,4244.615234,4200.512695,4217.436035
58,4217.94873,4202.563965,4220.0,4207.692383,4201.025879,4202.563965,4206.153809,4223.077148,4225.641113,4221.025879,4208.717773,4250.256348,4208.717773,4223.589844
59,4205.128418,4192.820313,4212.820313,4198.974121,4201.025879,4208.205078,4202.563965,4217.436035,4213.846191,4209.230957,4201.025879,4244.102539,4202.05127,4217.94873
60,4200.512695,4186.666504,4204.102539,4200.0,4201.538574,4213.333496,4200.0,4215.897461,4201.025879,4196.410156,4197.94873,4243.589844,4203.589844,4217.94873
61,4200.0,4185.128418,4201.538574,4201.538574,4200.512695,4218.974121,4201.538574,4214.358887,4205.128418,4200.512695,4203.077148,4244.102539,4211.794922,4217.94873
62,4191.794922,4185.128418,4199.487305,4197.94873,4199.487305,4212.307617,4202.05127,4207.179688,4204.102539,4203.589844,4205.128418,4240.0,4204.615234,4207.692383
63,4182.563965,4181.025879,4192.820313,4199.487305,4203.589844,4204.615234,4202.563965,4200.0,4188.717773,4192.820313,4196.410156,4228.205078,4191.282227,4191.282227
64,4172.307617,4171.282227,4183.589844,4196.410156,4205.128418,4209.743652,4202.563965,4194.871582,4174.358887,4176.410156,4175.897461,4207.692383,4177.436035,4180.0
65,4168.205078,4171.794922,4181.025879,4191.794922,4202.05127,4213.333496,4202.563965,4194.358887,4180.512695,4178.461426,4171.282227,4197.436035,4173.846191,4180.0
66,4175.897461,4185.641113,4184.102539,4195.384766,4202.563965,4206.666504,4202.05127,4200.512695,4196.922852,4197.436035,4186.666504,4205.641113,4183.077148,4185.641113
67,4175.384766,4188.205078,4183.077148,4198.461426,4203.077148,4198.461426,4198.974121,4203.077148,4197.436035,4195.384766,4183.077148,4209.230957,4182.563965,4181.538574
68,4167.692383,4181.538574,4181.025879,4195.897461,4199.487305,4200.512695,4195.384766,4200.512695,4190.769043,4181.538574,4170.769043,4202.05127,4171.794922,4175.897461
69,4177.94873,4190.769043,4190.256348,4199.487305,4199.487305,4202.05127,4195.897461,4204.102539,4195.384766,4190.769043,4186.666504,4207.179688,4176.922852,4185.641113
70,4197.94873,4204.615234,4209.743652,4207.179688,4203.589844,4200.512695,4203.589844,4214.871582,4203.589844,4207.692383,4208.717773,4228.205078,4197.436035,4204.615234
71,4204.615234,4202.563965,4216.410156,4204.615234,4204.102539,4204.615234,4213.846191,4216.410156,4203.077148,4204.102539,4206.153809,4239.487305,4204.102539,4211.794922
72,4206.153809,4195.897461,4214.871582,4201.025879,4200.0,4211.794922,4213.846191,4207.179688,4193.846191,4194.871582,4197.94873,4237.94873,4195.897461,4211.282227
73,4218.461426,4205.128418,4224.615234,4209.743652,4199.487305,4206.666504,4207.179688,4204.102539,4190.769043,4202.05127,4208.205078,4246.666504,4203.077148,4222.563965
74,4232.820313,4220.512695,4236.410156,4221.025879,4200.512695,4196.410156,4204.102539,4217.436035,4208.717773,4217.94873,4228.717773,4266.666504,4229.230957,4241.025879
75,4231.282227,4217.94873,4238.461426,4218.974121,4198.974121,4198.461426,4203.589844,4230.769043,4227.692383,4225.128418,4236.410156,4271.794922,4235.897461,4242.05127
76,4214.358887,4201.025879,4229.230957,4205.641113,4197.436035,4206.153809,4206.153809,4233.333496,4218.974121,4215.897461,4222.563965,4257.94873,4217.436035,4222.563965
77,4205.128418,4197.436035,4222.563965,4201.538574,4201.025879,4212.820313,4218.461426,4232.820313,4215.897461,4214.871582,4213.333496,4250.256348,4211.282227,4213.846191
78,4204.615234,4198.974121,4220.512695,4205.128418,4208.717773,4217.436035,4227.692383,4229.230957,4226.153809,4216.410156,4216.410156,4248.717773,4212.820313,4217.94873
79,4192.820313,4188.717773,4214.871582,4203.077148,4214.358887,4215.897461,4221.538574,4222.563965,4207.179688,4202.563965,4213.333496,4236.410156,4201.538574,4207.179688
80,4180.512695,4185.128418,4208.205078,4203.077148,4215.384766,4212.307617,4210.256348,4211.794922,4178.461426,4193.846191,4210.256348,4226.153809,4195.897461,4196.410156
81,4186.153809,4195.897461,4209.743652,4210.256348,4215.897461,4206.153809,4202.05127,4202.563965,4180.0,4198.974121,4211.794922,4229.743652,4206.153809,4205.128418
82,4198.974121,4210.256348,4215.897461,4217.94873,4217.94873,4200.512695,4198.974121,4204.102539,4198.974121,4209.230957,4217.436035,4238.461426,4217.94873,4218.461426
83,4203.077148,4214.871582,4212.820313,4217.94873,4218.461426,4202.05127,4199.487305,4206.153809,4202.563965,4217.94873,4221.538574,4237.436035,4219.487305,4218.974121
84,4200.0,4208.205078,4209.230957,4213.846191,4217.436035,4205.128418,4197.436035,4201.538574,4197.94873,4213.333496,4212.820313,4230.256348,4212.820313,4213.846191
85,4199.487305,4204.615234,4212.307617,4211.794922,4216.410156,4203.589844,4197.436035,4201.025879,4196.922852,4204.615234,4201.538574,4226.666504,4206.153809,4214.871582
86,4206.666504,4213.333496,4216.922852,4215.384766,4214.358887,4201.025879,4200.512695,4208.205078,4198.974121,4209.230957,4204.102539,4231.282227,4209.743652,4224.615234
87,4216.922852,4220.512695,4222.05127,4218.974121,4215.384766,4203.077148,4202.563965,4217.436035,4208.717773,4220.0,4214.358887,4243.589844,4226.666504,4233.846191
88,4218.461426,4220.512695,4224.102539,4216.922852,4212.307617,4202.563965,4201.025879,4224.615234,4217.94873,4221.538574,4220.512695,4248.205078,4233.846191,4235.384766
89,4216.410156,4214.871582,4219.487305,4214.871582,4202.563965,4197.94873,4200.512695,4225.641113,4215.384766,4212.820313,4217.94873,4240.512695,4224.615234,4234.358887
90,4212.820313,4206.666504,4216.410156,4214.871582,4198.461426,4198.974121,4208.717773,4222.563965,4205.128418,4201.025879,4208.717773,4230.256348,4214.871582,4227.179688
91,4205.641113,4208.717773,4216.410156,4213.333496,4202.05127,4204.615234,4220.0,4223.589844,4203.589844,4198.461426,4209.230957,4225.128418,4213.333496,4218.461426
92,4200.512695,4209.230957,4208.205078,4208.205078,4201.538574,4204.615234,4215.897461,4214.871582,4199.487305,4198.974121,4214.358887,4220.0,4216.410156,4215.384766
93,4194.358887,4197.94873,4200.0,4200.0,4198.461426,4198.461426,4200.512695,4199.487305,4184.615234,4186.153809,4203.589844,4210.256348,4212.820313,4212.307617
94,4191.794922,4195.384766,4203.589844,4202.05127,4200.512695,4199.487305,4200.0,4202.563965,4182.563965,4185.641113,4195.897461,4209.743652,4206.666504,4211.794922
95,4195.897461,4202.563965,4204.102539,4206.666504,4202.563965,4205.128418,4206.666504,4215.897461,4194.358887,4198.461426,4200.0,4210.769043,4204.102539,4211.794922
96,4192.820313,4198.461426,4198.461426,4205.128418,4201.025879,4204.102539,4202.05127,4215.384766,4201.025879,4200.512695,4202.05127,4207.692383,4202.05127,4207.692383
97,4185.128418,4195.897461,4199.487305,4204.102539,4200.512695,4201.025879,4197.436035,4213.846191,4204.102539,4200.0,4206.153809,4206.666504,4202.563965,4211.794922
98,4189.743652,4198.974121,4203.077148,4204.102539,4201.538574,4202.05127,4199.487305,4216.922852,4207.179688,4205.641113,4207.692383,4208.717773,4202.563965,4212.307617
99,4200.0,4193.846191,4200.0,4204.615234,4200.0,4202.563965,4200.0,4215.897461,4204.102539,4204.102539,4201.025879,4211.282227,4198.974121,4201.538574
100,4200.512695,4190.256348,4202.05127,4207.179688,4197.94873,4201.538574,4205.641113,4217.436035,4198.974121,4199.487305,4202.563965,4215.384766,4198.974121,4209.230957
101,4200.0,4197.94873,4211.282227,4210.256348,4198.461426,4200.512695,4214.358887,4226.153809,4197.94873,4200.0,4203.589844,4216.922852,4201.025879,4227.692383
102,4207.692383,4200.0,4216.922852,4212.307617,4200.0,4202.05127,4217.436035,4231.282227,4196.922852,4199.487305,4199.487305,4216.410156,4200.512695,4227.692383
103,4217.436035,4200.0,4216.922852,4216.922852,4199.487305,4203.077148,4217.436035,4229.230957,4198.974121,4199.487305,4205.641113,4223.589844,4208.717773,4227.692383
104,4216.922852,4210.769043,4219.487305,4220.0,4199.487305,4203.077148,4217.436035,4223.589844,4200.0,4203.077148,4211.282227,4230.769043,4221.538574,4238.974121
105,4206.666504,4213.846191,4216.410156,4217.436035,4201.025879,4208.205078,4217.436035,4216.922852,4197.94873,4200.512695,4206.666504,4220.512695,4218.461426,4233.846191
106,4198.461426,4202.05127,4204.102539,4214.871582,4202.563965,4208.717773,4212.820313,4217.436035,4205.128418,4197.436035,4203.589844,4205.641113,4208.205078,4213.846191
107,4197.94873,4200.0,4199.487305,4215.384766,4203.077148,4204.615234,4206.153809,4223.589844,4219.487305,4207.692383,4205.128418,4203.589844,4205.641113,4209.743652
108,4201.538574,4207.179688,4206.153809,4218.974121,4205.128418,4210.256348,4202.05127,4223.077148,4225.128418,4217.94873,4206.666504,4207.692383,4208.717773,4214.358887
109,4196.922852,4203.077148,4201.025879,4214.358887,4204.615234,4211.794922,4200.0,4214.871582,4210.256348,4203.077148,4197.436035,4196.410156,4198.974121,4201.025879
110,4183.589844,4194.871582,4186.153809,4205.641113,4200.0,4201.538574,4195.897461,4211.794922,4191.794922,4186.666504,4183.589844,4182.563965,4184.102539,4187.179688
111,4184.615234,4197.94873,4189.230957,4210.256348,4199.487305,4204.615234,4197.436035,4215.897461,4192.307617,4192.820313,4186.666504,4187.179688,4185.641113,4196.410156
112,4195.897461,4205.641113,4200.512695,4220.0,4203.077148,4215.897461,4204.102539,4217.436035,4203.077148,4204.102539,4203.077148,4200.0,4201.025879,4211.794922
113,4200.0,4207.692383,4203.077148,4217.436035,4203.077148,4207.692383,4204.102539,4214.358887,4205.641113,4203.077148,4204.615234,4201.025879,4204.102539,4214.871582
114,4202.05127,4207.692383,4206.153809,4215.384766,4200.0,4202.05127,4201.025879,4214.358887,4194.358887,4198.974121,4193.846191,4197.94873,4195.384766,4213.846191
115,4215.384766,4213.333496,4215.384766,4225.128418,4202.563965,4212.820313,4207.692383,4215.897461,4188.717773,4199.487305,4197.436035,4209.230957,4202.05127,4220.512695
116,4228.205078,4218.974121,4224.615234,4233.846191,4204.615234,4212.820313,4217.436035,4217.94873,4195.897461,4205.128418,4213.846191,4224.102539,4217.436035,4232.307617
117,4230.769043,4215.384766,4229.230957,4232.820313,4198.974121,4197.94873,4213.846191,4223.077148,4197.436035,4204.615234,4218.461426,4223.589844,4217.436035,4235.384766
118,4230.256348,4214.358887,4229.743652,4231.282227,4196.922852,4196.410156,4208.717773,4229.743652,4195.384766,4197.94873,4211.794922,4220.512695,4212.820313,4228.205078
119,4231.794922,4222.563965,4231.794922,4235.384766,4205.641113,4211.282227,4217.436035,4234.871582,4208.717773,4202.05127,4214.358887,4226.153809,4216.922852,4229.230957
120,4231.794922,4222.563965,4232.820313,4235.384766,4213.333496,4216.410156,4222.563965,4237.436035,4221.538574,4212.307617,4218.974121,4225.128418,4217.436035,4229.743652
121,4228.717773,4216.410156,4225.128418,4231.282227,4213.333496,4214.871582,4217.94873,4236.410156,4220.0,4213.846191,4215.897461,4216.922852,4211.794922,4222.05127
122,4223.077148,4216.410156,4218.461426,4233.846191,4215.384766,4226.153809,4217.94873,4234.871582,4217.436035,4212.820313,4215.384766,4212.307617,4210.769043,4217.436035
123,4216.410156,4216.410156,4214.358887,4234.871582,4220.512695,4233.333496,4221.025879,4233.333496,4209.743652,4211.794922,4208.205078,4208.205078,4204.615234,4212.820313
124,4210.256348,4212.820313,4207.692383,4231.794922,4220.0,4222.05127,4214.358887,4229.743652,4196.410156,4203.077148,4193.846191,4198.461426,4194.871582,4200.0
125,4216.922852,4216.922852,4212.820313,4238.461426,4219.487305,4215.384766,4205.641113,4229.230957,4197.436035,4197.436035,4201.538574,4197.94873,4203.077148,4196.922852
126,4224.615234,4223.077148,4219.487305,4246.153809,4220.0,4212.820313,4201.538574,4230.769043,4203.589844,4206.666504,4220.512695,4208.717773,4215.384766,4211.794922
127,4218.974121,4217.94873,4211.794922,4235.897461,4215.897461,4200.512695,4197.436035,4227.692383,4197.436035,4215.897461,4217.436035,4213.333496,4215.897461,4216.410156
