,AF3,F7,F3,FC5,T7,P7,O1,O2,P8,T8,FC6,F4,F8,AF4
0,4218.461426,4232.307617,4213.333496,4216.922852,4217.436035,4215.384766,4197.94873,4212.307617,4214.358887,4213.333496,4233.846191,4235.384766,4219.487305,4227.179688
1,4225.128418,4231.282227,4217.94873,4217.94873,4217.94873,4215.384766,4208.205078,4215.384766,4226.666504,4224.615234,4241.025879,4243.589844,4225.128418,4230.769043
2,4223.589844,4229.230957,4213.846191,4218.974121,4215.897461,4221.025879,4213.846191,4214.871582,4229.743652,4229.743652,4237.436035,4240.512695,4218.974121,4229.230957
3,4214.358887,4226.666504,4210.769043,4215.897461,4215.384766,4218.461426,4210.769043,4211.794922,4217.436035,4220.0,4230.256348,4231.794922,4214.871582,4228.205078
4,4217.436035,4229.230957,4212.307617,4214.871582,4216.410156,4217.94873,4212.307617,4213.846191,4213.846191,4217.436035,4231.282227,4233.846191,4219.487305,4232.820313
5,4230.769043,4234.871582,4216.410156,4220.512695,4218.974121,4222.563965,4214.871582,4215.897461,4222.05127,4222.563965,4237.436035,4242.05127,4223.589844,4236.410156
6,4224.615234,4231.794922,4212.307617,4218.974121,4217.94873,4218.461426,4203.589844,4211.282227,4216.922852,4214.871582,4230.769043,4234.871582,4216.922852,4227.692383
7,4213.846191,4228.717773,4207.179688,4215.897461,4215.897461,4214.358887,4195.897461,4209.743652,4211.794922,4210.256348,4217.436035,4228.205078,4210.256348,4219.487305
8,4226.666504,4236.922852,4217.436035,4223.589844,4217.94873,4223.077148,4209.230957,4219.487305,4230.256348,4228.717773,4225.641113,4245.641113,4218.461426,4231.282227
9,4233.846191,4235.384766,4221.025879,4223.077148,4218.461426,4224.615234,4214.358887,4219.487305,4236.410156,4237.436035,4236.922852,4253.333496,4222.563965,4236.922852
10,4216.922852,4223.589844,4207.692383,4212.820313,4215.384766,4214.358887,4201.025879,4206.666504,4214.358887,4216.410156,4223.589844,4235.897461,4211.794922,4221.025879
11,4211.282227,4224.615234,4203.589844,4212.820313,4213.846191,4212.820313,4202.563965,4205.641113,4205.128418,4204.615234,4209.743652,4229.230957,4208.205078,4218.461426
12,4227.179688,4233.333496,4214.871582,4218.974121,4216.410156,4218.974121,4217.94873,4213.333496,4220.0,4215.897461,4225.641113,4240.512695,4218.974121,4232.307617
13,4236.410156,4233.846191,4220.512695,4218.461426,4218.461426,4216.922852,4215.897461,4212.307617,4224.615234,4220.512695,4240.0,4243.077148,4222.05127,4234.871582
14,4228.717773,4235.897461,4213.846191,4220.512695,4218.461426,4214.871582,4201.025879,4211.282227,4217.436035,4216.410156,4226.666504,4237.94873,4216.922852,4225.641113
15,4215.897461,4233.846191,4204.615234,4216.922852,4220.512695,4217.94873,4197.94873,4214.358887,4218.974121,4214.358887,4214.871582,4233.333496,4213.333496,4215.384766
16,4206.666504,4217.436035,4195.897461,4202.563965,4217.436035,4215.384766,4195.897461,4205.641113,4213.846191,4203.589844,4212.820313,4222.05127,4208.205078,4210.256348
17,4213.846191,4219.487305,4196.922852,4205.128418,4214.871582,4212.307617,4194.358887,4195.897461,4205.128418,4197.94873,4215.384766,4221.538574,4209.743652,4218.974121
18,4232.307617,4247.179688,4211.794922,4227.179688,4224.615234,4217.436035,4208.205078,4210.769043,4222.05127,4214.871582,4230.256348,4238.461426,4227.179688,4235.384766
19,4239.487305,4253.846191,4220.512695,4230.769043,4229.230957,4220.512695,4214.358887,4218.974121,4237.94873,4225.641113,4235.384766,4243.589844,4234.871582,4236.922852
20,4230.256348,4234.358887,4213.846191,4216.410156,4217.94873,4215.897461,4201.538574,4204.615234,4221.025879,4213.846191,4219.487305,4229.743652,4221.538574,4225.641113
21,4230.256348,4230.769043,4213.333496,4216.922852,4214.871582,4215.384766,4197.94873,4206.666504,4212.820313,4216.410156,4220.512695,4228.717773,4218.974121,4226.153809
22,4234.871582,4239.487305,4217.94873,4223.589844,4221.025879,4220.0,4203.589844,4220.512695,4230.769043,4232.820313,4231.282227,4235.897461,4226.153809,4233.333496
23,4222.563965,4231.282227,4207.179688,4215.897461,4215.384766,4217.436035,4197.94873,4213.846191,4226.666504,4222.563965,4216.410156,4226.153809,4217.436035,4221.538574
24,4214.871582,4225.128418,4203.077148,4213.846191,4211.282227,4211.794922,4195.897461,4206.153809,4213.333496,4211.282227,4208.717773,4221.025879,4210.256348,4213.333496
25,4220.0,4226.666504,4212.307617,4213.846191,4215.897461,4211.794922,4201.538574,4213.846191,4217.94873,4217.94873,4218.461426,4229.743652,4213.846191,4220.0
26,4219.487305,4221.025879,4210.256348,4205.641113,4215.384766,4214.358887,4201.538574,4212.307617,4216.410156,4210.256348,4214.358887,4228.717773,4210.256348,4216.410156
27,4217.436035,4219.487305,4204.102539,4206.666504,4215.897461,4216.410156,4201.538574,4203.077148,4206.153809,4196.922852,4211.794922,4222.563965,4210.256348,4212.820313
28,4217.436035,4224.102539,4206.153809,4214.871582,4215.897461,4214.358887,4201.538574,4206.153809,4211.282227,4208.717773,4214.871582,4222.05127,4217.94873,4220.512695
29,4218.461426,4231.794922,4210.769043,4215.897461,4217.436035,4216.410156,4203.589844,4214.871582,4227.692383,4229.230957,4216.922852,4228.205078,4224.615234,4229.230957
30,4230.769043,4243.589844,4217.436035,4217.436035,4226.153809,4226.153809,4214.871582,4219.487305,4240.512695,4238.461426,4227.692383,4240.512695,4235.897461,4240.0
31,4233.333496,4243.077148,4218.974121,4218.974121,4225.128418,4226.666504,4213.333496,4216.410156,4235.897461,4231.794922,4228.717773,4239.487305,4233.846191,4237.94873
32,4217.436035,4229.743652,4211.794922,4213.846191,4216.410156,4217.436035,4201.538574,4209.743652,4217.94873,4213.333496,4213.333496,4223.077148,4216.922852,4223.589844
33,4223.077148,4229.743652,4216.410156,4214.358887,4217.94873,4214.871582,4208.717773,4214.871582,4213.333496,4212.307617,4211.282227,4225.128418,4216.922852,4229.743652
34,4234.871582,4236.922852,4221.538574,4218.974121,4221.538574,4218.974121,4218.974121,4217.436035,4221.025879,4220.512695,4214.871582,4236.922852,4223.077148,4234.358887
35,4221.025879,4231.794922,4211.282227,4214.871582,4214.871582,4211.282227,4206.153809,4205.128418,4216.410156,4211.794922,4205.641113,4226.153809,4212.307617,4214.358887
36,4211.282227,4229.230957,4208.205078,4212.820313,4214.358887,4201.538574,4187.179688,4195.897461,4201.025879,4205.128418,4206.153809,4215.384766,4207.179688,4215.897461
37,4220.512695,4234.871582,4214.358887,4215.384766,4220.512695,4206.666504,4187.179688,4199.487305,4197.94873,4214.871582,4218.461426,4222.563965,4217.436035,4233.333496
38,4218.974121,4230.769043,4211.282227,4213.333496,4218.461426,4214.871582,4197.436035,4203.077148,4210.256348,4218.974121,4216.410156,4223.589844,4218.461426,4225.641113
39,4213.846191,4225.128418,4208.205078,4213.333496,4217.436035,4216.410156,4201.025879,4208.205078,4218.461426,4214.358887,4210.769043,4221.025879,4211.282227,4218.974121
40,4221.025879,4230.256348,4216.922852,4217.94873,4222.563965,4215.897461,4202.563965,4217.436035,4220.0,4215.897461,4211.794922,4223.077148,4214.358887,4229.230957
41,4219.487305,4232.820313,4216.922852,4217.94873,4223.077148,4217.94873,4205.128418,4214.871582,4223.077148,4214.358887,4206.153809,4218.461426,4214.871582,4226.153809
42,4211.282227,4225.128418,4205.641113,4210.769043,4218.461426,4217.436035,4205.128418,4204.615234,4215.897461,4210.256348,4201.025879,4211.794922,4206.153809,4216.410156
43,4213.846191,4226.153809,4203.077148,4209.743652,4218.974121,4215.384766,4202.05127,4201.025879,4200.0,4212.307617,4204.615234,4212.307617,4205.641113,4218.461426
44,4216.410156,4230.769043,4206.153809,4212.307617,4220.512695,4214.358887,4200.0,4202.563965,4199.487305,4216.410156,4208.205078,4215.897461,4214.871582,4222.563965
45,4205.641113,4221.025879,4201.538574,4205.128418,4218.974121,4213.846191,4198.974121,4202.05127,4204.615234,4213.333496,4205.128418,4215.384766,4212.307617,4221.025879
46,4199.487305,4213.333496,4196.922852,4200.0,4216.922852,4214.871582,4196.922852,4202.05127,4200.512695,4203.077148,4200.512695,4211.794922,4200.512695,4215.897461
47,4214.358887,4223.589844,4204.615234,4209.743652,4218.974121,4214.871582,4198.974121,4201.025879,4206.666504,4197.94873,4200.512695,4213.333496,4203.077148,4220.0
48,4232.820313,4235.897461,4218.461426,4220.0,4225.641113,4215.897461,4207.692383,4203.589844,4215.384766,4207.179688,4207.179688,4229.230957,4218.974121,4240.512695
49,4233.846191,4237.436035,4221.538574,4217.94873,4228.717773,4216.410156,4214.871582,4208.205078,4205.641113,4218.974121,4210.769043,4237.94873,4222.563965,4253.333496
50,4221.025879,4231.794922,4217.94873,4213.846191,4226.666504,4216.410156,4214.358887,4207.179688,4200.0,4216.922852,4209.743652,4230.769043,4215.897461,4244.615234
51,4216.410156,4229.743652,4215.384766,4213.333496,4225.128418,4216.410156,4210.769043,4205.128418,4209.230957,4210.256348,4210.769043,4225.641113,4214.871582,4231.794922
52,4225.641113,4232.307617,4216.410156,4215.384766,4224.615234,4216.922852,4209.743652,4211.282227,4216.410156,4220.512695,4213.846191,4228.205078,4218.461426,4233.333496
53,4230.256348,4233.333496,4219.487305,4218.461426,4228.205078,4220.0,4216.410156,4220.512695,4228.205078,4236.410156,4217.94873,4235.897461,4221.025879,4241.025879
54,4220.0,4230.256348,4221.025879,4215.384766,4227.692383,4221.025879,4213.333496,4215.897461,4234.871582,4228.205078,4213.333496,4232.307617,4216.922852,4237.94873
55,4210.256348,4227.179688,4214.871582,4210.256348,4219.487305,4221.025879,4197.94873,4206.153809,4215.897461,4208.205078,4200.0,4218.461426,4205.128418,4226.153809
56,4213.333496,4230.769043,4213.846191,4213.846191,4222.563965,4229.230957,4208.205078,4211.794922,4209.743652,4219.487305,4206.153809,4222.563965,4210.256348,4228.205078
57,4218.974121,4231.794922,4220.0,4219.487305,4236.922852,4238.974121,4235.384766,4223.077148,4229.743652,4245.128418,4220.512695,4238.461426,4227.692383,4246.666504
58,4216.922852,4221.538574,4218.974121,4214.358887,4230.769043,4232.307617,4229.743652,4222.05127,4230.769043,4241.025879,4216.922852,4236.922852,4224.102539,4245.641113
59,4215.384766,4218.974121,4215.897461,4213.846191,4220.0,4218.974121,4211.282227,4214.358887,4216.410156,4229.743652,4214.358887,4230.769043,4218.974121,4232.307617
60,4215.897461,4229.230957,4215.897461,4215.384766,4222.563965,4215.897461,4216.922852,4216.410156,4218.461426,4235.384766,4220.512695,4236.410156,4229.743652,4237.94873
61,4214.871582,4228.205078,4216.410156,4207.179688,4223.077148,4218.974121,4222.563965,4217.94873,4221.025879,4232.820313,4218.974121,4235.897461,4228.717773,4250.256348
62,4214.871582,4216.410156,4215.897461,4205.128418,4222.563965,4223.589844,4214.871582,4214.358887,4214.358887,4223.077148,4216.410156,4230.769043,4219.487305,4242.05127
63,4215.384766,4217.94873,4213.846191,4211.282227,4227.692383,4228.205078,4217.436035,4217.94873,4216.410156,4227.179688,4217.436035,4232.307617,4222.563965,4232.820313
64,4213.846191,4226.153809,4211.282227,4212.307617,4230.769043,4230.769043,4229.230957,4219.487305,4226.666504,4235.384766,4216.410156,4232.307617,4220.512695,4241.025879
65,4213.333496,4221.538574,4211.282227,4208.205078,4226.153809,4228.717773,4228.717773,4213.846191,4228.205078,4231.282227,4213.846191,4228.717773,4215.384766,4242.563965
66,4214.871582,4221.538574,4214.358887,4209.230957,4223.589844,4232.307617,4222.05127,4219.487305,4230.769043,4230.769043,4215.897461,4232.307617,4223.077148,4239.487305
67,4216.922852,4230.769043,4217.436035,4213.846191,4224.615234,4231.282227,4221.538574,4230.256348,4233.846191,4239.487305,4225.128418,4242.05127,4232.307617,4246.153809
68,4218.461426,4233.333496,4218.461426,4216.410156,4220.512695,4217.94873,4221.538574,4223.589844,4226.666504,4242.05127,4228.717773,4243.589844,4234.358887,4251.794922
69,4214.871582,4223.589844,4213.333496,4209.230957,4214.358887,4211.794922,4212.820313,4212.307617,4214.871582,4228.205078,4221.538574,4235.384766,4229.743652,4245.128418
70,4210.256348,4218.461426,4207.692383,4201.025879,4214.871582,4213.846191,4205.128418,4212.820313,4210.256348,4213.333496,4212.307617,4230.256348,4217.94873,4233.846191
71,4211.282227,4221.025879,4211.282227,4207.179688,4219.487305,4212.820313,4207.179688,4213.846191,4213.333496,4218.974121,4204.615234,4229.230957,4214.358887,4232.307617
72,4214.358887,4220.512695,4216.922852,4213.846191,4220.512695,4220.512695,4214.871582,4216.410156,4217.94873,4232.307617,4200.512695,4231.282227,4217.94873,4240.0
73,4216.922852,4223.077148,4218.974121,4214.358887,4221.025879,4229.230957,4223.077148,4216.410156,4221.538574,4232.307617,4204.615234,4237.436035,4216.922852,4249.230957
74,4218.461426,4226.153809,4217.436035,4212.307617,4220.0,4222.05127,4225.641113,4206.153809,4217.94873,4222.05127,4210.256348,4239.487305,4214.871582,4248.717773
75,4219.487305,4224.615234,4218.974121,4214.871582,4218.461426,4222.05127,4227.179688,4204.102539,4215.384766,4222.05127,4213.333496,4237.436035,4220.512695,4249.743652
76,4220.0,4218.974121,4217.94873,4215.384766,4218.974121,4228.717773,4226.666504,4215.384766,4217.94873,4232.307617,4218.974121,4235.384766,4223.589844,4251.794922
77,4211.282227,4213.333496,4207.692383,4205.128418,4217.436035,4223.077148,4221.025879,4217.94873,4221.025879,4232.307617,4213.333496,4230.769043,4216.410156,4240.0
78,4201.025879,4213.333496,4198.974121,4198.461426,4216.410156,4221.538574,4217.94873,4215.384766,4227.179688,4228.717773,4200.0,4229.743652,4212.307617,4229.743652
79,4202.05127,4217.436035,4202.563965,4204.102539,4219.487305,4229.230957,4218.974121,4221.025879,4231.282227,4234.871582,4201.025879,4231.282227,4219.487305,4234.871582
80,4205.641113,4217.436035,4206.153809,4205.128418,4220.0,4224.615234,4220.512695,4218.461426,4220.512695,4234.871582,4207.179688,4224.102539,4218.461426,4231.794922
81,4198.974121,4209.230957,4197.436035,4194.871582,4213.846191,4212.820313,4213.333496,4201.538574,4201.538574,4215.384766,4197.94873,4209.743652,4201.025879,4209.230957
82,4202.05127,4211.794922,4198.461426,4202.563965,4218.461426,4217.436035,4212.307617,4203.077148,4204.102539,4211.282227,4192.820313,4213.333496,4201.025879,4208.717773
83,4220.0,4225.641113,4214.358887,4218.974121,4229.743652,4233.333496,4227.692383,4221.025879,4229.743652,4230.256348,4211.794922,4230.769043,4221.538574,4236.410156
84,4217.436035,4223.589844,4212.307617,4210.256348,4225.128418,4233.333496,4230.769043,4218.974121,4231.794922,4228.717773,4210.769043,4228.717773,4217.436035,4232.307617
85,4198.461426,4211.282227,4196.410156,4193.333496,4212.307617,4215.384766,4211.282227,4198.461426,4203.589844,4209.230957,4184.102539,4209.743652,4195.897461,4204.615234
86,4203.589844,4212.307617,4203.589844,4202.563965,4213.333496,4208.717773,4204.615234,4194.871582,4195.384766,4210.256348,4188.717773,4213.333496,4201.538574,4215.897461
87,4222.563965,4223.077148,4222.563965,4216.410156,4222.05127,4217.94873,4218.974121,4210.256348,4211.282227,4222.05127,4209.230957,4233.846191,4221.025879,4242.563965
88,4218.461426,4220.0,4215.897461,4205.641113,4220.0,4221.025879,4220.0,4212.820313,4213.846191,4216.410156,4200.0,4229.230957,4214.358887,4234.871582
89,4200.512695,4204.615234,4201.025879,4194.358887,4214.358887,4217.436035,4215.384766,4208.205078,4209.230957,4208.717773,4186.153809,4216.410156,4197.436035,4221.538574
90,4200.0,4198.974121,4202.05127,4200.512695,4214.358887,4217.94873,4226.153809,4214.358887,4217.436035,4217.436035,4196.410156,4227.692383,4204.615234,4228.717773
91,4208.717773,4208.717773,4207.179688,4204.615234,4216.410156,4220.0,4232.820313,4217.94873,4221.538574,4221.538574,4202.05127,4236.410156,4216.410156,4232.820313
92,4210.769043,4215.384766,4207.692383,4199.487305,4216.410156,4220.512695,4227.179688,4210.769043,4212.307617,4214.871582,4193.333496,4227.692383,4211.282227,4227.692383
93,4215.897461,4214.871582,4214.871582,4207.179688,4216.922852,4218.974121,4226.666504,4211.794922,4218.974121,4224.102539,4201.538574,4232.820313,4215.384766,4230.256348
94,4223.077148,4219.487305,4221.025879,4220.512695,4219.487305,4215.897461,4226.153809,4220.0,4233.846191,4237.94873,4217.94873,4248.717773,4230.769043,4236.922852
95,4218.461426,4221.538574,4215.384766,4213.846191,4217.436035,4217.436035,4220.0,4216.922852,4223.589844,4227.179688,4210.769043,4241.538574,4224.102539,4232.820313
96,4210.769043,4213.846191,4209.743652,4203.589844,4214.871582,4222.563965,4222.563965,4212.307617,4210.769043,4210.256348,4193.846191,4224.615234,4202.05127,4221.025879
97,4215.384766,4213.333496,4214.358887,4211.794922,4217.94873,4222.563965,4233.333496,4216.922852,4217.94873,4217.436035,4198.461426,4228.717773,4203.589844,4223.077148
98,4220.0,4221.025879,4218.461426,4220.0,4219.487305,4218.461426,4232.307617,4218.461426,4218.461426,4227.179688,4208.717773,4237.94873,4217.94873,4233.846191
99,4215.384766,4214.358887,4213.846191,4210.769043,4216.410156,4217.436035,4219.487305,4212.820313,4207.692383,4216.922852,4203.077148,4232.307617,4212.307617,4229.743652
100,4212.307617,4202.05127,4205.641113,4201.538574,4214.358887,4216.410156,4212.820313,4212.820313,4210.256348,4208.205078,4194.871582,4225.128418,4201.025879,4218.461426
101,4213.846191,4203.077148,4201.025879,4200.512695,4214.358887,4216.922852,4218.461426,4219.487305,4219.487305,4213.333496,4198.461426,4224.615234,4202.563965,4215.384766
102,4214.358887,4212.820313,4203.077148,4201.538574,4215.897461,4228.717773,4228.205078,4222.563965,4228.205078,4218.461426,4207.179688,4225.641113,4210.769043,4217.94873
103,4213.333496,4213.333496,4208.205078,4206.666504,4215.897461,4230.769043,4229.230957,4222.05127,4232.307617,4219.487305,4208.205078,4226.153809,4211.282227,4221.538574
104,4214.871582,4212.307617,4212.820313,4210.769043,4215.897461,4220.0,4225.128418,4220.0,4223.589844,4225.641113,4208.717773,4233.333496,4215.897461,4231.794922
105,4225.641113,4226.153809,4221.538574,4213.846191,4220.0,4223.589844,4230.256348,4217.436035,4215.897461,4234.358887,4219.487305,4247.692383,4228.205078,4245.128418
106,4231.794922,4233.846191,4224.615234,4218.974121,4222.05127,4230.769043,4232.307617,4215.897461,4216.410156,4230.769043,4223.077148,4247.692383,4229.230957,4242.563965
107,4219.487305,4221.538574,4217.436035,4214.358887,4216.410156,4221.538574,4220.0,4213.333496,4214.871582,4220.512695,4205.641113,4232.307617,4214.358887,4229.743652
108,4215.384766,4212.307617,4212.307617,4204.615234,4214.358887,4213.333496,4214.358887,4211.794922,4212.820313,4221.025879,4195.897461,4224.615234,4205.641113,4227.692383
109,4226.153809,4219.487305,4216.410156,4208.717773,4220.0,4225.128418,4227.179688,4216.922852,4223.077148,4226.153809,4208.717773,4230.769043,4213.846191,4234.871582
110,4226.666504,4221.538574,4217.436035,4217.94873,4222.05127,4234.358887,4234.871582,4220.512695,4234.358887,4221.538574,4216.410156,4234.871582,4215.384766,4234.871582
111,4212.820313,4215.384766,4213.333496,4210.256348,4215.897461,4228.717773,4229.743652,4216.922852,4227.179688,4215.897461,4200.0,4228.717773,4204.102539,4224.615234
112,4203.077148,4214.358887,4214.358887,4202.05127,4215.384766,4224.102539,4228.717773,4214.871582,4212.820313,4218.461426,4188.717773,4222.05127,4196.410156,4216.922852
113,4203.077148,4213.846191,4213.846191,4207.692383,4221.025879,4226.153809,4229.230957,4211.794922,4209.230957,4214.358887,4193.846191,4220.0,4197.436035,4216.410156
114,4212.820313,4219.487305,4216.922852,4214.358887,4226.153809,4229.743652,4228.205078,4212.820313,4223.077148,4218.974121,4198.974121,4230.256348,4204.615234,4229.230957
115,4224.102539,4234.358887,4227.692383,4220.512695,4230.256348,4233.846191,4233.333496,4224.102539,4242.05127,4243.589844,4210.256348,4245.128418,4216.922852,4247.179688
116,4218.974121,4237.436035,4228.717773,4217.94873,4228.205078,4230.256348,4229.230957,4227.692383,4240.512695,4247.692383,4223.589844,4244.615234,4222.05127,4249.743652
117,4203.589844,4221.025879,4212.820313,4205.128418,4219.487305,4218.974121,4213.333496,4212.820313,4225.641113,4226.153809,4217.94873,4228.717773,4215.384766,4230.256348
118,4205.128418,4220.512695,4210.256348,4205.641113,4219.487305,4220.0,4216.410156,4209.743652,4234.358887,4225.128418,4212.307617,4230.769043,4220.0,4226.666504
119,4220.0,4243.077148,4227.692383,4220.0,4229.743652,4233.846191,4235.897461,4227.692383,4257.436035,4250.769043,4227.179688,4253.333496,4235.384766,4250.256348
120,4222.05127,4246.153809,4229.743652,4222.05127,4229.743652,4233.333496,4238.974121,4229.230957,4253.846191,4254.871582,4232.820313,4257.94873,4237.436035,4251.282227
121,4214.871582,4231.794922,4221.025879,4215.897461,4219.487305,4224.615234,4229.743652,4223.077148,4236.922852,4240.0,4223.077148,4245.128418,4229.743652,4234.358887
122,4218.461426,4232.820313,4225.128418,4218.974121,4217.436035,4226.153809,4226.153809,4228.717773,4245.641113,4245.128418,4226.666504,4245.641113,4229.743652,4240.512695
123,4220.0,4238.461426,4225.641113,4218.461426,4219.487305,4223.589844,4222.05127,4226.153809,4253.846191,4249.743652,4231.282227,4248.205078,4229.743652,4245.128418
124,4213.333496,4233.333496,4216.410156,4210.256348,4218.461426,4215.384766,4214.358887,4217.436035,4235.384766,4231.794922,4222.563965,4236.922852,4223.077148,4232.820313
125,4210.769043,4228.717773,4213.846191,4208.717773,4214.358887,4213.333496,4205.128418,4211.794922,4214.871582,4218.974121,4213.333496,4229.230957,4217.436035,4228.205078
126,4213.846191,4233.333496,4216.922852,4213.333496,4216.410156,4215.384766,4202.05127,4204.102539,4212.307617,4226.153809,4214.358887,4236.922852,4216.410156,4232.820313
127,4218.461426,4244.615234,4219.487305,4217.436035,4225.128418,4218.974121,4215.897461,4206.153809,4222.563965,4232.307617,4225.641113,4247.692383,4227.179688,4238.974121
