,AF3,F7,F3,FC5,T7,P7,O1,O2,P8,T8,FC6,F4,F8,AF4
0,4231.282227,4243.589844,4204.102539,4223.077148,4215.384766,4213.846191,4204.615234,4200.512695,4205.128418,4216.922852,4078.974365,4225.641113,4212.307617,4205.641113
1,4250.256348,4268.717773,4222.563965,4243.077148,4230.256348,4216.922852,4206.153809,4204.615234,4216.410156,4229.743652,4093.846191,4235.384766,4230.256348,4225.128418
2,4265.128418,4283.589844,4236.410156,4256.922852,4238.974121,4211.794922,4202.05127,4207.692383,4220.512695,4233.846191,4099.487305,4239.487305,4236.410156,4237.94873
3,4266.153809,4285.128418,4234.358887,4266.153809,4246.666504,4212.307617,4205.641113,4211.282227,4224.615234,4234.871582,4098.974121,4241.538574,4234.358887,4235.897461
4,4256.410156,4285.128418,4229.743652,4267.692383,4252.307617,4216.922852,4218.461426,4218.461426,4238.974121,4234.871582,4096.922852,4239.487305,4232.307617,4231.794922
5,4252.307617,4283.077148,4230.256348,4261.538574,4247.692383,4221.025879,4224.102539,4226.666504,4250.256348,4234.871582,4097.436035,4236.410156,4229.743652,4229.743652
6,4252.820313,4273.846191,4223.589844,4252.307617,4238.461426,4224.102539,4223.589844,4229.230957,4247.179688,4240.0,4099.487305,4232.307617,4222.563965,4223.077148
7,4232.307617,4256.410156,4207.179688,4235.384766,4230.256348,4222.563965,4218.974121,4221.025879,4229.743652,4229.230957,4086.153809,4219.487305,4205.641113,4204.102539
8,4199.487305,4233.333496,4188.205078,4213.333496,4218.974121,4214.358887,4207.692383,4201.538574,4202.563965,4203.589844,4059.487061,4194.871582,4182.563965,4179.487305
9,4180.512695,4208.717773,4168.717773,4194.358887,4202.563965,4205.128418,4191.794922,4180.0,4179.487305,4182.05127,4038.974365,4176.410156,4162.05127,4160.0
10,4169.743652,4195.384766,4151.282227,4177.436035,4194.358887,4199.487305,4176.922852,4162.05127,4163.077148,4171.282227,4031.281982,4171.794922,4152.820313,4149.230957
11,4163.589844,4195.897461,4145.128418,4170.256348,4197.436035,4193.333496,4166.666504,4149.230957,4152.307617,4165.128418,4033.333252,4172.820313,4156.922852,4148.205078
12,4163.077148,4195.384766,4147.179688,4173.846191,4197.436035,4185.128418,4161.538574,4145.128418,4151.794922,4163.077148,4042.564209,4173.333496,4162.563965,4150.769043
13,4171.282227,4194.871582,4150.256348,4177.436035,4193.333496,4181.538574,4162.563965,4154.358887,4165.128418,4171.282227,4053.333252,4180.0,4168.717773,4156.410156
14,4188.717773,4210.256348,4162.563965,4187.692383,4201.025879,4192.307617,4168.717773,4171.282227,4185.641113,4189.743652,4065.128174,4195.384766,4184.615234,4172.307617
15,4206.153809,4231.282227,4180.0,4208.717773,4213.846191,4196.922852,4180.512695,4185.641113,4198.974121,4209.743652,4084.615479,4211.794922,4204.102539,4193.333496
16,4211.282227,4232.307617,4184.615234,4217.436035,4212.307617,4188.717773,4190.256348,4195.897461,4203.077148,4215.384766,4100.0,4222.05127,4212.820313,4202.05127
17,4221.025879,4236.410156,4190.769043,4222.563965,4215.384766,4196.922852,4203.589844,4214.871582,4208.717773,4221.538574,4107.179688,4229.230957,4219.487305,4208.205078
18,4247.179688,4263.077148,4215.897461,4249.230957,4239.487305,4224.102539,4233.333496,4240.512695,4229.230957,4240.512695,4124.102539,4244.102539,4237.436035,4226.666504
19,4258.461426,4275.384766,4230.769043,4270.769043,4255.384766,4242.563965,4256.410156,4258.974121,4250.256348,4254.358887,4141.538574,4254.358887,4249.743652,4240.0
20,4241.025879,4268.717773,4227.179688,4265.641113,4252.820313,4240.512695,4262.05127,4264.102539,4251.794922,4255.384766,4139.487305,4253.333496,4244.615234,4235.384766
21,4222.563965,4264.615234,4221.025879,4253.333496,4250.769043,4233.846191,4255.897461,4253.333496,4235.897461,4245.128418,4127.692383,4247.179688,4230.256348,4223.589844
22,4215.897461,4257.94873,4214.358887,4248.205078,4249.743652,4230.256348,4245.128418,4240.0,4220.0,4229.230957,4117.94873,4236.922852,4214.358887,4213.846191
23,4210.769043,4252.307617,4207.692383,4247.692383,4247.179688,4231.794922,4240.512695,4232.820313,4215.897461,4216.922852,4110.256348,4224.102539,4206.153809,4206.153809
24,4205.641113,4257.436035,4207.692383,4248.717773,4249.743652,4234.358887,4246.666504,4231.794922,4212.307617,4215.897461,4106.666504,4219.487305,4206.666504,4204.102539
25,4203.077148,4255.897461,4201.025879,4245.641113,4248.205078,4235.384766,4245.641113,4229.743652,4202.05127,4217.94873,4106.666504,4213.333496,4205.128418,4202.05127
26,4193.333496,4243.589844,4188.205078,4234.871582,4238.461426,4233.333496,4237.94873,4224.102539,4198.461426,4211.794922,4103.589844,4200.512695,4195.384766,4193.333496
27,4180.512695,4234.871582,4183.589844,4222.563965,4229.743652,4228.717773,4230.769043,4216.922852,4198.461426,4206.666504,4098.461426,4194.358887,4189.230957,4183.589844
28,4169.743652,4222.05127,4172.307617,4206.666504,4218.974121,4215.897461,4218.974121,4205.128418,4189.230957,4201.538574,4089.230713,4187.692383,4185.641113,4172.820313
29,4161.538574,4210.769043,4155.897461,4193.846191,4210.769043,4202.563965,4207.179688,4193.333496,4180.512695,4196.410156,4078.974365,4180.0,4177.94873,4163.589844
30,4166.153809,4215.384766,4167.179688,4198.461426,4211.282227,4207.692383,4213.333496,4191.794922,4184.102539,4196.410156,4083.589844,4189.230957,4180.512695,4170.769043
31,4180.0,4226.666504,4192.307617,4212.307617,4214.871582,4216.922852,4226.666504,4198.974121,4186.666504,4199.487305,4095.897461,4206.153809,4191.282227,4190.769043
32,4193.846191,4235.897461,4201.538574,4222.563965,4220.512695,4215.897461,4241.538574,4206.153809,4188.717773,4204.102539,4105.128418,4214.871582,4198.974121,4201.538574
33,4205.128418,4245.641113,4204.615234,4232.307617,4229.743652,4221.025879,4257.436035,4218.461426,4198.461426,4212.820313,4113.846191,4221.538574,4207.692383,4208.717773
34,4217.94873,4258.461426,4215.384766,4247.692383,4241.025879,4231.794922,4267.179688,4235.384766,4213.333496,4227.179688,4129.743652,4235.384766,4223.589844,4224.102539
35,4231.794922,4272.307617,4228.717773,4261.538574,4257.436035,4233.846191,4276.410156,4251.282227,4229.743652,4243.077148,4150.256348,4245.641113,4235.897461,4236.922852
36,4235.897461,4276.922852,4229.230957,4261.538574,4265.128418,4232.307617,4284.102539,4261.538574,4237.94873,4252.307617,4156.410156,4241.025879,4238.974121,4234.871582
37,4222.05127,4264.615234,4214.358887,4250.256348,4253.846191,4236.922852,4277.94873,4260.0,4233.846191,4247.179688,4147.179688,4227.692383,4231.794922,4225.128418
38,4206.666504,4251.794922,4197.94873,4241.538574,4247.179688,4236.410156,4262.05127,4250.769043,4229.743652,4238.461426,4135.897461,4217.436035,4220.0,4215.384766
39,4201.538574,4249.230957,4194.358887,4239.487305,4250.769043,4230.256348,4252.820313,4244.615234,4227.692383,4235.384766,4128.205078,4210.769043,4211.794922,4202.05127
40,4196.410156,4239.487305,4190.256348,4230.769043,4245.641113,4229.230957,4245.641113,4234.358887,4216.922852,4229.230957,4122.563965,4203.077148,4206.666504,4190.256348
41,4181.025879,4217.94873,4178.974121,4218.461426,4233.333496,4228.205078,4234.871582,4215.897461,4199.487305,4211.282227,4113.846191,4194.358887,4195.897461,4181.538574
42,4169.230957,4204.102539,4170.769043,4211.282227,4225.128418,4221.025879,4228.205078,4200.512695,4183.589844,4190.256348,4104.615234,4187.179688,4183.589844,4172.307617
43,4175.384766,4202.563965,4173.333496,4210.769043,4219.487305,4217.94873,4229.230957,4195.897461,4173.846191,4183.077148,4102.05127,4192.307617,4181.538574,4173.846191
44,4185.128418,4201.025879,4179.487305,4214.871582,4214.871582,4214.871582,4226.666504,4192.307617,4168.205078,4184.102539,4107.179688,4197.94873,4185.128418,4183.589844
45,4185.641113,4197.436035,4183.589844,4216.922852,4213.333496,4205.641113,4219.487305,4187.692383,4165.128418,4180.512695,4106.666504,4192.820313,4185.641113,4185.641113
46,4192.307617,4197.94873,4188.717773,4223.077148,4214.871582,4203.077148,4221.025879,4188.205078,4170.769043,4181.538574,4109.230957,4195.384766,4185.128418,4188.205078
47,4206.153809,4203.589844,4199.487305,4233.333496,4217.436035,4208.205078,4233.846191,4194.871582,4187.179688,4193.846191,4126.666504,4210.769043,4195.384766,4203.077148
48,4206.153809,4205.128418,4206.666504,4235.897461,4216.922852,4204.102539,4235.384766,4202.05127,4200.0,4203.589844,4140.512695,4215.384766,4210.256348,4213.333496
49,4197.94873,4198.974121,4203.589844,4230.769043,4213.846191,4198.974121,4228.205078,4205.128418,4201.538574,4201.025879,4140.0,4209.743652,4211.794922,4207.692383
50,4200.0,4198.974121,4202.563965,4229.743652,4214.358887,4207.179688,4237.436035,4209.743652,4208.717773,4202.563965,4140.0,4210.769043,4209.230957,4204.102539
51,4200.512695,4197.94873,4204.615234,4231.794922,4218.974121,4215.897461,4250.256348,4214.358887,4222.05127,4207.692383,4143.589844,4214.871582,4209.743652,4204.102539
52,4189.230957,4187.692383,4195.897461,4224.615234,4220.0,4214.358887,4240.0,4211.794922,4218.461426,4202.05127,4132.307617,4209.230957,4196.410156,4196.922852
53,4181.025879,4180.0,4185.641113,4215.384766,4214.358887,4209.743652,4228.205078,4205.128418,4204.102539,4189.230957,4120.0,4200.512695,4183.077148,4185.641113
54,4183.589844,4182.563965,4190.769043,4217.94873,4212.307617,4212.820313,4233.846191,4207.692383,4200.512695,4190.256348,4125.641113,4204.102539,4190.256348,4183.589844
55,4185.641113,4185.641113,4195.897461,4221.025879,4216.922852,4211.282227,4228.205078,4206.666504,4196.922852,4192.307617,4130.769043,4209.743652,4193.333496,4187.179688
56,4182.05127,4185.128418,4192.307617,4216.922852,4215.897461,4201.538574,4207.692383,4192.820313,4182.05127,4178.974121,4128.717773,4209.743652,4182.563965,4183.589844
57,4183.077148,4187.179688,4193.333496,4220.0,4211.794922,4206.153809,4207.692383,4188.205078,4176.922852,4172.307617,4132.820313,4208.205078,4187.179688,4183.589844
58,4187.692383,4188.205078,4202.563965,4229.230957,4213.846191,4221.538574,4228.205078,4200.0,4189.743652,4183.077148,4143.077148,4214.358887,4199.487305,4192.820313
59,4194.358887,4191.794922,4208.205078,4229.230957,4215.384766,4226.153809,4240.0,4206.666504,4197.436035,4188.717773,4140.512695,4216.922852,4200.0,4198.974121
60,4196.410156,4195.384766,4205.128418,4224.102539,4209.743652,4220.0,4240.512695,4207.179688,4195.897461,4189.230957,4124.615234,4211.794922,4196.922852,4197.94873
61,4197.94873,4197.94873,4205.641113,4227.692383,4208.717773,4217.94873,4244.615234,4216.410156,4204.615234,4198.974121,4115.384766,4212.820313,4206.153809,4203.077148
62,4210.256348,4211.794922,4216.922852,4242.563965,4214.358887,4219.487305,4253.333496,4225.128418,4223.077148,4212.820313,4125.128418,4230.769043,4223.589844,4218.461426
63,4229.230957,4231.794922,4230.256348,4255.897461,4219.487305,4217.436035,4255.897461,4225.128418,4233.846191,4222.563965,4143.589844,4249.743652,4239.487305,4233.333496
64,4247.179688,4246.666504,4245.128418,4269.230957,4227.692383,4216.410156,4257.94873,4233.846191,4243.077148,4234.871582,4162.05127,4259.487305,4255.384766,4248.717773
65,4252.820313,4251.794922,4252.820313,4276.922852,4236.922852,4216.922852,4259.487305,4238.974121,4251.282227,4241.538574,4169.743652,4260.512695,4265.128418,4257.436035
66,4243.589844,4249.230957,4245.641113,4272.307617,4236.410156,4215.384766,4249.743652,4225.128418,4239.487305,4229.230957,4161.538574,4251.282227,4255.897461,4247.692383
67,4234.871582,4241.025879,4237.94873,4262.563965,4233.846191,4214.871582,4240.0,4212.820313,4217.436035,4209.230957,4148.717773,4241.538574,4239.487305,4233.333496
68,4222.563965,4227.179688,4229.230957,4252.820313,4232.307617,4215.897461,4234.871582,4201.538574,4198.461426,4190.256348,4132.307617,4230.256348,4221.538574,4219.487305
69,4202.563965,4216.922852,4210.769043,4236.922852,4221.025879,4216.922852,4221.025879,4181.025879,4178.461426,4172.820313,4113.333496,4207.692383,4200.512695,4198.461426
70,4191.282227,4210.769043,4196.922852,4228.205078,4215.384766,4217.436035,4210.769043,4165.128418,4164.615234,4159.487305,4105.641113,4193.333496,4192.820313,4181.538574
71,4188.717773,4204.102539,4195.897461,4226.153809,4214.358887,4218.974121,4216.922852,4162.05127,4161.538574,4152.820313,4105.641113,4192.820313,4193.846191,4180.0
72,4185.128418,4196.410156,4192.307617,4219.487305,4205.641113,4224.615234,4227.692383,4161.025879,4157.94873,4151.282227,4107.692383,4191.282227,4189.743652,4182.563965
73,4188.717773,4198.974121,4191.794922,4219.487305,4205.128418,4230.769043,4239.487305,4172.820313,4164.615234,4159.487305,4115.897461,4198.461426,4190.769043,4182.05127
74,4200.512695,4210.256348,4206.153809,4232.820313,4217.436035,4231.794922,4256.410156,4197.436035,4188.717773,4178.461426,4131.794922,4216.922852,4202.563965,4191.794922
75,4208.717773,4217.436035,4218.974121,4241.538574,4218.461426,4231.282227,4266.153809,4214.358887,4211.794922,4196.922852,4147.179688,4230.256348,4214.358887,4207.179688
76,4216.410156,4223.589844,4222.05127,4245.641113,4216.410156,4230.769043,4265.641113,4224.615234,4223.589844,4210.769043,4157.94873,4237.436035,4226.666504,4216.410156
77,4226.666504,4230.769043,4230.769043,4254.358887,4225.641113,4222.05127,4261.538574,4234.871582,4232.820313,4222.563965,4165.128418,4247.692383,4234.871582,4223.589844
78,4238.974121,4239.487305,4237.94873,4263.077148,4232.307617,4215.897461,4257.94873,4243.077148,4246.153809,4232.307617,4171.282227,4255.384766,4235.384766,4231.794922
79,4247.692383,4248.717773,4239.487305,4266.153809,4231.282227,4217.94873,4255.384766,4245.641113,4252.820313,4236.922852,4181.025879,4260.0,4241.025879,4239.487305
80,4249.743652,4251.794922,4240.512695,4270.256348,4229.743652,4210.769043,4243.589844,4236.410156,4243.589844,4234.358887,4188.717773,4264.615234,4249.743652,4243.589844
81,4251.282227,4252.307617,4246.153809,4276.922852,4230.769043,4199.487305,4231.282227,4227.179688,4232.820313,4230.256348,4190.769043,4266.666504,4251.794922,4247.179688
82,4251.794922,4251.794922,4246.666504,4276.410156,4232.820313,4198.974121,4230.769043,4225.128418,4232.307617,4226.153809,4191.282227,4261.025879,4249.230957,4246.153809
83,4245.128418,4245.641113,4241.538574,4264.615234,4226.153809,4203.077148,4234.358887,4224.615234,4233.846191,4223.589844,4192.307617,4256.922852,4252.307617,4240.0
84,4231.794922,4229.743652,4235.897461,4251.282227,4216.410156,4201.538574,4233.333496,4222.563965,4233.333496,4222.05127,4192.307617,4253.846191,4252.307617,4233.333496
85,4218.974121,4213.846191,4224.615234,4240.512695,4213.846191,4201.538574,4229.743652,4218.974121,4230.256348,4216.922852,4186.666504,4243.077148,4242.563965,4223.077148
86,4205.641113,4201.538574,4205.128418,4228.717773,4211.282227,4208.717773,4226.666504,4211.282227,4217.436035,4203.589844,4172.820313,4228.717773,4227.179688,4206.153809
87,4188.205078,4190.256348,4191.282227,4215.897461,4202.563965,4215.384766,4229.743652,4204.615234,4204.102539,4188.205078,4156.410156,4216.922852,4207.692383,4184.102539
88,4176.922852,4181.025879,4185.641113,4209.230957,4198.461426,4214.358887,4234.358887,4204.615234,4200.512695,4182.05127,4150.256348,4206.153809,4194.358887,4168.717773
89,4177.94873,4182.563965,4182.563965,4210.769043,4199.487305,4215.897461,4229.230957,4206.153809,4201.025879,4185.128418,4152.307617,4202.563965,4196.922852,4168.205078
90,4181.025879,4186.666504,4186.153809,4213.333496,4200.512695,4214.871582,4222.05127,4203.077148,4197.94873,4187.179688,4154.871582,4208.717773,4201.025879,4176.410156
91,4180.512695,4184.615234,4195.897461,4210.256348,4196.922852,4203.589844,4219.487305,4201.538574,4196.410156,4186.153809,4158.974121,4214.358887,4199.487305,4178.974121
92,4189.230957,4190.769043,4205.641113,4212.820313,4197.94873,4202.05127,4218.974121,4204.102539,4200.0,4193.333496,4170.256348,4221.538574,4208.205078,4186.153809
93,4204.615234,4210.256348,4215.384766,4226.666504,4209.743652,4210.256348,4221.538574,4204.102539,4202.563965,4203.589844,4184.102539,4229.743652,4218.974121,4203.589844
94,4206.153809,4217.436035,4214.358887,4232.820313,4211.794922,4206.153809,4220.512695,4202.05127,4203.077148,4204.615234,4186.666504,4229.230957,4221.025879,4206.666504
95,4199.487305,4211.794922,4208.205078,4226.666504,4202.05127,4201.538574,4214.358887,4202.05127,4208.205078,4206.666504,4185.641113,4224.615234,4226.153809,4198.974121
96,4203.077148,4213.333496,4214.871582,4226.666504,4204.615234,4210.769043,4213.333496,4205.641113,4217.436035,4215.384766,4196.410156,4231.282227,4234.358887,4207.179688
97,4215.384766,4220.512695,4220.0,4233.333496,4214.358887,4216.922852,4220.512695,4213.846191,4222.05127,4220.512695,4206.666504,4239.487305,4236.922852,4216.410156
98,4214.871582,4219.487305,4212.820313,4233.333496,4213.333496,4211.282227,4221.538574,4216.922852,4218.974121,4212.820313,4203.077148,4238.974121,4230.769043,4208.717773
99,4205.128418,4215.897461,4204.615234,4229.743652,4211.282227,4206.666504,4212.820313,4209.230957,4214.358887,4202.05127,4192.307617,4232.820313,4220.512695,4199.487305
100,4209.743652,4225.128418,4205.641113,4233.333496,4220.0,4211.282227,4215.897461,4210.256348,4213.333496,4200.512695,4185.128418,4229.743652,4215.384766,4199.487305
101,4218.974121,4234.358887,4211.282227,4236.922852,4226.666504,4215.897461,4226.666504,4217.436035,4215.384766,4204.615234,4185.641113,4231.794922,4218.461426,4200.512695
102,4211.282227,4224.102539,4212.307617,4233.846191,4222.05127,4208.205078,4223.589844,4211.794922,4213.333496,4204.615234,4191.794922,4230.769043,4216.410156,4194.358887
103,4203.077148,4216.410156,4212.820313,4227.179688,4217.94873,4201.538574,4213.846191,4210.256348,4214.871582,4205.641113,4199.487305,4230.769043,4216.410156,4190.256348
104,4206.153809,4218.974121,4215.384766,4223.077148,4214.358887,4203.589844,4206.153809,4212.307617,4219.487305,4208.205078,4201.538574,4234.358887,4218.461426,4192.307617
105,4199.487305,4208.205078,4208.205078,4214.871582,4204.102539,4200.512695,4195.897461,4198.974121,4209.743652,4201.025879,4191.282227,4228.717773,4205.641113,4184.615234
106,4186.153809,4194.871582,4195.897461,4204.102539,4197.94873,4196.410156,4188.205078,4186.666504,4203.589844,4194.358887,4181.025879,4213.333496,4192.307617,4168.717773
107,4183.589844,4197.94873,4196.410156,4200.512695,4202.563965,4198.461426,4188.205078,4191.282227,4214.358887,4200.512695,4185.641113,4210.256348,4197.436035,4169.230957
108,4182.563965,4197.94873,4195.897461,4199.487305,4198.461426,4200.512695,4184.102539,4192.820313,4213.333496,4203.589844,4190.769043,4212.820313,4203.077148,4174.871582
109,4176.922852,4189.743652,4188.717773,4194.871582,4188.205078,4196.410156,4179.487305,4182.05127,4197.436035,4193.846191,4190.256348,4206.666504,4193.846191,4165.128418
110,4181.025879,4194.871582,4194.358887,4200.0,4195.384766,4196.922852,4189.743652,4178.461426,4192.820313,4192.307617,4197.94873,4212.307617,4195.897461,4168.717773
111,4195.897461,4209.743652,4211.794922,4213.846191,4209.230957,4207.692383,4206.666504,4188.205078,4192.307617,4200.512695,4213.846191,4233.846191,4211.794922,4191.794922
112,4204.102539,4217.94873,4213.846191,4217.436035,4212.820313,4215.384766,4220.512695,4195.897461,4183.077148,4200.0,4225.641113,4243.589844,4219.487305,4202.05127
113,4208.205078,4216.410156,4211.282227,4216.922852,4214.871582,4218.974121,4231.794922,4199.487305,4181.538574,4194.871582,4231.794922,4245.128418,4221.025879,4200.512695
114,4217.436035,4217.94873,4221.538574,4227.179688,4218.974121,4226.153809,4238.974121,4200.0,4188.717773,4198.461426,4235.384766,4252.820313,4229.230957,4209.743652
115,4223.589844,4223.589844,4231.282227,4233.846191,4217.94873,4234.871582,4241.538574,4197.436035,4190.256348,4202.05127,4237.94873,4261.538574,4237.94873,4222.563965
116,4221.025879,4222.05127,4224.102539,4227.692383,4217.436035,4232.307617,4238.974121,4193.846191,4189.230957,4200.512695,4233.333496,4257.436035,4230.769043,4220.0
117,4214.358887,4213.333496,4212.820313,4220.512695,4215.384766,4223.077148,4233.333496,4194.358887,4194.871582,4201.538574,4223.589844,4244.102539,4220.512695,4205.641113
118,4198.461426,4204.615234,4201.538574,4211.794922,4205.641113,4219.487305,4220.512695,4191.282227,4201.025879,4201.025879,4213.846191,4227.179688,4211.794922,4189.230957
119,4182.05127,4195.384766,4188.717773,4198.974121,4199.487305,4220.0,4210.769043,4188.205078,4199.487305,4197.94873,4203.589844,4211.794922,4201.025879,4180.0
120,4177.94873,4191.794922,4186.153809,4195.384766,4201.538574,4219.487305,4209.230957,4190.769043,4200.0,4202.05127,4201.538574,4207.692383,4202.05127,4178.974121
121,4182.05127,4200.512695,4193.333496,4204.615234,4204.615234,4217.436035,4206.153809,4192.307617,4211.282227,4213.846191,4214.871582,4214.358887,4214.871582,4183.077148
122,4190.256348,4213.333496,4197.94873,4213.333496,4208.205078,4217.94873,4205.128418,4192.820313,4220.0,4223.077148,4230.256348,4220.512695,4220.512695,4189.743652
123,4197.94873,4221.538574,4201.538574,4218.974121,4213.846191,4213.333496,4206.666504,4194.871582,4218.974121,4220.512695,4230.769043,4220.512695,4218.974121,4193.333496
124,4208.205078,4231.282227,4211.282227,4228.717773,4215.384766,4201.538574,4203.589844,4194.358887,4214.871582,4216.410156,4229.230957,4224.102539,4223.077148,4195.897461
125,4224.615234,4245.128418,4225.641113,4241.538574,4215.897461,4201.538574,4204.102539,4196.922852,4216.922852,4225.128418,4238.974121,4236.410156,4232.307617,4208.717773
126,4238.461426,4254.358887,4238.461426,4250.769043,4224.615234,4213.333496,4216.922852,4208.717773,4222.05127,4231.794922,4250.769043,4249.743652,4243.077148,4229.230957
127,4238.974121,4250.769043,4243.077148,4250.256348,4228.717773,4213.846191,4225.641113,4212.307617,4214.358887,4223.077148,4252.820313,4256.922852,4243.589844,4233.846191
