,AF3,F7,F3,FC5,T7,P7,O1,O2,P8,T8,FC6,F4,F8,AF4
0,1.0385058548307728,0.8284993843905916,1.327985175206893,0.9710315121112837,0.9511619062926752,0.9710502952846208,0.9748376663230778,1.443657628838925,0.6519430003416379,0.8345370961007356,1.26880271873208,1.3925960392644674,1.035774724814494,1.1809005624624658
1,-3.0941130031053983,-3.4450270135529055,-0.8906601389816455,-1.8662378320087276,-0.7043747160552363,1.4178122281874805,4.46974985506418,-4.364947647165409,-8.577191287110134,-7.635760427813748,-4.160646839492786,-2.5679847619436793,-3.2146657307429978,-3.9664740451616036
2,-6.597811336362184,-7.103345972428737,-2.9825356801042933,-4.492954516958796,-2.276840708188732,1.3841908540412478,6.59862982321794,-9.174927076158207,-16.191856077863765,-14.692614855196652,-8.84648177332318,-6.015811107896834,-7.009872992685172,-8.419452282050736
3,-8.780781589473676,-9.462597970496864,-4.593322461435171,-6.5171064918225285,-3.4823890682510363,0.7371379974310381,6.578737274384228,-11.966329647038286,-20.708155073332843,-18.99242031570901,-11.913247973918564,-8.26908214077986,-9.697147553056196,-11.342504798911106
4,-9.292390493364014,-10.109235245211583,-5.485671822612304,-7.629067825790126,-4.112008936638124,-0.4241376325617686,4.284487090301883,-12.214202440904977,-21.24391264572408,-19.725433625493697,-12.813411977997742,-8.929654411942506,-10.797349916474397,-12.223169026727941
5,-8.179751403092585,-8.974997029405605,-5.5734358242478645,-7.643616953631331,-4.070213912249503,-1.7783263113069283,0.3053848341371243,-9.991105125574926,-17.692003117694256,-16.76955929975952,-11.427524751625533,-7.961336056463834,-10.09413146955834,-10.968058315347657
6,-5.824225034479957,-6.330133056624922,-4.9074942913351585,-6.522332459737203,-3.38363470585515,-2.8763780966842103,-4.212800931554852,-5.913803674298952,-10.743039780909413,-10.708158924802545,-8.069173793094462,-5.6692312935353755,-7.678061016416336,-7.895266495229374
7,-2.7893010971452967,-2.7021723007020904,-3.6263891309899483,-4.376448177388098,-2.181345200916262,-3.2916268546395524,-7.899338540707726,-0.9583984520450393,-1.752797074161809,-2.710194976290175,-3.3991413999057616,-2.5919847467516526,-3.9349763008985192,-3.6322093486604454
8,0.35931120914774284,1.2525737688571532,-1.8982730202610318,-1.4540798254642904,-0.6574401206970425,-2.7755285191850216,-9.565758959803233,3.797130708198669,7.521267320822667,5.701825569567843,1.725008485324679,0.6545392144948765,0.5203967398635303,1.0452873229936066
9,3.194948394105771,4.887095096290922,0.1179330005688042,1.883294610309226,0.9698516274827707,-1.3636767892397352,-8.568362972949867,7.429320368387603,15.265383803701363,12.949306267613377,6.4243404109957165,3.5305853150456343,4.95253776213765,5.3828271983507685
10,5.486070478147437,7.675570537372326,2.275415209875344,5.192163145074913,2.490316624549251,0.6091079694283338,-5.017116985654231,9.358813317711514,19.971118946854954,17.701723372505658,9.95762187118622,5.676198807364668,8.632940527560852,8.779385656823354
11,7.157975858080997,9.276270903136565,4.408664696531152,7.986609508993346,3.719431940589573,2.596176509118508,0.23332696490678131,9.432989918139322,20.741881220214797,19.12807888125445,11.832107841141745,6.9394297989264615,10.962132082698577,10.852833018654797
12,8.191092612185981,9.541732713139305,6.290251280443915,9.789322804447467,4.50362511410564,4.004924563382841,5.810348292661127,7.89512691659326,17.479824899474416,17.04663840315844,11.850882146217113,7.332240417003545,11.563241806891465,11.437055108721273
13,8.513764116445177,8.490508712815252,7.607052522373209,10.196572936239466,4.721011939226919,4.38803291274372,10.202951481952146,5.264545139009647,10.909068430129247,11.943892439662273,10.100156721466766,6.944011484143849,10.332613432068097,10.533514399913868
14,7.950263581249524,6.265310562907995,7.984737973522136,8.95508535880078,4.28706741182635,3.5952304817254404,12.18412390275928,2.172183677326468,2.4232330748427877,4.8599902689628935,6.894454509954571,5.857102901094139,7.44377292065821,8.253914107605384
15,6.2615412649251505,3.101610863428765,7.0722276371676225,6.040717693703778,3.1713823669914136,1.8316030270111525,11.153851970288265,-0.7989167021854536,-6.215942518866503,-2.834169021184458,2.7040069924877006,4.105773069611515,3.311145086951115,4.7882082653871265
16,3.2751402836514867,-0.680701230588994,4.67197141692614,1.7201280195717596,1.4246939179257003,-0.40083420914833046,7.305293333173189,-3.2278169644038472,-13.265161543019524,-9.719359284722328,-1.9141955289666608,1.6997193231458576,-1.4737816162008295,0.4144634019448847
17,-0.9426363319074362,-4.667445060253873,0.8765068964175444,-3.428844528663399,-0.7926660883568469,-2.4612967518017292,1.5696983549322845,-4.9028740675107665,-17.382509156081383,-14.607752694445827,-6.3704225706545845,-1.2962964385818438,-6.220183360230185,-4.458985195026437
18,-5.9474986624229444,-8.342792896650629,-3.842814712844139,-8.560718277200651,-3.195668188130586,-3.775555511166426,-4.639491808424427,-5.802187641375702,-17.91381716109758,-16.758883753289513,-10.082858537994733,-4.663615260354955,-10.219663324452108,-9.252269387738451
19,-10.886497364804796,-11.112033387916552,-8.645080367624091,-12.681446951308942,-5.388463164500612,-4.018193313325091,-9.80620531847162,-6.026417521449134,-15.010302537259372,-15.987206449104917,-12.516349297588327,-7.9639489114007525,-12.828029027720625,-13.217306719031747
20,-14.620995268161803,-12.375333081835096,-12.452854527575475,-14.835091535933078,-6.917165339843364,-3.208797332559426,-12.705726915269251,-5.714113959747269,-9.547812483874592,-12.644545555091492,-13.232957362465838,-10.554069119656528,-13.54711132067363,-15.520305762291583
21,-15.995381341385649,-11.653799404754915,-14.195718669283865,-14.326534657371111,-7.359842927180553,-1.6891818086641315,-12.704862862725202,-4.970791819161595,-2.871383477949392,-7.492627025577802,-11.961007043115917,-11.702489132901068,-12.105797679349845,-15.41023416002905
22,-14.185999402123043,-8.743169458213602,-13.109237965065342,-10.928529127414244,-6.437607370141275,0.008871318438413508,-9.892139687134835,-3.834938623616529,3.5624277304307466,-1.5074918751940467,-8.675388854892729,-10.790889635213862,-8.533170419085444,-12.442243162244408
23,-9.02373545487839,-3.8483154900739653,-9.004679405469362,-5.012879541192788,-4.118355630299148,1.3564905575909876,-5.013995143977895,-2.290120824874741,8.544258241580383,4.328848629452286,-3.66701668950821,-7.54478727194568,-3.2077170935674317,-6.691479284137129
24,-1.1761611577700728,2.356318566256755,-2.4197880162792704,2.44545180119347,-0.6794581327931877,2.010537870521847,0.7515495963751871,-0.31664221362932593,11.371825704234922,9.197434455376035,2.4294214880110663,-2.2151383918497825,3.1398607343079235,1.1222070986472956
25,7.892995499253678,8.783301742044646,5.414482631866344,10.015378690720826,3.299205935929066,1.9198354857284285,6.109986112279297,2.03702340803215,11.943222791946573,12.538460964799617,8.67767780385381,4.364264182343758,9.49149484517249,9.665500613189952
26,16.205783943113534,14.117975840020005,12.807117580261332,16.09227820249881,7.024806810251227,1.3172242399805623,9.963018969994229,4.590391105918267,10.669315751061983,14.067983885327912,13.965352096228274,10.887761777674049,14.683900007557725,17.206008779189446
27,21.736359910546387,17.104417378035826,17.99591217958082,19.259260340425595,9.653844567888639,0.6031806149575513,11.638189712930696,7.002203185146275,8.248670249544196,13.73503318593596,17.20194385842351,15.85066992754229,17.617044469269395,21.98102882259338
28,22.941371790094706,16.86462321329038,19.596019376049256,18.6403043738067,10.49361812933667,0.1681212675468091,10.987251822413803,8.796526850337205,5.391182571284852,11.655328841330173,17.55373239640087,17.92302796200163,17.493898393158144,22.63729719583733
29,19.204801980432137,13.162900722210004,16.985799360314743,14.150723743616497,9.192362269589053,0.2241387766600402,8.347463776534985,9.449165330502296,2.5896348283927906,8.058794934824089,14.661342833512274,16.32350391341272,14.037159151888764,18.623940958464956
30,11.063648066904264,6.532586451036158,10.517003775282925,6.569804826590575,5.863635153520788,0.7133731890660755,4.398131947032379,8.52174822378246,0.0168860247640709,3.273860080060096,8.781273911339078,11.082294477703444,7.622293176432206,10.420298187696861
31,0.1387351519604755,-1.7855264131299489,1.480536161071747,-2.596407406597603,1.102741930862062,1.3305072186123144,-0.032375834555311934,5.813287356846735,-2.422452428434257,-2.2520517423308153,0.8047228224784904,3.106434952328959,-0.7223433126210456,-0.48317699415111853
32,-11.22225867585592,-10.092577823134231,-8.17412288360158,-11.438558728105157,-4.120561370279975,1.6521397260645831,-4.1511791887542016,1.4868980895382145,-4.916143928152793,-7.919934390551016,-7.866322441783668,-5.985489197974353,-9.468924487773114,-11.86785161568166
33,-20.500083451472694,-16.61364481424705,-16.298055951111223,-18.07788138458555,-8.674806475450369,1.3231999786878377,-7.334157549272851,-3.872693563267244,-7.522801624865875,-12.972339792500115,-15.571109800300425,-14.225705382520083,-16.878529535893612,-21.276041131476006
34,-25.61129165013825,-19.916070107946886,-21.06149976761168,-21.101894738468353,-11.534957259999269,0.22665883024575714,-9.190291796509765,-9.304663052891852,-10.002927930205088,-16.547670430003425,-20.722242248462724,-19.76464143964037,-21.36712082654359,-26.58707307849611
35,-25.407463173914838,-19.2539172829761,-21.395435944606472,-19.890293171052004,-12.036513000893335,-1.4328954527405966,-9.56457190177248,-13.63160145285259,-11.783961538272836,-17.811915903946662,-22.14686989280218,-21.31950727491188,-21.86547186518377,-26.531870901810628
36,-19.938126283117434,-14.746712913342776,-17.241484184396498,-14.747963896042931,-10.046057272789307,-3.16989264039813,-8.503420641502045,-15.713011652039071,-12.09249736398292,-16.153825313623734,-19.35975952433253,-18.485203368475858,-18.084468013112556,-21.010618743526184
37,-10.416509725788499,-7.346060536981102,-9.549209928759412,-6.814149989969255,-5.999359269648646,-4.373821644891417,-6.2099874449345895,-14.741055005162735,-10.223323769087418,-11.39813387405304,-12.703489438377552,-11.828270895356074,-10.616319766918632,-11.12978831378523
38,1.091419641383812,1.3976300583792225,-0.029197951117826564,2.222953762276409,-0.7942518010435703,-4.527082808161912,-3.0081216822924195,-10.503902528632965,-5.858345383567205,-3.970480027641308,-3.3190058939742175,-2.745595258362839,-0.84077407289825,1.050122230794138
39,12.163091980706902,9.70209602526093,9.265733890168192,10.52622549576951,4.433344875118261,-3.4054670282968615,0.6810584090996713,-3.536939509111053,0.6805900082794487,5.0538036770289105,7.053492678357981,6.867368567781516,9.347066481449597,12.98866774213005
40,20.56789578506442,15.954599281545853,16.418072109811995,16.517973213369142,8.588353785356507,-1.1857550285350762,4.359830046162634,4.89989838606151,8.350662024266438,14.063151880613567,16.406451531477547,15.047692456630953,17.927206585339192,22.23868991668509
41,24.733392763447046,19.045561512203367,20.06143429140437,19.195270959143087,10.873361404507667,1.5830223706984963,7.487928124893803,13.040343233774106,15.53623063071749,21.190416603795235,22.863748529010024,20.186549528097835,23.175491228042613,26.976560794188536
42,24.028404977677084,18.55887881673717,19.63979121226609,18.284181179237653,10.954591853236225,4.139345006053843,9.542444676125118,18.993849447128994,20.411508760986546,24.71545853249111,25.0653834166454,21.345471777181444,24.021068398146546,26.366848100254035
43,18.81861610723119,14.789295772575326,15.463555208752904,14.214583898922134,8.99758418328651,5.747209096950167,10.103952867872707,21.207654714030735,21.43013211287299,23.499972567490367,22.458638562746163,18.407701109747094,20.264160728921944,20.6889132206496
44,10.310462372240826,8.606638912003682,8.571262026777786,7.947190467009622,5.573698594861227,5.931085630420907,8.954040192819635,18.890880523426922,17.804083921017714,17.340804040774522,15.433906539675936,12.050848101333079,12.611689491205977,11.216818011717944
45,0.24560033870214518,1.223667752546319,0.4514976873763735,0.7186874231166512,1.4768357072154266,4.627445494363512,6.157538406930887,12.279804564338727,9.82484112317268,7.134430281503444,5.273468239413805,3.5682458142709343,2.529462355844433,-0.09749689685827305
46,-9.469429350506125,-6.061516088049948,-7.295134822113882,-6.219405655878698,-2.4870728393128334,2.2021849263147617,2.099390851496933,2.6564986230894667,-1.08470909303395,-5.216093548185563,-6.081732319367371,-5.407162008396191,-8.052324419133623,-11.049602131240375
47,-17.116877301750062,-12.087490297474558,-13.273500799753055,-11.807656264183118,-5.674390360323379,-0.6694975684806188,-2.5465453919716623,-7.904485392410773,-12.627205048525024,-17.157470725225885,-16.405767572881075,-13.214181453412658,-17.116707545561813,-19.617486774423483
48,-21.445030560284426,-15.981493779750068,-16.529803643552896,-15.301929881508928,-7.698954852895281,-3.2170221756146193,-6.922986232794922,-17.011506562876917,-22.148697085648532,-26.04017200904651,-23.63094203943749,-18.454323449441794,-22.945626268516882,-24.32103783101788
49,-21.83810778474203,-17.23725906740661,-16.674716725330914,-16.31664732095013,-8.43806236870984,-4.808175237124554,-10.154281603942746,-22.537621532174903,-27.291884626414802,-29.744547693191315,-26.273038652182848,-20.221185032760953,-24.442144705395677,-24.450974730145415
50,-18.373047878799902,-15.736178535036656,-13.892195792860074,-14.814268302778304,-7.971439441556701,-5.125565841514088,-11.537141369492058,-23.157154275890903,-26.614187062864996,-27.222967200394358,-23.750829702951474,-18.242310266289614,-21.333089316236585,-20.14587478460241
51,-11.772795923374158,-11.734942033611203,-8.853430266863706,-11.071644734574928,-6.494754787503364,-4.23239366183382,-10.711574174637565,-18.691613068165946,-20.0017396417813,-18.81181496897355,-16.529095316115743,-12.919418720894967,-14.218554874234338,-12.324019327182155
52,-3.2715311191605543,-5.833453590869181,-2.565092004301238,-5.641782852787053,-4.2493186555133775,-2.514806214734817,-7.7666797932562375,-10.167632461044784,-8.759234681347303,-6.217763814969716,-6.046795632166026,-5.2616210401074754,-4.460477120478708,-2.4949360061016455
53,5.591159812720544,1.079338942458445,3.8182494859067986,0.6902601284801633,-1.4922652263878842,-0.5303343819846398,-3.2486037849326714,0.4331936857140773,4.66091354842393,7.83710949781854,5.564936721391047,3.284603046227956,6.071518559915351,7.514994207246116
54,13.226465718788091,7.915918913812332,9.190794750137552,6.9741412772014355,1.4943342255514775,1.179319502349944,1.9392919031388918,10.668357400554365,17.23060279369377,20.23727285320696,15.924231274755375,11.091583362302861,15.35462550497004,15.883172568626675
55,18.272947182062723,13.530038349219232,12.676884192073704,12.20223293905255,4.379285499109387,2.2465801640773893,6.726656977935239,18.24101541337027,26.077481898390985,28.213920752366075,22.909092268632417,16.6576018313029,21.605477462781305,21.112869825276004
56,19.85087407143754,16.902949547467593,13.772938645060336,15.463067828219398,6.775740159859766,2.559330917792806,10.114669902145401,21.557493338736588,29.188309085467736,30.01631568640792,25.124207261027085,18.910962427219598,23.636586518325416,22.306755971508558
57,17.74244038891843,17.34835600885792,12.426299610952144,16.11985881377469,8.276839060717741,2.2485970184582627,11.405640301870905,20.0895204050374,25.90109588309628,25.33835493289298,22.21315285370154,17.445210304597904,21.102444399186847,19.340463430429693
58,12.448884937108955,14.686688456257244,9.032220548015667,13.970634659348432,8.536719268085756,1.599567901249611,10.3658821657302,14.451439659053877,17.05720697775381,15.384620176465527,14.93545471331784,12.623342000084836,14.577056866680913,12.893264723817223
59,5.095831186066641,9.332481736323585,4.342812998229057,9.337129641446998,7.3752836012908105,0.9267566720917765,7.279043393220349,6.183344928532851,4.774776460801968,2.554884689543388,4.982104451117976,5.5122386495990625,5.436769050549983,4.315568493467535
60,-2.8059316545329906,2.2532005625155653,-0.6986216005354363,3.0408653392412335,4.868057554587177,0.4607773407834621,2.8744384500715543,-2.687768037108534,-8.093733360287283,-10.170271161766077,-5.430863945930478,-2.351008864770255,-4.434274006974933,-4.651625922441352
61,-9.695176619370187,-5.2085100230785715,-5.162913242565945,-3.744848182306033,1.3810248537740353,0.2835446375160536,-1.8524253231426617,-10.178901383958198,-18.672767553254495,-19.977251231776897,-14.090970100750734,-9.312160650397518,-13.053918585148468,-12.25022730151102
62,-14.30837875926321,-11.615343998336893,-8.32984822128788,-9.73918706558368,-2.4740731798084883,0.3267301142220589,-5.881114055779852,-14.825891834078012,-24.753799448270783,-24.89837083428979,-19.304423840621563,-13.985159485535355,-18.772024557405523,-17.085196847128127
63,-15.948789302984283,-15.750003480291532,-9.821245582498737,-13.833340547145621,-5.9615293716066935,0.42436391865450557,-8.406751520454508,-15.979582640115538,-25.285356368308516,-24.24124777438414,-20.263577973528868,-15.56747539138412,-20.61640093033175,-18.415659603252447
64,-14.603110308591623,-16.881027382677427,-9.637236854756004,-15.32995918996142,-8.390130446657494,0.3932711756945369,-9.017917066653663,-13.86046203704067,-20.545126024681217,-18.662602858740325,-17.17327955984595,-13.999172225344779,-18.47013981443473,-16.28080005976469
65,-10.877136692167202,-14.909015299925933,-8.090504055406507,-14.077861862514125,-9.279724543767282,0.10956844648119397,-7.768206306524697,-9.383082863266882,-11.968964295432798,-9.885703713603002,-11.112162641071066,-9.923700977650855,-13.040856492374877,-11.429526663729007
66,-5.777711799061501,-10.357620167847585,-5.666629155860564,-10.469541868648177,-8.476103242779377,-0.4442718438787436,-5.127728607012651,-3.8266568356554664,-1.7074745018894888,-0.16388407663033389,-3.68196865028131,-4.467697076084006,-5.639641860345373,-5.080255530991685
67,-0.41591443224499786,-4.21957858321712,-2.863045129029213,-5.311150673562781,-6.18060440452509,-1.1734121227254213,-1.8338276465222094,1.535461621497779,7.949034577502417,8.338907990276713,3.4421324638225377,1.0883050743401306,2.1608979735769105,1.412635482500414
68,4.2720032535188555,2.2912261039287647,-0.06426831398998761,0.38842944412048885,-2.8883648880365778,-1.9019756267473797,1.313471135479308,5.736560182983156,15.112187679716095,14.067056866418513,8.924301690023782,5.645176510079994,8.891009309584126,6.88405862517516
69,7.70207583770524,8.008705235264744,2.505842432335298,5.64381768437321,0.7422329854411409,-2.4267118322683032,3.6537423018455657,8.273272815744107,18.6653776287695,16.354204348779437,12.02936994079918,8.526804130918352,13.474519485848367,10.582935056521553
70,9.67688163548412,12.03451927504453,4.7471831597577925,9.673498255460677,4.046946609799801,-2.57388849160274,4.813428812337324,9.100057644547707,18.38907241102735,15.415652931370193,12.675923842611619,9.564965199948015,15.381929503493312,12.244565335938503
71,10.290550350039366,13.863675730275762,6.590618429252961,11.997392011670614,6.493998727575101,-2.24329988848665,4.764351680825648,8.498522649490427,14.849480496180986,12.098566508233388,11.297172973765276,9.021121711754535,14.630977928744185,12.015010577202514
72,9.765647858814294,13.405666631316635,7.90270859299869,12.447879290410143,7.769159182655132,-1.430794479406243,3.786233561436183,6.89389840095814,9.126228254151446,7.5090377106031925,8.58735533377628,7.394796564981595,11.667643204656025,10.282362078422933
73,8.303397423628715,10.923038618411459,8.443376344281761,11.119123110597428,7.794976102111157,-0.22896939190429105,2.3518961863914813,4.695602020596013,2.4881725590201635,2.6596376486813056,5.2402782786423066,5.2030732176230465,7.190247664534383,7.495593401891773
74,6.014551510370421,6.926963221693426,7.909405739171789,8.293147550763106,6.694096744225641,1.1886677855617143,0.9721605236208779,2.214268578119259,-3.8819529355990623,-1.7481654110033364,1.773723377445471,2.8171860145787835,1.9819288788637766,4.043845704308523
75,2.9560738799912785,2.0686938003137714,6.057878284494587,4.3763803614211865,4.72184654180262,2.5932909436614167,0.04455796309435697,-0.33387854239441533,-9.05519009945347,-5.360588939379267,-1.5137263465809274,0.4107295351702782,-3.2054157404488506,0.23228349620057678
76,-0.7533263618559878,-2.949356222737214,2.8642315497322044,-0.13812568655962687,2.19665233252049,3.731403614565063,-0.2544677146620434,-2.764890858821336,-12.412149839791645,-8.059333885408307,-4.46780604473272,-1.9769778909450313,-7.7073667915348825,-3.6584420086803005
77,-4.805611459378703,-7.439453284879145,-1.353657699786472,-4.689765162409653,-0.5508473425347362,4.359215217147639,-0.007571710542033373,-4.859699021834184,-13.626574464738397,-9.789730252375737,-6.94939130302579,-4.308579552417501,-10.965929505993785,-7.2823229845041135
78,-8.640929497735659,-10.782947867210087,-5.910125390330817,-8.672752142856323,-3.203167260214406,4.2813826542345055,0.4831966969982616,-6.340974235364217,-12.632017661140754,-10.432291399408584,-8.732877070240999,-6.422050411673149,-12.547082597228822,-10.17518533749174
79,-11.503183974094043,-12.488172202163383,-9.858479025961785,-11.484796551731824,-5.462631282950628,3.393536059072885,0.8025392986027445,-6.917606377524748,-9.611162376930311,-9.788437692576693,-9.494584306814584,-7.980252386587984,-12.183803197070834,-11.788841610699558
80,-12.617241796314152,-12.257880679918689,-12.215065981071247,-12.611915449098696,-7.053994137932981,1.723611288280126,0.566745973080336,-6.383353359426584,-5.011122469005934,-7.688619592561037,-8.90651381823927,-8.532523347886496,-9.845836255139558,-11.620464946166047
81,-11.436846533368307,-10.056932121192757,-12.238975394585806,-11.73821371712543,-7.737473447537386,-0.5386619758167416,-0.4314240971613744,-4.725624735429195,0.4479741554212261,-4.166573623964678,-6.7971516349665695,-7.673469283507448,-5.808963250181001,-9.397746016896408
82,-7.875255724896822,-6.157817970302629,-9.678477315711406,-8.850471894083228,-7.339520544744875,-3.0386017913553545,-2.119526751267165,-2.189960921467711,5.819619504563647,0.3944881180351244,-3.3046562033690234,-5.2384032219401435,-0.6802885350366594,-5.247336717281919
83,-2.426933847126246,-1.1382871481858623,-4.8990421093545455,-4.299289746992003,-5.798245784811475,-5.293108517241728,-4.119136935240662,0.739415039237339,10.066641739300062,5.232579179917471,1.0554407707381226,-1.4530170311055803,4.658319802013608,0.2296958737070369
84,3.879093642940264,4.1855558854902455,1.1578783159764263,1.2144921630271261,-3.2108621948331533,-6.772446903038395,-5.815247323815155,3.448729928033655,12.279736936266815,9.336719304033464,5.454478809032837,3.0338619602218877,9.199656321879846,6.023714599142521
85,9.69711190882587,8.888827853540098,7.183075408288536,6.73952006796058,0.13497628176986465,-7.0191209843452,-6.515393724300658,5.360997302358452,11.925126146066319,11.709893050750122,8.940725883471705,7.265136329977828,12.027193705934213,10.9228420559191
86,13.697126451155631,12.107750716706578,11.819489377130154,11.245759670599119,3.7639076490155787,-5.779764233891974,-5.664448567570828,6.10119262044732,9.036261710865213,11.678731726958459,10.697542310446051,10.214370649910796,12.53979091563826,13.807708753314422
87,14.914505586302964,13.212909156669859,14.003552533720411,13.832300838333955,7.061757232717511,-3.1136416451444315,-3.0574014910250646,5.599778113919829,4.2667979210356926,9.136273910134513,10.282688124221794,11.077718877913695,10.61553962643927,13.948684038042678
88,13.012195558380878,11.945497531188343,13.232088984731563,13.923369756981025,9.372134233606015,0.5613634532034009,1.0178802462023337,4.09689864829233,-1.2385884002505971,4.622200898537149,7.766337724167973,9.524799870098986,6.659527204257232,11.215421674793376
89,8.378286919617945,8.484353997566277,9.682973429570607,11.406395601674316,10.12892781064793,4.513832502889407,5.766305483991645,2.047793706727149,-6.135662445287424,-0.7985962757440909,3.720969200267698,5.824436278000864,1.5157662388571491,6.1346332112445054
90,2.0329519529534488,3.4277532018187635,4.162021082246185,6.679105900044941,8.999505441552264,7.8403648961255845,10.027337640934304,-0.03241071411004403,-9.252007291318389,-5.825705601601189,-0.93203470981013,0.8002828137541288,-3.733353558020234,-0.22191739524883292
91,-4.624659038491266,-2.3074790467889685,-2.102262953903039,0.5926254451513325,6.003518356520001,9.679055362065508,12.555128959947314,-1.724927468140078,-9.92006843850027,-9.287437274045894,-5.166915310740759,-4.374439949895874,-8.022235436783498,-6.487637473124023
92,-10.155661603920823,-7.650881328258273,-7.75563186907182,-5.700859784600709,1.5697414288050127,9.443118988796863,12.371857897756346,-2.8081663759370312,-8.160407489407318,-10.46070234205955,-8.11124620490294,-8.483386481033579,-10.540290112332974,-11.320991594156677
93,-13.414969258225874,-11.577720751598939,-11.627920325963538,-10.968363229583957,-3.498541596420007,7.008459994496,9.095687637965638,-3.2726332781635397,-4.652324268664625,-9.245860957796443,-9.241976864626945,-10.584752483355203,-10.89210327878974,-13.712036086070404
94,-13.796969451523697,-13.307735777425906,-12.981413036806659,-14.143079531108855,-8.159739159412553,2.7942282628853055,3.138690124615217,-3.256124655773294,-0.501879105479766,-6.148977269522188,-8.472584091119355,-10.249122600744373,-9.147155721053084,-13.202035786273077
95,-11.34179488044872,-12.467316961001982,-11.646120734214307,-14.549910099235625,-11.354339965448977,-2.298972469297935,-4.302909262443027,-2.93751582136774,3.112853078514512,-2.0905475111005134,-6.1231827212379635,-7.653247545916978,-5.781450290480242,-9.969823892037258
96,-6.69019160907328,-9.18251957873289,-8.022278417991007,-12.062162794659137,-12.263489288849927,-7.088937289221584,-11.488622689040387,-2.441333361128251,5.298829713843396,1.885026103638848,-2.8005517989501816,-3.5100894250602623,-1.5414915439893637,-4.773541218950174
97,-0.911357609513087,-4.078569332605543,-2.962023440126334,-7.151591799719137,-10.539608538766766,-10.40363065501355,-16.557763699599104,-1.7958564449885104,5.690023871648907,4.899921843561836,0.765246850987743,1.1369934145728313,2.7256564387093536,1.2307409741003466
98,4.747143790664533,1.8241203436431277,2.4337582454547153,-0.812423246597082,-6.4399914701605905,-11.388061882509236,-18.030870681494772,-0.9596917900495804,4.501522642835096,6.445258757538642,3.880224127276883,5.192057014290529,6.2350988099459075,6.7480996462464296
99,9.128420239516295,7.30710282120409,7.0546723502331155,5.6342718829296325,-0.8129615001692783,-9.74046694447416,-15.248520362458262,0.1016659608891681,2.39124625745141,6.446999287949074,6.008330988300035,7.777708153132459,8.391809205316912,10.624148764272293
100,11.39886281714822,11.210666548764406,10.006060988300932,10.821018117080357,5.076262887236757,-5.808573982077926,-8.614814378017497,1.3320496424528683,0.19121485499777136,5.198190452321559,6.842198562479236,8.429606623550704,8.871531214133206,12.087137066444882
101,11.202013576300695,12.696473374444995,10.777990803899623,13.640006597994587,9.84621273066938,-0.514642386828493,0.4388744430840042,2.5409199357988874,-1.3889890878747746,3.203431181491322,6.325747131831176,7.17163033420127,7.654961278598235,10.904814316291489
102,8.709403973479297,11.452566367335896,9.32948447515399,13.503008627570635,12.351216762137605,4.873864961147387,9.777306454095697,3.4298484225322197,-1.982130576614299,1.0021878768862464,4.639677264079848,4.464875749895481,5.019889334374091,7.425263037459871
103,4.563633476866567,7.783782013812718,6.076205648355055,10.488196594782611,11.987977486974104,9.067109392181143,17.095710416019905,3.6875211095808913,-1.637678605285856,-0.9685343427005212,2.160130215448717,1.0569420029205914,1.4948595996407403,2.493106627227513
104,-0.27218166914848074,2.554841310392547,1.7871850800493563,5.330585823699991,8.866567589877262,11.081685582028886,20.523821427883163,3.1187610928918583,-0.7393133815152128,-2.4386155958831752,-0.6043291569698888,-2.2202480780119744,-2.2242591734547235,-2.7429086707955213
105,-4.727905243847364,-3.0093136292514613,-2.58758830136577,-0.749138226595409,3.7910941118716863,10.48645575910672,19.132591075468046,1.7534005296807378,0.18834821337314453,-3.297391878984398,-3.095832164144,-4.649651885974661,-5.391763819018648,-7.091603342616792
106,-7.859761809019113,-7.621076263347582,-6.123702040111694,-6.339746998135187,-1.950382424428286,7.500398627239519,13.199170856490918,-0.11650782564235411,0.7015765955507299,-3.5430191693748623,-4.8066932970449985,-5.779306710980297,-7.352987608028742,-9.593510584784141
107,-9.054790546112159,-10.249979688808228,-8.120169820568055,-10.185377297395695,-6.930302695779161,2.919374076838112,4.1514051809322865,-1.997537755544808,0.6025058732996995,-3.227651595818723,-5.383526941129372,-5.495621985461626,-7.68618464544965,-9.74407303868138
108,-8.160932318029696,-10.378579162170027,-8.24579209347702,-11.492115288947907,-9.96295921652014,-2.1039573046694,-5.797048044247887,-3.3418828365512394,-0.009454490999259695,-2.4285532308919375,-4.714506738060813,-4.013273237827371,-6.3128299244498365,-7.610410335039782
109,-5.511108710814472,-8.122985941007387,-6.600570199438227,-10.113194493252179,-10.413382833416673,-6.363734704773955,-14.222169517301607,-3.732198880585582,-0.8088546226709884,-1.2534133350392915,-2.9730343829260715,-1.7941764937933946,-3.5415170658020645,-3.809049301635859
110,-1.8326743101665577,-4.183621568788534,-3.6768735734024727,-6.562825028736245,-8.345996066213807,-8.904555539324395,-19.117328989123102,-3.036561945337984,-1.3997032970608523,0.13518507217112155,-0.5955709105125054,0.5790382789936779,-0.02084382704364778,0.6541730197459525
111,1.9385196333773436,0.3595765593569612,-0.22873763265137745,-1.8562273674519498,-4.4737237966898675,-9.245339376543422,-19.4013529440888,-1.4721587205755267,-1.4874316194300956,1.504572293743481,1.813054137325849,2.5438602785799227,3.4009537991297925,4.644232930934538
112,4.894548987531293,4.347913191315985,2.9188665466124135,2.777380891642372,0.07172650029756168,-7.468821325197941,-15.170742411030501,0.45264977172016374,-0.9981471046488091,2.571601767233702,3.6307201705474768,3.6825534229647556,5.883053105849195,7.190305695700603
113,6.381778913998465,6.853449748184983,5.072437086829774,6.226236869338118,4.075064876472227,-4.161065845897254,-7.634098920241373,2.103563508889147,-0.10140964291886209,3.064857883826107,4.3872895681898525,3.8058986335101284,6.813704075033537,7.733768840368311
114,6.156949157779411,7.409132819463514,5.831660729750346,7.777998067377457,6.575866942407849,-0.2266364915890945,1.2429741603303244,2.937136539229291,0.866532887326637,2.8132220337484943,3.901836120039815,2.980652159489867,5.982521758537653,6.2625237579049555
115,4.430663876831732,6.097457457534514,5.168796333848902,7.275224691026205,7.1114126484800675,3.363011308523779,9.274789766638076,2.6915992021582547,1.5428451265580934,1.8259310535537483,2.342038028325168,1.4970873220372396,3.6478290074512105,3.2943645177057865
116,1.787297626960016,3.480062161986175,3.407098981229211,5.107212954350282,5.798681640534432,5.8162511532812475,14.620817790025676,1.4812197845326807,1.6826826206812455,0.3255678696221086,0.1814429910716637,-0.2143710711502475,0.4718259421698729,-0.2846580538101882
117,-0.9940133844488783,0.39892865490931595,1.1083533985935359,2.0509276770552014,3.24249697027514,6.69828107064292,16.225738991140272,-0.24229330635892468,1.2510929102434778,-1.290404745357737,-1.9374738319994644,-1.6969904044306339,-2.6633975326801287,-3.478643464094912
118,-3.1638627036421294,-2.283624848757089,-1.0948893564224123,-0.9822233213138795,0.31042298279106767,5.998155025201005,14.024555618169625,-1.8493574382836935,0.42892426059195704,-2.556983514559261,-3.3947419546033513,-2.584094908695341,-4.907219697438371,-5.4608512876472926
119,-4.20660500022112,-3.925323081046024,-2.672377206881798,-3.2126455192965935,-2.146972224792514,4.079696997657121,8.875421522913912,-2.7563148297821436,-0.46521700410959427,-3.086413797697575,-3.7793812702087566,-2.6887805732911296,-5.683861301097773,-5.79252434117227
120,-3.9658000214339904,-4.25610307756546,-3.325561865364261,-4.19274380086989,-3.540779764697695,1.5429523473997944,2.260910147428349,-2.6326980079288314,-1.1024052663554482,-2.700506069450916,-3.011449545039683,-2.044025607840186,-4.852951424097667,-4.520748316584331
121,-2.658434267487056,-3.406010684795209,-3.040093833791422,-3.8882942489275747,-3.6816099850551147,-0.9553867969507356,-4.141303956957432,-1.5170428472983375,-1.268392214535092,-1.500789231171039,-1.3603460086331065,-0.882963710645114,-2.7377211920042366,-2.132522617887128
122,-0.7800759105294228,-1.8137343937893062,-2.053114016486508,-2.629090773910235,-2.7786451428869694,-2.8689955527286672,-8.891356489369347,0.20005973139341587,-0.9381043782155128,0.153216075159114,0.6461631707767505,0.4347085082799193,-0.013242639513728005,0.6141598688100469
123,1.0640097889841473,-0.056465649736844946,-0.7530352279535371,-0.9582773947863463,-1.3151562475851577,-3.874068269849342,-11.10955709018381,1.918221167082912,-0.2738100023992346,1.754620357192363,2.3918852048720827,1.528996908033361,2.5081362372274882,2.925819054642831
124,2.3461241397116193,1.3384968184341646,0.4516955871275794,0.561702040714257,0.1455513995551739,-3.9064825538232952,-10.617939820739767,3.0417664557795128,0.4478716488655257,2.8126895333669153,3.3651794620855315,2.107760451844002,4.124622350962809,4.20228390765865
125,2.7638043088935147,2.041064056143059,1.2522889690750443,1.5211133678288375,1.152207572240363,-3.128393130539552,-7.88889558944366,3.188010766674328,0.947756646792197,3.012847359613622,3.3124193294693036,2.0452856445308605,4.447415442124518,4.191738289135743
126,2.305925314476499,1.9848348767789263,1.5129671862233682,1.7617645068223808,1.4922596307690512,-1.84737898789603,-3.8420157221519284,2.314785479980996,1.049360260664556,2.317065615456873,2.303850029251728,1.4087539290811888,3.496101305779636,3.0313731398236397
127,1.2236746767442805,1.3430309363831316,1.2813498797771976,1.3810801454935089,1.2190490334013806,-0.41915255866444406,0.4363974260970662,0.7240858517784523,0.7378295449699717,0.9698094818799533,0.6940722995638767,0.4262001076726479,1.6623047856009745,1.1703550647006176
