,AF3,F7,F3,FC5,T7,P7,O1,O2,P8,T8,FC6,F4,F8,AF4
0,-0.3018781646320497,-0.02963851431461451,-0.24837518679507087,-0.015210391223310674,0.07202115852593505,-0.0157396629076969,-0.3094739284233455,-0.34189058794639465,-0.3173676676902291,-0.029265350971168384,-0.02876853522243739,-1.0106363620287067,-0.15872736806286294,-0.3572971889650307
1,-0.641780943902969,-1.0711418746609291,-2.0746531347770456,0.9859104678880511,1.2542998717467324,1.7586889455922983,-0.34853801265234435,-3.7123449826975476,-2.624145270468391,-1.283749965455886,-0.2107805170736886,-1.9001464579612763,-1.230942780586902,-1.0800933637078334
2,-1.002181865670464,-1.9342843915884773,-3.4960165686092397,1.6559068447585443,2.0729267201288644,3.149748654694318,-0.20103701331096804,-5.9576384236007,-3.714652280047176,-1.918511470151881,-0.21368932797047513,-2.3977684819221454,-1.9860594272603267,-1.7594257368147181
3,-1.4231155009963994,-2.4866278643421036,-4.251424200487772,1.7684539943691968,2.280861965525321,3.8420657099472884,0.1512000719847808,-6.453745940937264,-2.9724216064296862,-1.5981636192611637,0.010195736611876585,-2.4307813547337798,-2.2595864669154113,-2.432067588836452
4,-1.8342337964381414,-2.61925225523121,-4.196330821763716,1.2939871940656242,1.8280665369203115,3.665068117192848,0.6095061700236711,-5.131376351797898,-0.5298227319172157,-0.36570662646538254,0.40856954996907946,-2.0150017458533167,-2.0018516513787152,-3.00736173190011
5,-2.0625362502395523,-2.268703897953479,-3.3292069173915575,0.4082582325951951,0.8739352468958405,2.635437548101696,0.984954914770544,-2.481391387610703,2.754002787655353,1.363150839903392,0.8442924298003067,-1.238108179775453,-1.2833441618191455,-3.2701669684155514
6,-1.9005511055402295,-1.4479288732877102,-1.7987497306522509,-0.5730952699435,-0.27088648307493146,0.9652125213078318,1.0737976804312408,0.6241862164282297,5.59887279272572,2.944429404921758,1.1428431223617745,-0.2355934324185105,-0.27477883441249595,-2.9617775691573653
7,-1.2083953845950963,-0.2714608012918762,0.11333023627942579,-1.3092855886760493,-1.251595693724022,-0.9717600218212537,0.7526904916796885,3.2313241923438754,6.783763301898836,3.7378197995771894,1.155608896645154,0.8327955291907808,0.7924628316344172,-1.907781447580887
8,-0.00616035355362304,1.043004490723075,2.0367027048578543,-1.555981603683939,-1.7869383132329233,-2.7151483256441,0.052877811067101585,4.6183116466819305,5.6244885317666355,3.3432284662955403,0.8168538396049688,1.8021406838927683,1.6769913971409938,-0.13877159837765168
9,1.4861637768409919,2.20823604813444,3.5808595994788215,-1.2496208741941648,-1.75673570552719,-3.8243723950643176,-0.8226397971231907,4.516818299528706,2.2688517090012694,1.757101515619423,0.17414052445045045,2.517325621120128,2.1792181991173476,2.051543724321533
10,2.8853654301520506,2.9342065211947737,4.41649706971305,-0.5248477219967252,-1.2305318666876741,-3.993114708477253,-1.5542920590152394,3.1662446482750055,-2.306985603227406,-0.6080119194222899,-0.6191180978551795,2.8470252531237814,2.184259935175146,4.145040636805168
11,3.753037525051149,3.010590585098822,4.351813442436753,0.339474151737333,-0.43046192442074943,-3.1416342484846225,-1.8197664084726064,1.18879070739951,-6.6092280522643625,-3.048947072032102,-1.34742238917422,2.69995556501358,1.6872463837434626,5.532937216266754
12,3.7410214315802133,2.3778153838676688,3.3833367642396985,1.0243240521483772,0.3552801140627794,-1.4569679318168853,-1.4265860814468623,-0.6626976145767051,-9.139595155111222,-4.799808493027162,-1.7991996438738838,2.044283294757725,0.7953968961771886,5.705755150428266
13,2.7235693633429796,1.1599039384651528,1.7051664848518853,1.286008111535078,0.8756054045787827,0.6379873639139441,-0.411196636930211,-1.7872380958861664,-8.92966302319945,-5.284045105526853,-1.8331731417167427,0.9273662511443557,-0.2941704983014027,4.436393581227396
14,0.8672152950167052,-0.3563711987251433,-0.3291423425574999,1.041582866714657,0.9995088414682277,2.5861079872305996,0.9399990294989935,-1.9431504763973013,-5.903598032105005,-4.3047706287817915,-1.4228931758167778,-0.5106687449149077,-1.3366533887567909,1.891079173747373
15,-1.3909543006867535,-1.793490903231056,-2.28459901658595,0.394753388046472,0.7511238067189989,3.8455954281466003,2.165835123282061,-1.3057397376490811,-0.9349525619614822,-2.1097980737273647,-0.6647485155406044,-2.0381252505808556,-2.0929687134028643,-1.3759375954809248
16,-3.4552766387924363,-2.7859470108265225,-3.743668009537008,-0.4052670148894929,0.28743885463359914,4.046772908946445,2.7837757842116693,-0.3589678490458648,4.428814364134583,0.6880958385889919,0.2524786505498548,-3.355606153123137,-2.3829133860497898,-4.550919784144903
17,-4.741594600716571,-3.082388742852494,-4.401012610414729,-1.0556822018850842,-0.17008155836709776,3.1089070488973887,2.47089429564492,0.3311399903344113,8.481674480930781,3.3055926161012135,1.105121006963022,-4.1460382536972675,-2.1266952731055873,-6.778977461061595
18,-4.853008464538567,-2.6156707842664613,-4.1305122262958225,-1.3093178375606402,-0.42308688102079994,1.2781308468375376,1.2059603517201738,0.36838739347819266,9.935257952887307,5.030418647667332,1.698881937300149,-4.14642808395906,-1.365930367174103,-7.4086818506145296
19,-3.7058241167133787,-1.5197923886939833,-3.0090312637934136,-1.0625394192807094,-0.37081296275761005,-0.9307019642408784,-0.6854491074133116,-0.2984493503941399,8.354177303640316,5.429933176938402,1.9183476531986372,-3.2272642231570003,-0.25928652923530787,-6.189410533735285
20,-1.5652620860766602,-0.08974370292463302,-1.2932174685878812,-0.3917033083201403,-0.04523091702146,-2.8763506710340696,-2.609587128648838,-1.3485676531485886,4.298054693855203,4.461938108913636,1.7471207875195738,-1.4573863780884986,0.9473288741950878,-3.3607399070593034
21,1.0215480027012875,1.3022230192929667,0.6425873108149167,0.47357594067370173,0.40434590210152566,-3.978572865469774,-3.88971853900695,-2.22265446642944,-0.878232107881471,2.4593941583327465,1.2558977412238332,0.8704528788351764,1.971491876354595,0.39542542553378474
22,3.3760719987685825,2.3081470483619015,2.390715719330426,1.230146567582864,0.7701553346311271,-3.8950154229684992,-3.999720339344578,-2.3650261935306203,-5.493668384467715,0.004219513136094529,0.5678943181187914,3.2722810477971462,2.5571454095132164,4.129207954201005
23,4.877814647787237,2.6944488500311095,3.5968065750481917,1.605992329415249,0.8662333683590111,-2.6324566180332125,-2.7655859199737027,-1.477489648337873,-8.112861021923777,-2.2597884609879126,-0.18172533068320626,5.168279482331622,2.537458283820111,6.875993459456312
24,5.136855764221413,2.3966375113466034,4.030408994179584,1.4539135548786448,0.6009557098177882,-0.5551829558812752,-0.4598887039781288,0.3195760768070707,-8.019730007862384,-3.810116703904503,-0.8761588881401402,6.025263921302013,1.8834370346588463,7.9179980460901005
25,4.099471750347476,1.52639111208642,3.6266724657206195,0.8026421060306066,0.016126403918102553,1.7161514235173998,2.2526199403912477,2.4898757972134393,-5.43040495624829,-4.3687654623758405,-1.428237163319688,5.511433063208898,0.7244680507828223,6.98088526865306
26,2.0575129909668273,0.33261700679827677,2.493242856592488,-0.15134308415505895,-0.7211046260862767,3.487858162743722,4.509943091913418,4.255925893262098,-1.3780015914706327,-3.936462078719137,-1.774726322531226,3.617363099115951,-0.6690818499132495,4.310145253819838
27,-0.4389636510783472,-0.8699622670289545,0.8832872215159578,-1.1079266148548523,-1.370828595721878,4.204700842599243,5.529911492537148,4.886079941767572,2.6803935057487274,-2.742375902296425,-1.8647133539744494,0.699891780613864,-1.943120530715584,0.6054519145395725
28,-2.7382076395895703,-1.7840043516452746,-0.8588554043344583,-1.7614519145328142,-1.6996988122759378,3.624768710849998,4.878884027752995,3.9868599819491726,5.38706634568678,-1.141199872829936,-1.6558240003411007,-2.576327579292392,-2.7478745308407757,-3.1691416600699402
29,-4.265780267570773,-2.202638002549726,-2.368826077383162,-1.899960823209372,-1.5603810370268685,1.9021801347972631,2.639528460869877,1.6863308887097952,5.947941073375574,0.4987563415860154,-1.1268862393350227,-5.395100077291294,-2.8364084007216612,-6.046532497524018
30,-4.67469751165012,-2.0548741535019492,-3.3370015715506156,-1.4729558095625297,-0.9446958074869924,-0.45100026899161916,-0.5847945114300834,-1.3688864838831956,4.3756271614229005,1.8790441957060382,-0.30487766344481226,-7.005795449842175,-2.145802396121961,-7.3165968100579315
31,-3.925832282723315,-1.4139477358643635,-3.57258677654957,-0.6060770394451354,0.007141404145454914,-2.7153853650047055,-3.838541722623564,-4.21215327636746,1.4340776651564702,2.808069414359718,0.7072650474274156,-6.940162485078857,-0.8332811737825703,-6.712303719009498
32,-2.2796470708528775,-0.46901724155458996,-3.0437670811900657,0.4410046596319356,1.0443906594960788,-4.183607554335901,-6.106566132122753,-5.885810167680739,-1.6820520573204647,3.196365956502038,1.7212227271358784,-5.161537484745199,0.7507298701909646,-4.470166596167769
33,-0.2067817738990255,0.5302481300615166,-1.884316026146894,1.358469440685715,1.8788466982005785,-4.381518532680265,-6.638282768741145,-5.783553859751569,-3.8056771330359798,3.031053535819441,2.4879462852827774,-2.095081389653267,2.152707133465637,-1.2492937157978985
34,1.7520596492053213,1.3403221442739248,-0.3635551547017209,1.8837069662943773,2.27014874901382,-3.22166733740416,-5.197420376266394,-3.8799313613396955,-4.2207581396956115,2.3535522453786375,2.7592565542598457,1.477618954082496,2.948071806318192,2.0656326662028945
35,3.1337742346904105,1.7837177293234092,1.1750080159982021,1.8802675831709448,2.096891343885407,-1.038760865422552,-2.153329157347975,-0.758888206217125,-2.898388120946071,1.2549082114804249,2.3718222843504666,4.633322518800289,2.876554488584838,4.618092569999004
36,3.6657757875705674,1.7867840057531954,2.3927437283281057,1.3736002131087925,1.3919890019764327,1.5071622808724185,1.6195228948590106,2.5745432307770755,-0.46784271050873205,-0.11346934319755746,1.3244132965996738,6.568279984593538,1.935969289566389,5.814453787388175
37,3.315344095274439,1.3869120835753281,3.033556546101201,0.5339070368406612,0.33228728666581303,3.632256733709636,5.004646291298912,5.035781979111847,2.0545064116127256,-1.5302311485436213,-0.18501165649694862,6.825457099899156,0.3984858038160117,5.470869610202448
38,2.267917639393287,0.7098731206465774,2.9805809794020877,-0.3856213487116087,-0.8132397018437582,4.673185904999311,6.986501216687362,5.834628357053382,3.667282315767202,-2.716719217482623,-1.786254950026772,5.416711007579193,-1.2632963302065707,3.832081269025446
39,0.8489029819196432,-0.07315185381713027,2.277696759699572,-1.1323538642690965,-1.7598396979315154,4.297063846232879,6.964217283992786,4.747557987110248,3.7622240369827,-3.384604847439052,-3.030234119416293,2.802248264816831,-2.5225333064818116,1.4631324624221393
40,-0.5807582867402412,-0.7937304270091379,1.111424928215921,-1.530483854407263,-2.2842514938676706,2.609334287434475,4.936401434954248,2.1904611352254837,2.338502968690573,-3.313731502333919,-3.525097846281598,-0.2636166770038877,-2.971258673628175,-0.944615365000978
41,-1.720524444281293,-1.324133671985386,-0.24011022757201855,-1.5250886931286574,-2.2802273391074976,0.12368222609480242,1.4993367431661873,-0.9338561638182277,-0.020182459895214274,-2.4365175275739928,-3.0712198550902676,-2.9675976965934425,-2.461705809551844,-2.7860301843787663
42,-2.3903797928635955,-1.5949260433254786,-1.4757402872949843,-1.181852740889015,-1.7776820040306014,-2.3978154454342366,-2.338886722054827,-3.5574460726863557,-2.387888379716538,-0.8944462429563976,-1.7457183899762438,-4.67520862219902,-1.1641368657302513,-3.7039081255867243
43,-2.5437342898388637,-1.5908387635689638,-2.3384707865709413,-0.6468740581729766,-0.9229728293547419,-4.183996168602376,-5.467322586014133,-4.821462587176998,-3.858944474933234,0.9643457977435854,0.09965338444074144,-5.0948042314340025,0.4838433751437558,-3.652136803511558
44,-2.2397056507566826,-1.3324546338213177,-2.6651959672626067,-0.085081986889935,0.07016853009841804,-4.696901696269686,-7.005616532770299,-4.368412831935121,-3.8902416154695816,2.6591851360719865,1.934801745491053,-4.31992658030888,1.9236435380256953,-2.8501983547892418
45,-1.5947753873392527,-0.8564394611986595,-2.410135616506336,0.37771845323151676,0.9815542526135528,-3.7991419469860426,-6.558321403900305,-2.449654855195739,-2.4955285984053375,3.7086716892911062,3.2150786138964933,-2.7463563410605234,2.6692204460375666,-1.658304613020893
46,-0.7378432538695102,-0.2062208175489848,-1.6421215672490919,0.687492485694521,1.6381810960462835,-1.7924453382805028,-4.314620753058318,0.18583737992780994,-0.22401077740067862,3.781167948339725,3.5588664732347195,-0.9041298089531216,2.4794952638551377,-0.4290012284421036
47,0.21354048127513955,0.5617341822820566,-0.5226926385365496,0.8592291161754558,1.946187470331245,0.6846395660041955,-0.9691537844045499,2.5755031120183753,2.0613379099383433,2.8124597817678,2.8766308436968364,0.7280992022946363,1.4459715178160746,0.6051568053768717
48,1.1513756243298399,1.3607870650964977,0.7257410666985634,0.9438968013542859,1.8956362526616672,2.865814655661207,2.5036411765813433,3.8927107301909656,3.516162507597474,1.045544408083547,1.4035207797528872,1.858367900511785,-0.039269448462258494,1.3683273950519852
49,1.9600032571855968,2.0594534186718687,1.8547801520199538,0.9829028046886846,1.5423141809094407,4.103624110275604,5.14549526658595,3.7338609933492006,3.630285474646202,-1.0279649813588319,-0.37907311837185514,2.4237100229036823,-1.4265225545825273,1.898359049320688
50,2.5027934334345927,2.4852748514801153,2.625801635764568,0.9729741213765443,0.9777327266624483,4.071975821803981,6.2870920098852014,2.241938106625247,2.409690767046052,-2.811098788966066,-1.9072546114888629,2.5371895971982164,-2.2115172570148753,2.255665078953159
51,2.6312989804471902,2.4578577512627597,2.847852264876118,0.8596956860180153,0.30054097372198313,2.8580472911006014,5.717358221146845,0.02828747192303208,0.3614953654321688,-3.7846428399389462,-2.725901869387608,2.3761572156991058,-2.123344024247013,2.4365040111116683
52,2.2244599785198402,1.8489818681848067,2.4180779849543605,0.5651262042712358,-0.4007171374954811,0.9148456255195647,3.7065504681285333,-2.0708198391710604,-1.7071658475849634,-3.6694974143275125,-2.6388098942175278,2.0695354884595907,-1.2257496883878465,2.3398654412621407
53,1.2485033165238637,0.6523528682038379,1.359701316146182,0.039012231808747494,-1.0504624914618093,-1.106361297643743,0.8887223574894015,-3.307531035626655,-2.997858205174447,-2.5136190004186356,-1.7639487543005037,1.6374626372029086,0.10816369086541698,1.8106122266225302
54,-0.18719392928261108,-0.9655569559403394,-0.1545359197106252,-0.6892849532035681,-1.5789959233614375,-2.583071689907253,-1.9481567742006796,-3.288655532243545,-3.021749827403342,-0.6745480279277105,-0.47551743506564725,1.00896005848478,1.3398809008825643,0.7429489441261287
55,-1.8090915451639433,-2.6628295543048206,-1.809466072861133,-1.4844125728330553,-1.9147839911502647,-3.1272736802193486,-4.092486116802313,-2.0997511486718436,-1.7826889932954486,1.2956701931808348,0.7432118160874047,0.10487618387227375,1.9741286837218097,-0.8051771414543818
56,-3.2164395124613314,-3.9843899529705493,-3.1974843278844913,-2.122620768533723,-1.985614135552521,-2.6979903414080106,-5.089287736172229,-0.24793561522210622,0.22332761269999551,2.8236463677212704,1.4794705128794705,-1.0588309487940881,1.752401222620032,-2.5486039605872763
57,-3.978999895062953,-4.483170521416706,-3.911356996407437,-2.3549563861548495,-1.7334469074858476,-1.5838304907506866,-4.823979741637584,1.5475540877289822,2.1916154327637702,3.488350890722749,1.5355367434510752,-2.3041017263011123,0.7562566420659659,-4.008328049313327
58,-3.772444357726003,-3.8685179683590083,-3.661910584112975,-1.9980940626074888,-1.1401703003807646,-0.2673304202317442,-3.4995165689895753,2.6331668804627437,3.309202101411375,3.1401959718639216,0.9860172827245326,-3.302416465494966,-0.6206394376040307,-4.648195111035812
59,-2.5073936524253817,-2.132420937976643,-2.3865587605106007,-1.0203197398509198,-0.25419349404372626,0.7730870523435047,-1.5317813556941815,2.661391769478475,3.06430735046796,1.9310833858071073,0.130322148877325,-3.6728473978607528,-1.8222785223965008,-4.074205357029298
60,-0.40189076750447283,0.3970512845869465,-0.30839794575761914,0.41276363381158054,0.7956802142339279,1.2450716451517634,0.5900858061709946,1.7057193018864745,1.452685719114703,0.25173389274203106,-0.6369840553056161,-3.1340214001999254,-2.345146392204516,-2.2211256368664607
61,2.039604767129661,3.1070695241441397,2.085502515403722,1.9572321076513788,1.8103508759601994,1.1375437636596095,2.429320898137985,0.21199342512800756,-0.9966696872513519,-1.3978584511187289,-0.9851400490339852,-1.6488905337639301,-1.9357918375322538,0.5546420477633074
62,4.147784691239514,5.254192717664852,4.1545480114552795,3.177064176893898,2.5579764640432976,0.694041609336459,3.6794130678067005,-1.1898060056628725,-3.3915818140701965,-2.5603670843357422,-0.7737985534187368,0.5028104672121132,-0.694958772268156,3.5287579617036795
63,5.281338452071824,6.1816008759761605,5.280760640397698,3.674969631512817,2.8319893017754048,0.27884029511248715,4.185518347798812,-1.937810639348216,-4.788420178862608,-2.948210969991064,-0.10060375282688606,2.765992991036388,0.9522852841855277,5.808744938330381
64,5.0323839901242335,5.5321392580786855,5.060320007775542,3.2262603014520503,2.5134041262053604,0.19458920115097902,3.9241605095497825,-1.7569620286361927,-4.539085954786989,-2.510717628088252,0.7448997724298954,4.464321020939269,2.409801862819062,6.62112165398675
65,3.3752016345976776,3.3842336215655546,3.447933037813416,1.8691261683133409,1.6170976917255362,0.5307305995108252,2.9683570103424257,-0.7614438132563343,-2.5500561549226344,-1.4278652779132972,1.39951452483269,5.020247791017564,3.129443309144241,5.587212963538169
66,0.702776566177878,0.258145065531785,0.8007688264080789,-0.08368220721632813,0.30460810930949084,1.1099626238468683,1.4625941555740134,0.5963930970467304,0.6437542666132544,-0.04010757647575407,1.5690022649527653,4.164158035495755,2.8136721551874304,2.884847785721049
67,-2.2694451747872995,-3.0188747880319147,-2.201613026121095,-2.121684650494296,-1.1446130804191896,1.5596289122381646,-0.38282715548490115,1.7092108860966166,4.026236470129275,1.258972253145728,1.1403742930694603,2.0539264370464703,1.5263233916244547,-0.7713894456840774
68,-4.708550619374641,-5.5518347732777755,-4.744069618280914,-3.681841528635606,-2.398570721396344,1.482026084677865,-2.287297345656128,2.058758768182425,6.427705010233109,2.1333012790914125,0.22325708344271664,-0.7454000889505564,-0.32857945749144546,-4.335404984334731
69,-5.915207136444189,-6.647034110813126,-6.114449424129599,-4.317443278351191,-3.1575605291661293,0.6536840108282367,-3.907098281664299,1.4270246857751483,6.926441102529202,2.387889337603347,-0.89174605703154,-3.423174214886996,-2.15019760735101,-6.756500436686624
70,-5.539707429680672,-6.022969127058217,-5.918514701527417,-3.8363071101561492,-3.234135268319274,-0.8328018725758419,-4.875567592876337,-0.006679213279034084,5.186566291465199,2.0063559505329183,-1.8384874638358673,-5.175889289482197,-3.351623051540571,-7.317462871250849
71,-3.691348743987151,-3.892580927248199,-4.200956717222232,-2.362656268962779,-2.604404151146343,-2.5518662178367073,-4.88285630045178,-1.720914459689242,1.610597054787564,1.1381311890494843,-2.3032000079992687,-5.466358172084163,-3.559925916249632,-5.866405239529449
72,-0.9041012949910725,-0.8891053521114414,-1.4321327478632542,-0.3016868875788383,-1.4151304989792068,-3.8723055354843714,-3.779209863528105,-3.040722932782212,-2.755468941476807,0.04452356533666736,-2.128317048592536,-4.200097975977412,-2.734134844531209,-2.861180343984195
73,2.0304686788311948,2.1388759376493804,1.635395278383479,1.782168907523845,0.05555510795607903,-4.189132510541275,-1.665548925374211,-3.3906842097760137,-6.542788035658887,-0.9781021714229415,-1.3577269292983059,-1.7574704494917321,-1.1628297281145523,0.788330088185539
74,4.307546262797769,4.3929231723449735,4.193156906438643,3.3339895413245997,1.4719361508885445,-3.1740057139739086,1.0718002372757587,-2.51887826309617,-8.504677858225783,-1.6765214579634804,-0.21259021637838216,1.1297429846290061,0.6511429762853462,4.022757734271584
75,5.34994693653776,5.360846874340961,5.611840447938902,3.969950032460566,2.5269056892211865,-0.94432510943611,3.813299344926056,-0.6081409001366784,-7.937670571710429,-1.9009103523111102,0.9878474809331169,3.6144470642646787,2.170609202380742,5.972775067356467
76,4.967598812697764,4.946053047849539,5.610264557767945,3.581009967314177,3.0154976722811764,1.9234246860125555,5.847668511182262,1.768305799525432,-4.933655266362732,-1.6341378420249049,1.9284822698872384,5.001609420698154,3.000036469567196,6.217477237162293
77,3.38730853170361,3.452710169179026,4.308275772146037,2.348224180151724,2.8757695404814974,4.554045822496816,6.569856863735631,3.8334022109969217,-0.372204623668816,-0.9854900391589121,2.387576464570873,4.9565170777632845,2.9955433232700766,4.876872565310895
78,1.150030662786328,1.4417377896573804,2.1546737617767038,0.6690569388435578,2.1883653217467995,6.059417780482462,5.675414824074421,4.870218073712104,4.3507492638937375,-0.15287346946384112,2.2863306298475954,3.586886746453897,2.2765544459166542,2.5173827673172053
79,-1.0821469456388253,-0.48213638033182465,-0.23657565310869458,-0.976845918660466,1.1395654674881652,5.850962415627515,3.2839053379381746,4.470882497157149,7.771399928159346,0.6352618329989231,1.6898172618842318,1.3782443557148583,1.1463762078215871,-0.08180467790694512
80,-2.7386853313722836,-1.8707201122149302,-2.2803889526003798,-2.1756009556969484,-0.03653116106809087,3.8653737928071226,-0.05831299290112951,2.683563037635714,8.835129069503923,1.1825954919054968,0.7683574487806422,-0.9862208042318161,-0.03752144649132573,-2.2060632834663023
81,-3.5002054418951714,-2.5487498127947883,-3.578637787314001,-2.6922341994259384,-1.116581941085351,0.6177750133977303,-3.507834373136967,0.006711942086829363,7.2417489597837825,1.3756902005915272,-0.2601781005822521,-2.852249268715805,-0.9882688077468472,-3.4221868658290076
82,-3.356243419523179,-2.6118869825797266,-3.9950901860402817,-2.515491640356447,-1.9303313369098656,-2.943376164043297,-6.153642420214556,-2.767029616643002,3.5416868286224976,1.209382632630753,-1.1853422897843577,-3.7878146544279483,-1.5631539190631965,-3.6626088851468364
83,-2.552496281142087,-2.320386869370114,-3.6345540199548605,-1.826458183380713,-2.378576656803713,-5.734627500518526,-7.277937490649449,-4.803785756961625,-1.0503998212017902,0.7799400475575905,-1.8420067750888078,-3.682262134974018,-1.7666074773845697,-3.162797692499946
84,-1.459536572154658,-1.9431567515787525,-2.7495426323424,-0.9099050098600807,-2.4292481773927137,-6.888934214179041,-6.567058043866053,-5.4933273790595765,-5.06230697574537,0.24799062340651717,-2.128061327718589,-2.7296580901854757,-1.6952431126057674,-2.296988512820068
85,-0.420790320983349,-1.623657073398326,-1.6214494432555704,-0.04547685192288151,-2.1018579774425143,-6.0403928753412,-4.2056724636198615,-4.639046585279426,-7.2539396852951725,-0.21758412788506448,-2.0078009205539633,-1.3179839562912314,-1.4605318386220343,-1.393849150329988
86,0.3604546875262314,-1.325733047467879,-0.4662746927365326,0.5806866969511139,-1.4524325976752759,-3.4454566710185763,-0.824434010412002,-2.51315314559307,-7.024108486936065,-0.4968079254259534,-1.509601678933612,0.12363936152813959,-1.1293664273665953,-0.6134112495789699
87,0.8564963861379938,-0.8801189805239535,0.6022807539973561,0.914924544325155,-0.5666840501700914,0.09966300692069877,2.6820373599321883,0.23721055972078214,-4.596731979509987,-0.5571356134902291,-0.722729918212532,1.2600310403282353,-0.708703779432396,0.06822362324667197
88,1.1693972179525987,-0.10691844272349668,1.5485752058908275,1.0181085249599302,0.43884447403956056,3.516092148178649,5.409644950798505,2.798817186646232,-0.9241236598236209,-0.4586802296362227,0.20863339755748855,1.9236258095295382,-0.1756286236460915,0.77259472125803
89,1.4339114417221317,1.045060085092105,2.3538346753860604,1.0058431815419877,1.4153561313290588,5.786508530902194,6.6938531119923805,4.446505015140483,2.6578532824933565,-0.3225802146321091,1.100825318903676,2.1134674453331836,0.4691609989035747,1.5841070458978481
90,1.7183796834769594,2.4101648181422637,2.9573061108868552,0.9768711442626143,2.1906785825339083,6.272230779552147,6.280239033476114,4.761040851769548,4.902493528803663,-0.272891341295775,1.7613016762251577,1.937307526297123,1.1575151948806062,2.4406309274318843
91,1.9704118331812375,3.616542980971569,3.235391148914431,0.961788684190439,2.595492644479041,4.901275290982587,4.3710385132437635,3.7434912796561886,5.088247814567438,-0.374095081959116,2.0331232830644894,1.5336829976748996,1.747012199763357,3.1095390356521015
92,2.0321420890699193,4.201520577226927,3.034299319673315,0.913161800811058,2.5052387945171377,2.171196975260777,1.5419824983215684,1.7939628133605907,3.26589059097596,-0.5906782420187483,1.842409052056863,1.0116582640147058,2.059507052029479,3.2676914786853737
93,1.7180215756925283,3.7919309124244363,2.24455019520358,0.7390695331485788,1.8859885781591288,-1.0272279763530274,-1.437676105711999,-0.433476892267911,0.23004472540637586,-0.7892943380912635,1.2310180851148567,0.4304975237494393,1.950435790312531,2.6533951707400587
94,0.9200134423268556,2.2786529315295643,0.8835188948786254,0.3629928004407606,0.8261228661768922,-3.702122379863843,-3.823541590947331,-2.249106499863326,-2.775746950021801,-0.7886000337543605,0.3574229275453829,-0.18142291207888864,1.3781631409548227,1.221560556691435
95,-0.30776417853451127,-0.08840786526595765,-0.855036889158789,-0.21842051877938448,-0.46343794201311017,-5.0711996524235445,-5.088595185700716,-3.14687797823182,-4.517504841935477,-0.4419533976637655,-0.5417138742197752,-0.7886208327032452,0.4407674754807143,-0.7732023373170338
96,-1.7254164147629178,-2.7317465760046127,-2.6145876488455437,-0.9073889059737427,-1.6886877580083404,-4.792869393249041,-5.039108136262637,-2.9544458164392875,-4.231133037494968,0.2784805241315827,-1.2214549447986347,-1.3191208862946422,-0.6392887259244449,-2.8134884773280153
97,-2.9606868857225783,-4.904032855612935,-3.957986378247372,-1.5220605949120503,-2.5456195360711353,-3.0498021775090387,-3.829964118626642,-1.867889680672132,-1.9199050645587885,1.23340382910462,-1.507612989749024,-1.6645077311479926,-1.5801188735182008,-4.27404732554486
98,-3.624117039717198,-5.923293490839258,-4.495255875418237,-1.8549425077534738,-2.80683305652712,-0.4666946913655995,-1.8860711785814839,-0.3637352718318711,1.6207355854592522,2.1317077127629114,-1.3556303875420845,-1.7132471521718369,-2.1313371403506243,-4.641468547375585
99,-3.4451330906567503,-5.404739492118606,-4.013770017930463,-1.7513580805079205,-2.3936737031173445,2.1037326472859315,0.2382040996838761,0.9787708889937308,5.066502271513936,2.6146935929679147,-0.8650701575722246,-1.4025829751740784,-2.1561904436199986,-3.714441030478303
100,-2.3785559486151304,-3.4062298886414584,-2.5635172148000223,-1.1772301225969097,-1.4080166233753035,3.8539765852953893,2.0163691113059623,1.6831562561548596,7.029516141929285,2.386265650195334,-0.24144859718418912,-0.7631958006693095,-1.67371919419294,-1.703487560362426
101,-0.6407442897304315,-0.4328870843654654,-0.4640523957192557,-0.2481749063751946,-0.1098861430674515,4.267830295450387,3.0796734776193553,1.5387393962246136,6.56583716060802,1.3435520723376297,0.28199012458078243,0.0677909037717619,-0.8461102801703437,0.814657537963357
102,1.340360577457738,2.7048467153251434,1.7736108910017323,0.7943129003679433,1.1548703737202226,3.266089737307317,3.288414266981564,0.6661206555620962,3.5465480689645372,-0.3445048223672964,0.5329703754979387,0.8767373087909927,0.08179490629828946,3.077761679460797
103,3.0463879571545864,5.134414280271849,3.58752889039492,1.6541353476870186,2.055179266117122,1.212979518743128,2.733558219321055,-0.536194205123631,-1.24343821712638,-2.249524726145196,0.4642919130865318,1.4388013649660973,0.8659136193076382,4.391573452073429
104,4.021248656808394,6.185620537015327,4.523750798182435,2.075791452485828,2.371578373788822,-1.2119257983440528,1.677898167688137,-1.5443212862563875,-6.323526850095276,-3.795173294927639,0.16728965141123825,1.5949796084688292,1.3373961768540323,4.365161910830736
105,4.00563510238677,5.590126000015245,4.363680803991592,1.930308196304043,2.057992040736004,-3.2319097154553873,0.46103937524295,-1.906378140314358,-9.988401917971817,-4.438382732442322,-0.17117997882355318,1.3108292000949915,1.4425016739046994,3.043072983117094
106,3.0108893429794037,3.5532233078846494,3.1810041871567303,1.261138641068437,1.2488055799559732,-4.2127029949264285,-0.601019083133892,-1.414275507955498,-10.878376782594987,-3.8610060034989786,-0.3508742403337894,0.692869553546418,1.2379905228165393,0.887002852457814
107,1.3110161172752408,0.6790723750296634,1.312811900047222,0.27295248060798516,0.21001281733334007,-3.851529076356958,-1.2936764100429892,-0.18780831669308928,-8.45721770585761,-2.102803428796934,-0.24575908146594078,-0.04544664386739122,0.8501841525527337,-1.3854602465698949
108,-0.6415071664509595,-2.221259080832788,-0.7431209713777382,-0.7337581538594621,-0.7482199318039767,-2.261377516772214,-1.540918413256466,1.3605297016057174,-3.232195643940656,0.4174810153320766,0.13902582175930867,-0.6570620589043316,0.4185213990479354,-3.0464033790636926
109,-2.3472386559472973,-4.373737526631562,-2.4710394479180535,-1.4602316601240228,-1.367979676772929,0.07117483490071203,-1.3977353802312127,2.6690786704696503,3.364969445904758,3.00900648469526,0.6644043127679251,-0.9477681854050394,0.04719598520582687,-3.600287913361782
110,-3.3972682803213146,-5.259651640595938,-3.4761249494163757,-1.7057627494680987,-1.517567135454175,2.438643888758545,-1.006975989220758,3.2285155283858136,9.404456632894377,4.9142919628878134,1.1102337300544238,-0.8443874161595407,-0.218552157562136,-2.9401313834841636
111,-3.576633240956366,-4.743970135546743,-3.5800287802821655,-1.4298703218952002,-1.220393487933295,4.1279307213209515,-0.5390389935414558,2.769075539449318,13.056405247715675,5.547125159948332,1.2627492590822815,-0.41966523567521635,-0.38744832922198025,-1.3664972713274006
112,-2.9068497261194755,-3.0822183237216794,-2.8491649321873664,-0.7594920913685442,-0.6323581092303229,4.633037162274779,-0.13547449181583474,1.365440512236565,13.166537320431432,4.682993613794426,1.001874710051858,0.13563489248277286,-0.49655922798743285,0.5320421669323853
113,-1.6207830833936725,-0.814203825143178,-1.5534230363543808,0.06019890621502887,0.021217083043695562,3.802115734339755,0.12659956773940698,-0.5795063162421407,9.622089231393005,2.536887606811401,0.3541499251524625,0.5839362361540148,-0.5799478456494273,2.090683078621544
114,-0.08311598608316162,1.413440991084329,-0.07333474940246969,0.7530658792675187,0.5252539148104813,1.876491676751735,0.2415009590384598,-2.467070909760427,3.3906265308573658,-0.29847864925687556,-0.5090747579393953,0.7301024181873352,-0.6462579849170751,2.7965745095783854
115,1.3162494154635849,3.036593398615543,1.2129797319294955,1.1061554559157305,0.7434848006572423,-0.5876054104496352,0.2562955080450572,-3.7042117415302345,-3.7773924025134127,-3.0333780849013525,-1.327227368187505,0.49652307654553923,-0.6738330141010226,2.455252076276388
116,2.2638664677060008,3.718263801889661,2.0288802393410603,1.0378666672975958,0.6540377003052221,-2.88844637029262,0.23765144024886578,-3.902385551743118,-9.882143012775261,-4.920380073623906,-1.8388761488286551,-0.043837067824642216,-0.6234899770529481,1.241470684409572
117,2.5925425621934775,3.4116571649877434,2.2576326657350063,0.6173291044066385,0.3430101996972146,-4.386327649105202,0.23878801203662514,-3.0040376439786023,-13.270538619628107,-5.474088868541469,-1.8705907422686496,-0.6898795627759758,-0.4617655788675421,-0.3779056211800253
118,2.3044482816429133,2.3335298695917013,1.9484156437638744,0.030144421185986654,-0.03798626049690191,-4.686141085475021,0.27875012993293924,-1.2943789188207158,-13.10743849162433,-4.6025679522219916,-1.395149402247127,-1.1839449293690936,-0.18380061183975305,-1.8172705140045562
119,1.5476002829409878,0.8674650701028889,1.2752102362212356,-0.4950289128249399,-0.33246815536263685,-3.7415498242698466,0.3398270735492739,0.7019093816839419,-9.58216584411619,-2.6137297762713714,-0.5400890461257094,-1.307725825569179,0.17422122920777725,-2.578600347086112
120,0.5586760456352797,-0.5649818061768049,0.46758926933640144,-0.7709430079580323,-0.4352416093906699,-1.8531830124371396,0.3812937240419755,2.3988057681172466,-3.8010563465674774,-0.10223684668439978,0.4544287232765744,-0.9675185095289228,0.5388136228006527,-2.4185726815858004
121,-0.4075606967891553,-1.6230257265072152,-0.26143419900628745,-0.7162155741303785,-0.324850592749745,0.43338181172618373,0.36172306572692525,3.3373519357695094,2.5821809797238013,2.240027607709959,1.3123534131602765,-0.2362626930085723,0.818640474098138,-1.4206026454978706
122,-1.1416172650643195,-2.1224366293995,-0.7681810515088557,-0.37734935362472555,-0.063006088910403,2.4941463966974533,0.2598298153999324,3.3198370760004328,7.868788562729738,3.8262442164651316,1.8064640321634649,0.6651125156352616,0.933269148764725,0.048912659580998476
123,-1.5204637472406355,-2.0538422836489296,-0.9993356183488239,0.09738459319081706,0.2358464311740428,3.804875657806315,0.08554305042404199,2.448398343031479,10.789832408841054,4.327673749222477,1.8234789206238606,1.4419792879511906,0.8410918635539435,1.4796254274360072
124,-1.5204575239029574,-1.549081948680466,-0.981568714283424,0.5197049843404185,0.4512891018539248,4.0783571724681815,-0.12232945257366629,1.0630547257737768,10.816054174011834,3.7367189604409696,1.390183410177344,1.8294792530632586,0.5561429489544049,2.3985632256498857
125,-1.2045921998561766,-0.8160331779812176,-0.7905670295657158,0.7335902248960121,0.5017775566568126,3.32445278926309,-0.309935242803337,-0.3903636733069243,8.228643650543582,2.331429339005695,0.6552265202518759,1.6870653592220202,0.14719219207551448,2.5284508789167823
126,-0.6926139551099082,-0.0678898169373969,-0.5149637367498662,0.6704834151098775,0.3715569812775017,1.8224628388899213,-0.4275407132329616,-1.5104201611334098,3.956512168843012,0.563999509644894,-0.1640638335677707,1.04901193032713,-0.28127212649202216,1.869267815583875
127,-0.12469508863661002,0.5311701629454886,-0.22872106734529482,0.3680421476217928,0.1114784068091563,0.021704567030613048,-0.4463744407600918,-2.0557233573619103,-0.745989623757079,-1.0840699759487518,-0.850153056929646,0.11238421136824402,-0.6200501749329311,0.6794701202271497
