,AF3,F7,F3,FC5,T7,P7,O1,O2,P8,T8,FC6,F4,F8,AF4
0,-0.2377296603395376,-0.4141678984752528,-0.443756780804402,-0.02372610168864154,0.11359210857572484,0.10843667763674726,0.10901569347370456,-0.06368619904664041,-0.2631243087077344,-0.5144064491210438,-0.30833767224746594,-0.29687024396624356,-0.5474172009094781,-0.49864751643957095
1,0.36768814096768576,0.32229109872162137,0.9055759607963942,0.27106487075547525,-0.07799162713057906,-3.212137247834062,-0.38899857958832185,-3.044144346505539,-8.945324024253814,-3.732810687663156,-0.5069483292149315,0.9293757104507173,0.3550454811271492,0.5721596737484891
2,0.9060240238089206,0.8742550911653874,1.9827445200406721,0.5014893023942893,-0.2336508970363918,-5.51530811450016,-0.7601675832694975,-5.219669771739802,-14.920829047897856,-5.856920019611677,-0.46858359408557554,1.8962676542184351,1.0831347411112786,1.4603759025204075
3,1.2345696889198088,1.0200796203647073,2.450498654627175,0.6166228820684522,-0.30685522016805594,-6.0489966823185055,-0.8587970525536712,-5.978585928417005,-16.39914147420942,-6.273141775751317,-0.16444662199330298,2.303599031340824,1.3621777940880966,1.8824231607691915
4,1.2587348045859368,0.6911712983443945,2.1543682897219085,0.5891987394581167,-0.2785431323141363,-4.635453703005333,-0.6193662603352119,-5.1172986580489965,-13.013736599911159,-4.906083645651441,0.3087504739555541,2.025948200240606,1.0800406686104964,1.6989623442250426
5,0.9617005242796863,0.0006332126316103278,1.175871798983294,0.4245194944575027,-0.16148758675469785,-1.7266367108746892,-0.08164635508984014,-2.8980193023335623,-5.917670086835207,-2.227355277230051,0.7629028970722161,1.1531159070026735,0.33072737912302963,0.9640617282716851
6,0.4135733948182972,-0.7927507217028931,-0.18732943195134494,0.16270391278964216,0.005597974837703497,1.7488310903524464,0.6147112238926274,0.03468692414634268,2.6146421729637623,0.9140262666147011,0.9944494452267332,-0.03995989168507275,-0.6147282461761152,-0.08753458736941072
7,-0.2436896089811841,-1.3735158154958047,-1.509786638065825,-0.1283271424651429,0.17139250336570083,4.692478885732111,1.2655351080226098,2.8510445645510574,9.941119294367388,3.5777321218331477,0.8721239903769445,-1.183065411902044,-1.400714439796066,-1.1129047612878895
8,-0.832620033562254,-1.4816116315390973,-2.368924096458039,-0.3693180807458785,0.28771620036698703,6.191147188053903,1.6581498876192255,4.783956174294179,13.905688578365794,5.034526665139817,0.4002350138106231,-1.9298911036574917,-1.7114800563551607,-1.7711735792685297
9,-1.1889733861848917,-1.009745254201139,-2.478226035791079,-0.49238881822524955,0.32252764736259776,5.802033294268514,1.632767620795447,5.349979984816192,13.507174056064377,4.98226578770835,-0.2706950827737272,-2.0672546460528336,-1.3852708662620017,-1.8363412914923285
10,-1.2100821399371995,-0.05263551131814145,-1.7817121080515788,-0.4635138247316137,0.26674960620854243,3.677125062854116,1.1324103619092198,4.476336229755961,9.166659003827863,3.606482322562049,-0.8940449141489282,-1.5795319504149707,-0.47927784677722995,-1.2757489052446216
11,-0.888929837544745,1.110021731748505,-0.47940469199390584,-0.2966966524783476,0.13419212040587622,0.4938521351606665,0.22756485720286285,2.4987999161917305,2.5174154346588833,1.4738481285851626,-1.2214431799880183,-0.6489056444302673,0.7374342659464395,-0.26731365033098275
12,-0.32232678744329907,2.0941881242797513,1.026395998677849,-0.0531020773282082,-0.04379885418259762,-2.7759128362778815,-0.8917586801445454,0.03752532811340323,-4.1945632596560944,-0.6935120571577226,-1.1053140737115026,0.4071302624104833,1.8627268306668847,0.8523661390894895
13,0.3125092596245057,2.532673919506687,2.250605536076236,0.1770792342921962,-0.22626041864091695,-5.175879187323071,-1.955885225157002,-2.2039303932218988,-8.881647697986185,-2.274721625833499,-0.5675245605411922,1.240142090797476,2.4887653900107063,1.6949102429275977
14,0.8097262621897238,2.2000220198542015,2.7767046924355205,0.3057954992723636,-0.3707725716282058,-6.05200476531915,-2.6788967218335573,-3.64933792170726,-10.288561197078874,-2.9435409062003646,0.19705465898316119,1.5838334789682287,2.3390125717158647,1.949595985944093
15,1.0017811994783532,1.1011366924081285,2.39457339506196,0.2811045696541881,-0.4407603479869835,-5.228442952048358,-2.831380892048032,-4.004394446512615,-8.344578027209616,-2.7333687070374593,0.8885900778463627,1.3406021652552018,1.3715630541837385,1.493990163022819
16,0.8207040576323091,-0.5073472328300054,1.1807553474594707,0.11090723936356227,-0.41193914536496534,-3.0271858482182745,-2.3052338414341564,-3.3118777769617065,-4.090378353246946,-1.9614288816502525,1.2191551602402375,0.6145648504157094,-0.1860442539995367,0.44812278798200017
17,0.33103258187759554,-2.1750223481290605,-0.5082496184245661,-0.1344786091944305,-0.2781129275069923,-0.13825647400072677,-1.1537574320472788,-1.8992854316943555,0.7708086404357569,-1.05482058607594,1.0335563082600936,-0.3201086843264698,-1.8863673890250006,-0.8496244738065266
18,-0.28184687251087975,-3.38309597236377,-2.1341293290210306,-0.3448009519200628,-0.05572761093501063,2.6074683379265533,0.4053761735112174,-0.2461565305790369,4.518568953065272,-0.357009482380554,0.3841029559265774,-1.107520345364394,-3.1869361454149816,-1.9428329929985657
19,-0.7701487916045192,-3.703101530789374,-3.1419682866819123,-0.41154138484085545,0.21464862257649975,4.486236531162636,2.0289602068327186,1.1783470751519947,6.017739116098915,0.00378104001317949,-0.4753910517941476,-1.429456617418018,-3.617349693312364,-2.4062363959967557
20,-0.913382558263883,-2.941344617204304,-3.144012784833538,-0.2741159127148431,0.47238612253587475,5.075188710356615,3.3235678902628787,2.052518585839299,5.066743196246972,0.13329127279950737,-1.1801726390158465,-1.1192492748654417,-2.9392147000375477,-1.9977319652851482
21,-0.6089512341650481,-1.2218470812454232,-2.06258596433034,0.047899336687335335,0.6480468648804942,4.340937455692696,3.9418365751219677,2.273019347569979,2.383597014282938,0.27659986259863006,-1.3987055815109242,-0.23251849416642512,-1.2469066064535377,-0.7617546597640237
22,0.07176661388230637,1.0239412489905222,-0.1805867396717536,0.45159889686421456,0.6810524685654785,2.608459026102835,3.676484411148739,1.9452526413322901,-0.741711744738006,0.6588953606154311,-0.9750178848655657,0.9521681781257482,1.0292847073037368,0.9561723990828307
23,0.8888177275805195,3.1652502247217447,1.9256357909142006,0.781521704770174,0.5397386234667779,0.43228489029642614,2.526288529370596,1.307341579789155,-2.9802626142572355,1.3377340466000927,-0.010580736450938941,2.0094193590173117,3.2284789159035148,2.597741589481163
24,1.50687008046406,4.551505327682301,3.5583059765769307,0.8858121034340926,0.23717600031823258,-1.5822541154527767,0.7127959496932346,0.6226126359364818,-3.4751776622634383,2.1371804227396263,1.1523562802454388,2.5019079441557173,4.649485789159162,3.5631916246801936
25,1.6163818806323953,4.711828696722916,4.1250614796313085,0.6778487928287711,-0.16426148507044475,-2.9510527646784603,-1.3618176729641471,0.08225287456599929,-2.1426419311691665,2.6981967086616665,2.0466528329310503,2.134380034070844,4.772052558070345,3.4151152971887044
26,1.0612691347117225,3.5128073503970794,3.347236240059419,0.17914113674595833,-0.56398928457783,-3.4282125643629153,-3.209023186797053,-0.24833413784131372,0.3376611397658052,2.62859741785598,2.256198181528597,0.8762917275250657,3.439414148918276,2.0477247029193926
27,-0.07617764980988369,1.2217944884227185,1.3767714501235189,-0.47544247201880363,-0.8491990349150332,-3.040863673937779,-4.3773308528691,-0.4248724253901346,2.8237687472593356,1.6912666598959256,1.586369551677278,-0.9923748173623321,0.9387918790236589,-0.24025140241755247
28,-1.4714969277210406,-1.5502430806704375,-1.2247449866569002,-1.0756285579539222,-0.9289863935295721,-2.041348259764696,-4.5710716646907965,-0.5690919749928206,4.178744910790471,-0.05018625684505816,0.1619611418671831,-2.9363678959698136,-2.055013035381572,-2.803492608519673
29,-2.646575628459096,-4.015405551950022,-3.64678353056081,-1.4057634570119388,-0.7655460711028322,-0.8003860922796554,-3.730128811084405,-0.789171558741951,3.7228311663333797,-2.1953325539932362,-1.58977150623813,-4.3138412461433715,-4.664862940993292,-4.831189107190695
30,-3.1274092308533135,-5.43863302002524,-5.084002751047261,-1.3225701154585678,-0.39086418866230194,0.32007851375179525,-2.0467126214810945,-1.1099150544493106,1.502015312619396,-4.105600631751347,-3.07122233851107,-4.578123477238591,-6.073706405112313,-5.600463740715837
31,-2.6194463455133286,-5.3618401145475945,-5.002744322775009,-0.8119772839989119,0.09856130075883872,1.0731648492506867,0.08587722384458056,-1.4425615099778883,-1.7221338136243958,-5.109785307204611,-3.7184566597036923,-3.4701738565062192,-5.7834671848139045,-4.722277841227972
32,-1.1374304034023803,-3.7525543085284765,-3.3306267618583583,-0.0029902744715510376,0.5689074505206547,1.3813824845078642,2.1767223260039272,-1.6090325338134361,-4.751964842610512,-4.744913293434248,-3.205625642763319,-1.1365502556095095,-3.7862945190330466,-2.296665353668848
33,0.9620831732781832,-1.0283983985358651,-0.5023793068200856,0.8681949980152494,0.8898726265336685,1.3270177947259694,3.7617610459853528,-1.414487326894063,-6.396047178699792,-2.9440416092994712,-1.5760621723401338,1.8730697310735795,-0.5889783104967468,1.080626085238434
34,3.066150919690343,2.0539491967576837,2.6586967757636892,1.5325811867069803,0.9754050560948654,1.0885760457172455,4.5133808660820565,-0.7423184511126526,-5.9120709442588115,-0.09875635940727376,0.7488855551799084,4.7384581552537695,2.922786913177361,4.471439615229915
35,4.488619943132149,4.614917183421194,5.189633747676251,1.7759966379766459,0.8100636428929593,0.850997607039779,4.306565942821409,0.36577573715541484,-3.291612865474979,3.0326115345386357,3.0897055122704793,6.598944750402056,5.741806460107305,6.867070449928764
36,4.694796632814513,5.909861454838292,6.288784851742583,1.5099220535698452,0.4517538048681433,0.7250054408477051,3.228957930108381,1.6804692483882187,0.7131186958388515,5.545780836564849,4.718960595703589,6.814396834279071,7.039790887260749,7.49630858103943
37,3.4931347817231075,5.551167458379234,5.571976334690493,0.8015151958293,0.010198281082205924,0.7059533312244236,1.5402814207799342,2.826770904025552,4.828898767344039,6.669530516742862,5.092636686185353,5.176300442305206,6.417265495754012,6.072423943196509
38,1.1263390073868285,3.6270039186867677,3.2004471596605573,-0.14682124202600688,-0.3906222716251693,0.6867003620677136,-0.399851693926357,3.3928262375987837,7.684146602868242,6.011402986485596,4.026601363000953,1.999747996506754,4.025075417345365,2.8987867732073753
39,-1.7751608569209225,0.6797028492906116,-0.16155006736147257,-1.0607477807586974,-0.6521867760629534,0.5179620545142497,-2.2119837817813557,3.074536065342449,8.270459722256042,3.6893826442370963,1.7612861748082,-1.9383612054020876,0.5202848010953696,-1.2035462542222932
40,-4.369762484597616,-2.4510026343301257,-3.546473381110828,-1.6786266030304657,-0.729204061730832,0.0909006546203099,-3.56523921719749,1.8065683417850174,6.287846923052246,0.30666908580924196,-1.1048253575208935,-5.602655557891365,-3.128540416868305,-5.126760627355553
41,-5.859646218227128,-4.873604568439886,-5.976881841066833,-1.8298562977188133,-0.636462761210791,-0.5926321470881515,-4.2245422799126935,-0.17179086006878644,2.2591147112425594,-3.222060332575317,-3.7898816065709124,-7.987377649861774,-5.925136621493557,-7.795897042956332
42,-5.744072853543158,-5.905816737651805,-6.759381096805811,-1.4826013601961743,-0.4341136051137779,-1.3930549902690443,-4.076954100705039,-2.350312198898798,-2.623887732016452,-5.937313148997183,-5.555369255862291,-8.404709346890165,-7.1308410108369005,-8.479367104386704
43,-3.9883085889883327,-5.2725711429987046,-5.687202705642855,-0.7476197064046778,-0.19890500504078362,-2.064235177915551,-3.1426897497971464,-4.082848692384535,-6.871688204834166,-7.110998717528457,-5.915114935780453,-6.6870818394252085,-6.4659486936962525,-6.996018118894918
44,-1.0504181651052404,-3.181811309598716,-3.090465529832187,0.16054876550925767,0.006254644645865648,-2.3354976329122534,-1.5751999261760237,-4.788125555930107,-9.165989525220592,-6.448609991420488,-4.765876341553446,-3.2423851039501512,-4.170459601328535,-3.75782482906378
45,2.2467452725423875,-0.25632222338114674,0.2768563576615092,0.9905875253830297,0.1522438750298,-2.016351998338182,0.35080174737740333,-4.1521523635139035,-8.775578005262576,-4.159863596817719,-2.405873019518867,1.054732898526554,-0.9127838262189961,0.36051816455736274
46,4.96047158838443,2.656064059458396,3.472228344640934,1.5274759941249525,0.24602397463356168,-1.0847491148522144,2.2696473087634366,-2.2603188559049157,-5.787533056462397,-0.8829153761984678,0.5573268297254528,5.102993441885182,2.4184189541769663,4.280205622334865
47,6.313229418662971,4.734688775216677,5.644357975694958,1.6493829788975345,0.3158251833047311,0.2770602524686733,3.7797841848070575,0.3946673538561056,-1.0818888576175745,2.508126803773733,3.3767307009289937,7.874956532207482,4.971034588776376,7.022766867975486
48,5.9272177301627496,5.423554745721742,6.269924026999805,1.3530396127973283,0.38708071160137586,1.717874373349129,4.523100549331068,3.0431765892310065,3.9404556823856063,5.150276839965419,5.362269457338898,8.690811663933273,6.156947308982206,7.968409970448192
49,3.9342433206678207,4.58335284728734,5.278664922570248,0.7433757429980481,0.460981586891723,2.8176389294195388,4.275945089753925,4.873242991595515,7.7895154173592305,6.42008720809702,6.05038785324777,7.389377691118023,5.787247612279623,6.996437048977519
50,0.9277603460997587,2.515561194469879,3.03803939805089,-0.0054494280679220405,0.506565513015141,3.2214580942680744,3.0274882685140723,5.295421162578814,9.341755276079352,6.081644790970464,5.306641824963465,4.3532039917103615,4.085366992493049,4.477132176583735
51,-2.224634364419577,-0.1433949886122363,0.2144747411061412,-0.7026906575846669,0.47153307369045183,2.7623220803882655,1.016046397515001,4.148003794452542,8.177673045396006,4.320524367598762,3.3424977538526637,0.38821917377128645,1.5871665847840146,1.1315821995015116
52,-4.645750954121274,-2.620610566068895,-2.4356943598082195,-1.1903981534510388,0.30861762095735623,1.528767677780363,-1.299737737704915,1.767950907036069,4.698168234568841,1.6645939462863717,0.6500063091261744,-3.5014438979553875,-1.0312780180375773,-2.1871733760249055
53,-5.70566348921532,-4.234638068649559,-4.277113161523632,-1.3764083913059455,0.00664351088359677,-0.14904740261473726,-3.340279506018542,-1.104140117322785,-0.01335631838645285,-1.1772113591726638,-2.124232434866309,-6.377454560972001,-3.141953482338611,-4.722181634041437
54,-5.192387278689525,-4.584627853797442,-4.947640203502264,-1.2453151456643614,-0.3882797351972265,-1.7939998255288105,-4.556297598850553,-3.559870699289488,-4.536396075596408,-3.508765341793365,-4.33406566480777,-7.599146626932043,-4.316268875479763,-5.987292564133023
55,-3.349016613968271,-3.6481158746741738,-4.4171110957040405,-0.8496832536590041,-0.7736555801622566,-2.9285429618480583,-4.591211348261357,-4.823605350967761,-7.555074526184864,-4.8205822315828,-5.483010028105356,-6.9664747241947325,-4.404601823996462,-5.8501642248895225
56,-0.7741884427227967,-1.7650249374655447,-2.9502133829792423,-0.28901407323185757,-1.0177734805599974,-3.2255595938232804,-3.4031569097894154,-4.515409958342414,-8.256231798422368,-4.901144207931949,-5.335987523899973,-4.744412260287193,-3.534030681881697,-4.5159765439754995
57,1.775109044787907,0.4801749955502973,-0.9987826369206412,0.3149237936970935,-1.0063262363727963,-2.6132161270169805,-1.3014058765422802,-2.7832115680344356,-6.559799769466703,-3.8627617173891666,-3.969732841170782,-1.570659779209517,-2.0374454751133557,-2.431396944878724
58,3.612441440818684,2.4379346713250016,0.935899841412746,0.8402943774963886,-0.6920160363893443,-1.298040361829372,1.1244556748121322,-0.25413447036014997,-3.1128457679975448,-2.0822640440162576,-1.750079968389988,1.7234516754594726,-0.34261117711864786,-0.14504210819644295
59,4.312033920845116,3.5799291982645904,2.4296637484812917,1.1828760055541312,-0.12674246163647643,0.3024829078582551,3.1699047443293913,2.1821620518487084,0.9443219734416581,-0.07831406701223267,0.760329392622373,4.330198203361261,1.1450759168465088,1.8349874577832195
60,3.8068456221573737,3.639456160057535,3.22096413008605,1.2703011879457637,0.5399138144397637,1.6960207380879644,4.229023934167643,3.684822599626257,4.358251140874395,1.6379103397821386,2.943878985391191,5.66570622524914,2.1364830656812255,3.1520567911186514
61,2.3733502586062967,2.669830629563112,3.2425319575230116,1.0744671002632478,1.1006990630426363,2.4749581765114668,3.9890847345731917,3.7585953156954,6.161387719618679,2.6968652286434063,4.285363029282848,5.50444402302656,2.5099405001484763,3.658742201270218
62,0.5174485488632821,1.0100022203595558,2.6028405980667277,0.6216212603978502,1.3589397397595522,2.4458801305382845,2.5400478666263946,2.429573066370686,5.960035647751015,2.9538447450733667,4.50403844305382,4.016672415941414,2.313309415938172,3.4150302755042614
63,-1.1957511752275853,-0.8270844161866429,1.532402676929324,-0.003560076020125193,1.2020066396782827,1.6854055120911187,0.3571545957578798,0.2348550085525458,4.021712704268302,2.5011486183774863,3.623264543163498,1.7022710119922566,1.7228581681451365,2.6352801297662616
64,-2.312494961980315,-2.3077924252960837,0.31436255089529086,-0.6654593669561072,0.6519647057455614,0.5039434688965978,-1.8444307851254826,-1.9727178190091799,1.1419678497359753,1.610372731591092,1.9559912305348213,-0.7592368259018438,0.9744920751643151,1.6037667402161981
65,-2.6103290141512345,-3.028176207041272,-0.7826809745751778,-1.2007478826801241,-0.12885979092182628,-0.6692292340816994,-3.3400445088592776,-3.3364199492213067,-1.6547527177391297,0.6267786388322482,0.008056140442505503,-2.7008940126294787,0.2882702973220475,0.5850338110639514
66,-2.136260007182945,-2.820468960106785,-1.5568034231665864,-1.4565299631312336,-0.8843517527221906,-1.4387114625833064,-3.636552998173263,-3.3122428456112796,-3.4718043039203277,-0.1483552232535057,-1.6735366384978578,-3.6499286746873363,-0.19255114976874343,-0.24490176100716005
67,-1.1595536634826047,-1.7889903735083095,-1.903131457048111,-1.3355731440151244,-1.350458263863347,-1.5794343842776548,-2.6423304948022834,-1.8749885369404506,-3.8312050378679916,-0.5490503955496752,-2.661888684226974,-3.4487900156098195,-0.4316704643895968,-0.8277309112146605
68,-0.062007508039217105,-0.26923522964124996,-1.8210380443314744,-0.8348719845005204,-1.3513006396653455,-1.1086763801293438,-0.7056083344689652,0.46277873909561823,-2.80313072455757,-0.5813661930044974,-2.7710876340605792,-2.282517039639217,-0.4921501925505371,-1.2067035946674665
69,0.7942541516458793,1.2752420419998256,-1.4004378848802046,-0.06215420650989032,-0.8699424487866381,-0.2687741027017846,1.496145856964981,2.8284964983936454,-0.9382517835200657,-0.3967097442471312,-2.09863789013641,-0.6061692783688507,-0.4956765031446738,-1.4747510664098895
70,1.178065158616706,2.3876551838621287,-0.7918319356914432,0.7805813461615906,-0.06503594158944624,0.5719273593550893,3.1821721446644404,4.302358780232633,0.9631132093970924,-0.21490217942743106,-0.9764482474981078,1.0047408300451246,-0.5636925235971316,-1.70904590280878
71,1.0467326490399007,2.7468925854449546,-0.1663873956075416,1.4474013094483853,0.7769712698940558,1.062548047867027,3.735080250342514,4.25378254596962,2.155891197625307,-0.22710197121129852,0.15250702830562082,2.0350394756187,-0.761344513937353,-1.9191321849435348
72,0.537009246397108,2.255809487113799,0.3263204298631404,1.7211373102020209,1.3406410880927888,1.0040075223719613,2.917530671401548,2.580674949362351,2.2182126282124592,-0.5145616718618834,0.8899109207933574,2.186920466465642,-1.064280605876759,-2.030590065932165
73,-0.100818808686408,1.0659925969498345,0.5943281627393889,1.486713895067255,1.3976805382570257,0.4241211972164893,0.9633892330327997,-0.23548406401133995,1.1893390125022492,-1.0122171897213648,1.017458027428112,1.465793101312611,-1.3606003235560435,-1.912232584746401
74,-0.5987785268164257,-0.4666639437196196,0.6245539173294273,0.7797222248919139,0.8979355886786334,-0.4345510473963004,-1.490419328264555,-3.2805181500965466,-0.46566202514062893,-1.5292211012677084,0.5661615407858226,0.16967157551931475,-1.4881808310143583,-1.4372005102709586
75,-0.7631569071716294,-1.8830073494729802,0.48273058881176445,-0.20985345623993387,-0.0004915521184406995,-1.2093993728584833,-3.610937468343354,-5.513275183873975,-2.0446158624904505,-1.818136369763261,-0.20349302583650763,-1.21337293317921,-1.2953707099959464,-0.5539915780957597
76,-0.533540465458733,-2.7510165884270825,0.28975141655516556,-1.1854389408003978,-0.9770881011466439,-1.5591015436588065,-4.646830669154,-6.1206817113885945,-2.876878537230179,-1.667882565748387,-0.9032516591054733,-2.1669984930491997,-0.7048137046281909,0.6617381346061156
77,0.006353167222124529,-2.7905069161552474,0.17859770566273298,-1.832387096755154,-1.658295858044024,-1.2978779565525678,-4.1836670238980656,-4.799837271796106,-2.5730098122371095,-0.9881111535833057,-1.1653536607025226,-2.3169462023788276,0.24143538602007694,1.9976580499832632
78,0.6643744623057719,-1.9581461915896194,0.24303454279917128,-1.920836134293772,-1.7535691131826132,-0.47147002223186113,-2.29078098155902,-1.870939880311263,-1.1670550927355656,0.14367704374930843,-0.7857971292856726,-1.556800743439618,1.372008402159129,3.145548961695644
79,1.2063176569224827,-0.4683927359793377,0.49441362268164735,-1.3888347720024175,-1.1693731778180638,0.6542536322877933,0.4900992340015051,1.816343876543123,0.8957915047204862,1.488277444951289,0.18799362576723852,-0.08954790790454074,2.4176450367449034,3.7822620812653307
80,1.4300062227103743,1.2579220282324761,0.8435738828355752,-0.37538483065040534,-0.057920689965073664,1.6879358672212461,3.311414617035918,5.150245208882128,2.9173104438453015,2.7031939867892034,1.4576907996897215,1.6291923707391374,3.077799274327522,3.6662593979734273
81,1.2251744870544246,2.706615365691451,1.119312643864284,0.8120855659189999,1.22084037197239,2.2549564977716035,5.2870985628565235,7.108065395095111,4.1907467983949935,3.4365166204850057,2.5659899097686183,3.030412648541535,3.1056226835981895,2.719351222596625
82,0.6044657735000774,3.416558994821024,1.123614181537815,1.7896762085651974,2.214927957368246,2.1338646527073486,5.773563515178494,7.076014511115241,4.244504820615235,3.4292934093281886,3.0518623354730776,3.6118983302152476,2.388145617244781,1.0675840985687872
83,-0.2993896070524491,3.11991635550733,0.7097576618762583,2.221071910633716,2.5361348351270157,1.3364080039925204,4.573811495622328,5.036238992928626,3.0014741456083796,2.5971685867091994,2.6181570275441413,3.104063903563194,0.9979884519870419,-0.9724377193756563
84,-1.2663835684385127,1.835166847815811,-0.14238746408516909,1.9332845973480446,2.0023326972862114,0.10251139922715566,2.0003813933294206,1.565648098797418,0.8025220482135483,1.0676894583364163,1.2539900965786779,1.5689126091900047,-0.8013088432948681,-2.9596480221309656
85,-2.0423839581972345,-0.11811184365745007,-1.2837891293339274,0.9839286129971545,0.7153129962463405,-1.1860069582713184,-1.2206097611792632,-2.347091105146633,-1.7091527385666379,-0.8386421693793022,-0.7330509380877291,-0.6013970697045792,-2.6031694889920467,-4.430463398116371
86,-2.40040576814202,-2.193568267097918,-2.409624322926934,-0.34573154492008656,-0.9559420652574127,-2.1389751332961433,-4.171083286217877,-5.6033762631753,-3.7991488221325946,-2.6807969156074276,-2.791502300408745,-2.7898198211097394,-3.951773108891657,-5.010937325895744
87,-2.1975742921200956,-3.766724848265241,-3.1347938708447094,-1.633505988500371,-2.4846833665486354,-2.488276917775744,-6.016369828215075,-7.318498979807414,-4.874907660757101,-4.0061131109854955,-4.288723789524074,-4.334737823062188,-4.460674435818421,-4.511565946803167
88,-1.416507818291359,-4.31916966810435,-3.1152996491340215,-2.4503406723807157,-3.354612977744275,-2.1681521455295414,-6.248174898731703,-7.068912639868424,-4.663395675650085,-4.46823076192231,-4.712265071357713,-4.7321011657918115,-3.9255739544240615,-2.981966590757781
89,-0.18186554435463675,-3.604890761665213,-2.1791064223696623,-2.5026090106687744,-3.232054318613189,-1.3196182595248127,-4.822631011265136,-4.993072946929975,-3.2784295734428044,-3.9226928653955113,-3.8447859174804453,-3.7974569223021173,-2.3984808190039333,-0.7120941797471979
90,1.2540262295883697,-1.7459161275073574,-0.4205038778070174,-1.7350228772160448,-2.0846475874520913,-0.2233203911456078,-2.1566960227145056,-1.7241901270218263,-1.1620744943562953,-2.4729017016632575,-1.85281888283159,-1.7362342193605866,-0.1976692908166054,1.821743334497886
91,2.5576163236445155,0.7782125731531508,1.7819353509304048,-0.3582751953209646,-0.2058583677630275,0.8081125112679735,1.008633354624645,1.8152105568920802,1.0729884928186504,-0.4510273225801039,0.7445659001358639,0.9025698823087244,2.156441332674657,4.056249761497202
92,3.3869318803567143,3.252228592311478,3.842079448047317,1.2101456876601713,1.865021358973663,1.5341564112300934,3.830126278301488,4.688040317038646,2.8421166565461604,1.6640867433657607,3.2225997830800623,3.3787890854348257,4.068530196459629,5.466226038820563
93,3.4772724851617896,4.928507186265146,5.124792626048426,2.474722538096405,3.503778577592686,1.8483006035088787,5.598925758295047,6.2022572861116085,3.7605171720628516,3.371457842636302,4.869685910638457,4.975987715902716,5.027627363102782,5.689021234659394
94,2.7198576783063024,5.254142407993603,5.1431024558174645,3.019510923418911,4.193190373536201,1.779860843449021,5.922861376189046,6.08159408405831,3.7340140157768387,4.280479782543705,5.208912840117169,5.214970202586631,4.7542865532951595,4.619834506628722
95,1.2110534191627746,4.052096061141187,3.7321875295548113,2.6436559677822267,3.685812225725718,1.4443726326379769,4.80726799272442,4.505388512682278,2.9458948424140856,4.212782889009417,4.149463739965905,4.001074076655052,3.290953055595576,2.452962284310004
96,-0.7464539306393874,1.5966107257905164,1.1394287641720204,1.4305284908877423,2.086439190158882,0.9721110736681671,2.621022606842992,2.017111785041639,1.7542817979522836,3.24276911374114,2.016563799664419,1.659447524377596,1.0042486418902237,-0.3460248475579464
97,-2.698773663261471,-1.4470724015786633,-2.008107460720678,-0.2725909908836606,-0.17198255979676488,0.45068398927586123,-0.03121908204415171,-0.6604971501512723,0.5445159467229669,1.6646381086246615,-0.5517082650937281,-1.154138437980949,-1.5073585168232109,-3.1369642009926446
98,-4.145247070521745,-4.207135109651234,-4.860021696609474,-1.9585699968025152,-2.4522523521727977,-0.09257845684430445,-2.4854219628331458,-2.8418611027579193,-0.4063854691887709,-0.10289476998306571,-2.8076858644438043,-3.641826221272705,-3.5779626824231006,-5.2527276071069045
99,-4.669239453529891,-5.8618884384394585,-6.583057831231759,-3.1156345204003317,-4.099292701621082,-0.6643157199938746,-4.189974748110493,-4.061088295795834,-1.0047197038206261,-1.6426291742874417,-4.130173521857132,-5.0961246600125385,-4.664047143575024,-6.164239235808507
100,-4.060759428280045,-5.8912308111501295,-6.615120344945311,-3.3848926666258414,-4.632849655549704,-1.2535711519742698,-4.827962379844959,-4.171153273098825,-1.331842398011957,-2.6541965537748777,-4.2146101212904625,-5.107114928830733,-4.502414151004543,-5.620847981422592
101,-2.3939427362049686,-4.243617388592384,-4.852684303290792,-2.6708561520034957,-3.8888300125522606,-1.7870067969422896,-4.364813601930545,-3.3396285442963,-1.5629902518629628,-3.021753266962139,-3.154486024025944,-3.6823986908691313,-3.186346068185306,-3.7265383337798883
102,-0.03143406888057262,-1.363325980254138,-1.7078450136400611,-1.170883607090786,-2.067500751908585,-2.1206078219871474,-3.0200073711848425,-1.9536693086887258,-1.8514318825060958,-2.8148751605352254,-1.3889030721681086,-1.243741529221927,-1.1343307716029158,-0.9268375937167064
103,2.453216478199894,1.9343085753892628,1.9902914256167057,0.6847389184483212,0.3250277499507675,-2.0803323950321015,-1.1817065631715764,-0.47310686524743056,-2.228793511429542,-2.228026981698633,0.46250269871070554,1.4986674425353428,1.0406018882530494,2.095487280087585
104,4.419854630603596,4.703795528945551,5.2262816905299685,2.3624781783388515,2.62381668320465,-1.539587574379546,0.7053088615004661,0.7174069978750902,-2.565256816742403,-1.486202724833344,1.8175307232998208,3.7565938176821856,2.7205732473562723,4.592027410068382
105,5.335506231134389,6.152836581638739,7.09394826408204,3.3842877335914685,4.196498840021221,-0.5006949593349396,2.2467387482595935,1.4108747642852781,-2.6093486500607046,-0.7558349637053278,2.325322801980465,4.895496711411982,3.4712205205602866,5.943055249378345
106,4.928164630103553,5.879800607356478,7.066396467980378,3.4667811020066135,4.622508757308772,0.8594749985084368,3.176382538781752,1.6074236332628529,-2.0952437546255425,-0.09640241968961526,1.9692446789839189,4.617963330393567,3.167901128302563,5.821320714995368
107,3.2734866153129043,3.9908420862412397,5.15540590491631,2.5995539638585172,3.8080954365596056,2.2086508378639276,3.3916937537708085,1.4692583411359905,-0.8775853582498169,0.5294731954468854,1.0453190658215097,3.0440784043373235,2.018881440739385,4.2788631752738295
108,0.7849001520165121,1.060394263243984,1.9087419465038218,1.041129039996303,2.0049764202871634,3.1469614276975544,2.947259327430447,1.2245329680685026,0.9599307347700786,1.1946886022315937,0.02797724153907605,0.6657861020208314,0.4790312792730656,1.7314064302101084
109,-1.8941295001300942,-2.0510106944387547,-1.754805148475862,-0.7633733424046176,-0.2703753202680101,3.338020392077206,2.016140349709962,1.0594753310835927,3.070178048032662,1.9250249166550641,-0.6243663085447206,-1.8087484467213546,-0.915102277669664,-1.155813279604137
110,-4.066658870833222,-4.4620423182386695,-4.820804604950599,-2.3154099318488393,-2.390410414188196,2.6367929858008554,0.834425085388027,1.0400009177970382,4.906378750062098,2.63613128705101,-0.6498922459594269,-3.670979759639455,-1.73075425464529,-3.6483498252350377
111,-5.176309308236663,-5.53371792206772,-6.4779361492928835,-3.2056995946290225,-3.7960115332479094,1.164090722953427,-0.3551775180294727,1.0915037306347757,5.873430551350241,3.1249579608589944,-0.08188625126566587,-4.420465847505663,-1.779884870940768,-5.137649087061368
112,-4.960913328009457,-5.047822539795004,-6.346727996792075,-3.224411603382439,-4.148769843527226,-0.7061140653613446,-1.3484325208821881,1.042856845489947,5.522776412746927,3.128629874438545,0.7716998205072898,-3.9024470693169886,-1.166963361787166,-5.296319625793881
113,-3.5198536517443935,-3.2479262988696234,-4.569502314044039,-2.408846682827237,-3.4132428267712926,-2.449511064497681,-2.0068877492506285,0.7158611489395293,3.726541399941477,2.4341565304347177,1.4590488068290672,-2.3352346558515613,-0.22920962092478894,-4.151967769618668
114,-1.2760333592254514,-0.7367796590464838,-1.7394593759847983,-1.018782550978752,-1.8491407518628349,-3.5535379497286645,-2.2668914383034315,0.02344008566796746,0.7676085917590473,0.997007043774308,1.5745229594327381,-0.2242744314831742,0.6054645085974348,-2.062763533685729
115,1.1537197374090784,1.7293378659361245,1.3007916290113406,0.5486567327611287,0.07897083362113688,-3.6841554514006027,-2.1342524423055482,-0.964407110878324,-2.6943833255478205,-0.9833388379654534,0.9335513784521147,1.8044896816161788,0.9874817848723423,0.3936549978834062
116,3.138116411814524,3.4775834016216725,3.7209194122272944,1.8761735803188992,1.8431103210721338,-2.7986920703726335,-1.670468552490897,-2.0165345437562143,-5.782108447223862,-3.0715837790354117,-0.3368633712260021,3.195788483229218,0.7772392611335182,2.582894850433311
117,4.205290569128992,4.109594991337169,4.939799235453951,2.6401421202081425,3.0003473276238117,-1.1638365519259724,-0.9759798877123039,-2.804931454374645,-7.643485729662686,-4.6997583493472135,-1.829261894672474,3.6204765158439547,0.09055871419478288,3.9811467568641965
118,4.160161675222152,3.5901148051342,4.766984186313275,2.6896746797386695,3.305553466940448,0.7289706031326415,-0.17376279831932837,-3.0172464920928026,-7.706332846956648,-5.339272926599184,-2.9990346556531233,3.050595366469947,-0.7568282142104059,4.302197722294596
119,3.1147716578871423,2.214922464335437,3.414395053848516,2.0720637358468528,2.759651250191473,2.322108089955062,0.605949908132003,-2.4774682926518192,-5.86420164222149,-4.685421907995601,-3.367067580665105,1.7382249835744938,-1.3814206653757506,3.553378402584342
120,1.4298070705028927,0.4810574688270257,1.3882974188549948,1.0025191422698225,1.5857773660300472,3.16962005407355,1.2406779445481297,-1.2291462768227217,-2.5309836442096985,-2.787101595850205,-2.7054761222525254,0.1138550042755024,-1.4874659520878348,2.0110198231776284
121,-0.407495301650759,-1.0880038491164317,-0.6916752966890748,-0.20820263839100436,0.1471554381080887,3.0735565059607186,1.6313062677216568,0.45294774650708114,1.4585439894287113,-0.06896082998704631,-1.1357947200357734,-1.3563748255355645,-0.9849550279393182,0.12799037528019663
122,-1.927242421319721,-2.1007413449407304,-2.2822733853169996,-1.2444377744908919,-1.1643653542673635,2.133882650635077,1.7176755675573712,2.132015467575838,5.076639908743783,2.77120985463966,0.8985841612126899,-2.3066428665228074,-0.025298536171759475,-1.597259683951411
123,-2.798869187612097,-2.391180886717324,-3.0565203559799126,-1.8681715280519198,-2.0350260464223036,0.6985659731277626,1.4913797044251642,3.3393556868531586,7.392019568242433,4.962871221361631,2.7771356082549445,-2.560501968970958,1.0571279993318314,-2.752857818793056
124,-2.899314902134128,-2.0273923213400526,-2.9589608553650786,-1.972211384847931,-2.3023158392546,-0.7642923917138428,1.0014877056837581,3.7225829491431073,7.8332525290314825,5.897491477169601,3.9121392716444037,-2.152671413452218,1.8728004507364913,-3.1119926324080414
125,-2.315564421721947,-1.2460300767292076,-2.1732624477083884,-1.5930065745092319,-1.978613857347337,-1.8244097529877406,0.34915242766523713,3.1611830773585914,6.3459169890242695,5.319443082219649,3.948191750830994,-1.2869261022831011,2.1235847140285995,-2.6742242152069675
126,-1.2905862257004275,-0.3471977491217601,-1.0270837338366121,-0.8842813519289712,-1.22511501327364,-2.22184042052822,-0.33052148515692825,1.8089424718463145,3.3963618584796693,3.4077642245523494,2.8802367134190905,-0.2527086997989194,1.7118573551803429,-1.6430720680229822
127,-0.13664057304515517,0.4084608458933673,0.1256320678341534,-0.06306287275320972,-0.28961712110715987,-1.93119691156844,-0.8970026221596225,0.04781362097795465,-0.17688287561930546,0.7200714134082286,1.0496994883435304,0.6678687292876007,0.772320242261228,-0.35112216047274997
