,AF3,F7,F3,FC5,T7,P7,O1,O2,P8,T8,FC6,F4,F8,AF4
0,0.09257993778966639,-0.15090704029763877,-0.08384867344275787,-0.09380283405642682,0.03423682784216768,-0.08620207352726804,-0.416398958547413,-0.2555564261997436,-0.3617237166603478,-0.160021360114032,0.06475539492342965,0.28923810592069377,0.10912580122746839,0.34907285720308745
1,2.2814012665352843,1.1367783205132636,3.0314912827315457,2.2097589263699136,2.288764779655813,2.9484507153483985,3.165258020557387,0.4033686628462042,3.2450380431106285,1.4941882730791145,-0.6253931426766012,0.2897685833747966,-0.8185902304124378,-0.2858837684927895
2,3.9834415600554287,2.1390377079818723,5.439348851001063,4.068092912848173,4.00992152139529,5.2635918657715415,5.950780310935336,0.9174548783194623,6.010915044854454,2.72888364200059,-1.1545953469049384,0.26625630884353874,-1.5292155121883082,-0.8858153656503933
3,4.774765292605684,2.564757528504578,6.513532846532253,5.048120188680763,4.764158566410436,6.260749716634115,7.221876689169955,1.1272069946942267,7.193579477956136,3.1459499749960806,-1.477077960766512,0.1418553376273042,-1.928699983653386,-1.435329300885857
4,4.4421859600851965,2.284644783243436,5.967673168565843,4.900637968089401,4.352354349521287,5.669257127718845,6.654429792286253,0.9692611416423345,6.477489961249974,2.5891409904598817,-1.5941207762348941,-0.13679413171008936,-1.992360903835812,-1.9076201116257023
5,3.0457734816621427,1.3727046482373604,3.9399103550978882,3.629693352627371,2.866258925300021,3.625952167185884,4.411090944257587,0.49659495466422754,4.06348808636171,1.1974433418517951,-1.5328488090570545,-0.5654669545791959,-1.7529731463094744,-2.2453796655468685
6,0.9141271236690294,0.08777867571280663,0.9621447237520933,1.506925034442207,0.6720307844624924,0.6508833772388205,1.1027230194058468,-0.13746543512092915,0.6152729033049459,-0.6300292777421145,-1.3200837282762807,-1.063999492463141,-1.2782623417953003,-2.3568711096377735
7,-1.430624809770724,-1.2003220268578225,-2.1804708183660764,-0.979087184786488,-1.6781073701092548,-2.480556762125998,-2.375280530387785,-0.7267356545605016,-2.9236345169625433,-2.3483526037125406,-0.9649942330273414,-1.4844782390580002,-0.6483888665737222,-2.1345600085487955
8,-3.402512833912069,-2.118957042480019,-4.662709579054897,-3.2328587840801513,-3.586050003920205,-4.940320324693577,-5.090002736169133,-1.076736762987958,-5.59209925963207,-3.427527603853685,-0.46088709086015994,-1.6491235320192081,0.05763826347637723,-1.4954222058929871
9,-4.5042673716446755,-2.403400123582194,-5.846278724922062,-4.698686397671634,-4.564615614493526,-6.0731147476458265,-6.3332419773562,-1.0665581501459003,-6.679352522140126,-3.512801692535659,0.19245043904779705,-1.4103869825550064,0.7632535053492158,-0.43184941201581006
10,-4.461942319765789,-1.9771106562363923,-5.456265262617161,-5.007610607914724,-4.36903361390442,-5.5817536564601244,-5.822857658797356,-0.6888406066099212,-5.92276312930979,-2.537059979179486,0.9555397003334348,-0.7154936804258859,1.3871826008377863,0.9461832286455756
11,-3.3028544560701647,-0.9767560609822795,-3.6555695421330676,-4.083386792357261,-3.0657098376711107,-3.616712976559057,-3.781593795852543,-0.05509080515548936,-3.5785479379961718,-0.750707805074377,1.7230208699284075,0.3481632008957866,1.837222737519708,2.3992087526289505
12,-1.3518222383459044,0.2869092733012233,-0.9943450489847007,-2.1734194156340725,-1.0165614446989926,-0.7389880157555369,-0.8663204167252999,0.6361012979002756,-0.34444004007940593,1.3423391470728185,2.3231377196654197,1.5483566146304897,2.015222167378507,3.591690977945195
13,0.8567339428728178,1.4220987181281974,1.752278710848077,0.21032982813616194,1.2195470604998606,2.237993180721583,2.0340879943744854,1.1590604476636912,2.84404416376297,3.126712088250198,2.553151945401207,2.554834296226409,1.8386931042098607,4.171352944102517
14,2.728147128344886,2.075979468495627,3.8114286560083697,2.4291794000748332,3.0423633926121867,4.483955155612969,4.071977247166533,1.3314820570027366,5.0850452784412346,4.056206250294207,2.2457735848967237,3.0310710817290234,1.2754977355121953,3.876686217534568
15,3.7758550926375465,2.045293068776626,4.637529857176488,3.89748948599863,3.9788704875601053,5.395103695521223,4.700339657099376,1.0738994787833,5.7704173751827215,3.8204340480881465,1.3456741274764141,2.7462283985130957,0.37871813602476717,2.639646660389459
16,3.7587083951845686,1.3427801952330116,4.067552189007323,4.251521414501289,3.8155013664324344,4.770220116138201,3.835649686664783,0.4394628060943121,4.758034225894756,2.4469283711212126,-0.03456681860623451,1.6704447759374295,-0.6962371593393235,0.6452405876685787
17,2.7451315950231225,0.1969901989692655,2.3592407453556534,3.4546235501569886,2.654031080076879,2.863604155251127,1.8709439479672152,-0.3961731081321855,2.4055347330024524,0.3052682830519381,-1.6077924738588598,0.016378783092759173,-1.7076479279956702,-1.681587993558409
18,1.0838347780206525,-1.0168093015356878,0.10068793208145954,1.8036282706085707,0.8737282640675977,0.2972296812489365,-0.4656459764781409,-1.1832423446006455,-0.54414587751776,-1.9920832846178191,-2.968992089522997,-1.796214464210966,-2.3813397886497745,-3.769712025830969
19,-0.710001383954628,-1.8949598401640253,-1.9803643992769442,-0.1680078370862364,-0.988811301623108,-2.140135157494139,-2.360377595332163,-1.6712643874902453,-3.190591447416333,-3.7663281941178894,-3.706554882764201,-3.2513061673700063,-2.4916869702980002,-5.056081483202789
20,-2.116871890621578,-2.1365113734235135,-3.2472581685250668,-1.860870959357628,-2.4046856971808364,-3.7418538478487027,-3.188150393276393,-1.6861069574361094,-4.747941307219384,-4.475451356000697,-3.5361904987346544,-3.893508064677964,-1.9448929945192954,-5.155854104261888
21,-2.7711898990689248,-1.6448009751662283,-3.3518088842500413,-2.799133070354771,-3.0105894839116454,-4.099392774920032,-2.71926440678415,-1.187442068283874,-4.778742131826447,-3.8826022027051668,-2.4119852150676095,-3.4813711147089768,-0.833218448434047,-3.992727381785167
22,-2.564511479085321,-0.5650117298280021,-2.335367130447171,-2.776476865809964,-2.7099090275963116,-3.2156063044721193,-1.1888909710184934,-0.2883128626866409,-3.3191782768623455,-2.136538996436287,-0.5713311123165759,-2.0830784225430454,0.5658688047842985,-1.8419733944684458
23,-1.6611760681933259,0.757104602774106,-0.601742193292492,-1.9098063887211536,-1.6861075318960823,-1.480673411691205,0.7937901182292195,0.7707665673775159,-0.85883588692441,0.26382524509880473,1.51043647842191,-0.07587846486220948,1.8549281658270986,0.735076317343877
24,-0.4238598658777015,1.8844865319518438,1.2276980600281204,-0.5833877296992938,-0.32670787862027567,0.4771703042923548,2.464753707601271,1.687322718775282,1.8170338108734576,2.6134541301891683,3.2495931573442616,1.9582532435523432,2.632473893737436,3.0502354980534716
25,0.7222780550137083,2.4318733769390155,2.5272991082646423,0.6960158620459909,0.9141351190712135,2.0118327487691476,3.1763323397479866,2.1839777706294075,3.872695667082808,4.212004522736092,4.13077123039364,3.411679588998863,2.624965831600207,4.493181477191649
26,1.4371728325062165,2.1958804197596264,2.8765518776332635,1.4813439952280365,1.6666488428754043,2.6735663790787894,2.6263916897201125,2.091753464240516,4.678228533732947,4.577243476299956,3.8739969026876473,3.8472785259348883,1.789862353827937,4.715498224944044
27,1.5725426662442539,1.2278511528476401,2.1951717798957002,1.5401585524938082,1.759128940790024,2.3447964513057316,0.9663146856496264,1.4045046941142638,3.998260638520405,3.5944008235536646,2.534459426177997,3.144792375805811,0.35013974527666003,3.732592111417566
28,1.201491052283805,-0.1767820180696288,0.7591656684797589,0.9277883932210187,1.257919755661715,1.254885458697769,-1.2490338961017555,0.28719344026450644,2.056538149831941,1.5537243288645508,0.4974683421753034,1.5448887265933235,-1.2586321196338057,1.908738591028843
29,0.5644936058610227,-1.5713473557727704,-0.9055347389033815,-0.0460689794235939,0.4240388434048789,-0.1251134963356117,-3.2513462744380637,-0.9659168332255048,-0.5409736931698315,-0.9367571963146868,-1.634478218972216,-0.4274619446870347,-2.518012054814796,-0.16980558301113827
30,-0.04306309508241105,-2.5036849255297127,-2.2129422715687905,-0.9433880401585082,-0.39400041830213556,-1.2647646033837154,-4.3227433793053756,-2.012092992011611,-2.997756657028756,-3.1367179035150397,-3.2284738339651975,-2.136704390882266,-2.9943452067019147,-1.8900789387303194
31,-0.39501269887358015,-2.6666200559226443,-2.722798164478192,-1.3690106381778104,-0.8903335308809022,-1.76553022820557,-4.042510115214546,-2.5569434361902292,-4.571635635225996,-4.3992363409918935,-3.8212269595211437,-3.0490375839389294,-2.489038329737639,-2.8089105905313554
32,-0.42024594089442735,-2.0020901212878672,-2.28985480009134,-1.1232824985293877,-0.9079692059683696,-1.493055188285698,-2.4325962125784324,-2.438933449619144,-4.796517358000388,-4.365730757055397,-3.2655683194174387,-2.910030670106622,-1.1182957852153312,-2.7835216712038817
33,-0.21681930390186668,-0.7225216935275306,-1.1050395101618775,-0.27954938518822475,-0.4849958043261512,-0.6069473692837208,0.046506009057397026,-1.6766263019448475,-3.6140640997805873,-3.0692448329326902,-1.7737808540859692,-1.8253312873293308,0.7095095540651474,-1.9930707199237827
34,0.009250690945658694,0.7591895242900016,0.3840320310504071,0.8421317205090997,0.1722146293549551,0.5164378360704144,2.6461677068223035,-0.46462233689171406,-1.3786337892495075,-0.915194653814158,0.15704680839652913,-0.2160834784142633,2.4165774873145724,-0.847340720547888
35,0.05272173100937173,1.9681804940889354,1.6423383812813412,1.7952120167483052,0.7751651726366166,1.4339720968313152,4.573403905168106,0.8805329652859671,1.2605111396770228,1.4514320185080272,1.911926750716953,1.3347618818944151,3.4410200027726523,0.1806799182742797
36,-0.18262160923443982,2.5273812307875168,2.2436563552200077,2.176089575334332,1.0646962113032152,1.800016506711568,5.244798549344181,2.0083129726989384,3.558173184454867,3.3471938597035478,2.9597270162221188,2.2899315969819956,3.4236139839630035,0.7346485831701034
37,-0.6248018982047266,2.283173817962463,2.021776337082063,1.7797463067558152,0.9064972158518037,1.4849916384998787,4.466283725199567,2.6300894361613585,4.889418984898333,4.254053043184456,3.0209634564063736,2.3446092649008157,2.3319255266984222,0.7001543151973502
38,-1.0524137986497963,1.3530053699429934,1.1220349286057243,0.6835728423954129,0.33733070093665174,0.6088043737993687,2.482195768812568,2.5952791991661375,4.918176980955033,3.9624419898618837,2.1458043418195905,1.5260202684987172,0.47766554562875696,0.23000155031830477
39,-1.187576590484534,0.0783591889057301,-0.06435673696099913,-0.7721852767342552,-0.45201147226623906,-0.516693922353507,-0.11702723523385153,1.9268602571366078,3.672782232895611,2.6129212100773826,0.6789857751721117,0.17169219814553013,-1.5806366865493613,-0.33749017373299134
40,-0.8268824253219108,-1.099767967382211,-1.0571552387832535,-2.10086452488268,-1.1877799943584495,-1.508644834812093,-2.5915231515455077,0.8081582791929109,1.5147578770333308,0.6307959658522148,-0.8715818537034559,-1.2030213029531762,-3.2176816733379274,-0.6331432289985119
41,0.04477692859029708,-1.797783328361187,-1.4751108420005337,-2.840612461543653,-1.6105816332934202,-2.0491516304874104,-4.28328710834538,-0.4726055845139582,-0.9800888350724616,-1.4174738921214292,-2.012721040643725,-2.0971762178474616,-3.943063516857149,-0.4223499029445768
42,1.2095369809005019,-1.8219888150829597,-1.1834925791187838,-2.718339267456666,-1.5636364760783357,-1.9865719245202036,-4.804994184349637,-1.601802247230884,-3.1859212649748874,-2.9950186622505197,-2.4265288599926094,-2.2043278801288877,-3.5558098239408658,0.28540921225357513
43,2.2680138061246433,-1.2289905885764363,-0.34460374822108486,-1.7472830645524489,-1.0421989924509671,-1.3696060626627768,-4.128773784194726,-2.320374501552587,-4.586703433983221,-3.7381016900529236,-2.0591863749779122,-1.5148575586495994,-2.199993314016586,1.2283446800853437
44,2.7758210142800235,-0.29327010285119326,0.6485283164709974,-0.223703545768817,-0.1900169616312513,-0.40945546637889735,-2.5552975494557475,-2.4829536828989065,-4.890396886858134,-3.533123485413297,-1.1124830062130688,-0.30570800581333624,-0.30504980436306645,1.9913919436707734
45,2.4178661283175362,0.6042201328784607,1.3304904144406624,1.3748937438358677,0.751943332510319,0.6077091750278298,-0.5854537374633604,-2.083008385435185,-4.075576908780118,-2.5139215963781463,0.05090308312513728,0.9741747679344827,1.5647171037420242,2.1757577396643284
46,1.1535915244991346,1.1233193479190855,1.353378654607842,2.552319021829657,1.5235412405302602,1.4199529426912942,1.2524321278949528,-1.2418826544099688,-2.370333658993834,-0.9930080031290064,1.0470817947228976,1.8757047526899968,2.8958947792542458,1.572870617858823
47,-0.7276753909427208,1.0918730489019386,0.6347746099108471,2.9586534969257734,1.9225330197882644,1.8630500515512596,2.557580188700653,-0.16942124267452233,-0.18021601092048442,0.6416776589551191,1.601499768348975,2.1122768727377697,3.3815142642750264,0.2724505497273761
48,-2.6715230392171607,0.5654273637912732,-0.5947730209432162,2.500219167540506,1.8565814226268862,1.8960776473825842,3.1453977299262963,0.8902536416416326,2.010143035988243,2.0287761775355944,1.6246884059446378,1.6530571104360139,2.995268418380937,-1.3422723275713375
49,-4.029352127565111,-0.20182305118261484,-1.8659240390561551,1.358761828508324,1.3576022369278786,1.57930573208752,3.050852890238867,1.7133201075818918,3.73803311912907,2.907184798608302,1.2124099992201343,0.7159007272143376,1.9655734715794073,-2.7167379329229253
50,-4.279932921175971,-0.8621844223027777,-2.641626911336567,-0.08249526882815998,0.5599415778450418,1.0240032247822728,2.460704664765644,2.1397734996796673,4.648984690679119,3.149992142336592,0.5798439095324923,-0.3315712297923451,0.6679314908752796,-3.3236187340437935
51,-3.223786180330798,-1.1144601535967218,-2.5231652900607053,-1.3755653015164317,-0.34492312616317095,0.3423461593888837,1.6125096858127679,2.099494252928197,4.558404835468457,2.762607317724119,-0.036769330435637036,-1.1197721872916306,-0.5179981149345645,-2.865481563765409
52,-1.0782626461094948,-0.8248699864847179,-1.4146869631959655,-2.1566043910727783,-1.1597512200166817,-0.3794575965142206,0.7048414648306954,1.6193179340000834,3.4836087092610915,1.858241943131786,-0.4691174172063654,-1.4145820203334563,-1.3315377136301896,-1.4045565017945898
53,1.56626633799982,-0.0827089963993604,0.4166939768863937,-2.255314047092938,-1.7238709797559417,-1.0770531351953656,-0.14835689893985934,0.8128552107685644,1.6434403708430514,0.6249373730273423,-0.6632429221464263,-1.1924961439511819,-1.6918940494290364,0.6331134777978381
54,3.9205863134601473,0.8304459115225379,2.411255366415606,-1.730451912349773,-1.9383927176129185,-1.682939318791999,-0.9097103684497123,-0.14364206270086594,-0.57649917350537,-0.7069694076441314,-0.6711666344372939,-0.6286285031099407,-1.6821351311136685,2.5870181086820474
55,5.246138371087572,1.5464394884065251,3.8966361905155695,-0.8254850717489975,-1.7741591189407648,-2.102550841553136,-1.5719053538318168,-1.0455252882523798,-2.6927492930785815,-1.895334341401315,-0.5992820290200209,-0.00809769754877101,-1.4728281128327843,3.783674147049834
56,5.096735150780034,1.751413475740677,4.316639956689194,0.1330312023111947,-1.2676175981085256,-2.2135752035829115,-2.1040326841603685,-1.6996565622051831,-4.221075606063667,-2.7177571422510787,-0.5419107908859486,0.3991625331906109,-1.2243268597826897,3.7735141664144254
57,3.4702572053661926,1.3089478356503923,3.4295972144932487,0.8534992483027292,-0.5107566976150472,-1.8988752633075625,-2.4230316692748324,-1.9642654915567028,-4.786927542462944,-3.0068173846818746,-0.5318286724173273,0.44791181172008415,-1.0118405245405813,2.4983073909686015
58,0.817936769022403,0.3192036690878331,1.4066130643926262,1.1708620325713777,0.3615489033211041,-1.1048417943356863,-2.408568839105301,-1.781446312993296,-4.225279113937856,-2.686415789117776,-0.5290900489607093,0.16838843089594593,-0.8040957778339091,0.3270767228937806
59,-2.092845132935608,-0.9084116979763356,-1.2058274472950559,1.0825222239300565,1.1875016976114512,0.09975427866755668,-1.9573454423884133,-1.1942423501716626,-2.6411213816624506,-1.8000005781716462,-0.4504407191263796,-0.2586629071753341,-0.5009227904460957,-2.0555984227604527
60,-4.416736438508287,-1.95963830827134,-3.6480742869344924,0.7224561411219583,1.8006857729840762,1.496034169498614,-1.05205171380431,-0.3417452130790566,-0.4059272075587347,-0.517772321569318,-0.2227224809972151,-0.5882120676866859,-0.008538408238797692,-3.8725687754477467
61,-5.490724221925456,-2.4593136167041587,-5.181436062697969,0.29044427677435136,2.060365058986764,2.7423331590446636,0.18968371065616677,0.5699866711088158,1.92018884845662,0.8875365519427989,0.16679983423344513,-0.6198723807115795,0.6850920505330919,-4.512305722813972
62,-5.032042702148682,-2.2034190142792465,-5.317975431868033,-0.0321951521351004,1.8865398592139155,3.4601664394761396,1.5152145728188435,1.3167768165571787,3.728911778727033,2.0976874162531782,0.6480402653635358,-0.2838935843791602,1.471941539462759,-3.733659955401259
63,-3.2122866529584613,-1.2327486195059016,-3.972573172948743,-0.14770864578273388,1.2905221346555742,3.3570103200654984,2.595044896032095,1.7137037196543288,4.532326732956422,2.827613292849233,1.0850344212571739,0.32956517786656575,2.1429685173537107,-1.747606458553801
64,-0.5891947539248102,0.17673000447862744,-1.4907978629553953,-0.0662282781422243,0.38823208318916635,2.3440866142456556,3.1234191229239947,1.6653760320830215,4.110436963522796,2.903822913347314,1.32540964292547,1.0067669263786563,2.4592161513402893,0.8502881605528048
65,2.0755330526476627,1.6020980984170956,1.4530695107102907,0.1144630018466215,-0.6147099043671672,0.6020686033746646,2.925354812234433,1.1937699153584909,2.5886559382223173,2.3168505978097476,1.2609355846354697,1.4943276611604919,2.246410787212631,3.2714700567670243
66,4.049261702084645,2.608817551147571,4.053052106344625,0.2603955228270707,-1.4690053495464097,-1.4389383796926647,2.0280118431651144,0.4338886608514816,0.4140399804377837,1.2280559765639456,0.8730963664168173,1.5950650883381057,1.4736123104049614,4.783823869767591
67,4.837416577877441,2.8871536698065574,5.601602029272521,0.2608173826132522,-1.9498779021135837,-3.210048014211961,0.6654927868205232,-0.40300850679396305,-1.7700787188668965,-0.07456069151733873,0.24465474938058798,1.2381828042738294,0.2824057542425322,4.936056717078207
68,4.306960534516543,2.345605507347748,5.684564538238182,0.07230959884259822,-1.9275284205731218,-4.175713665585518,-0.7892380063822411,-1.088617168162409,-3.31717788483826,-1.2592492042347745,-0.46682413705381953,0.49954435423154997,-1.0469002000005483,3.6864894488952955
69,2.694782736509777,1.1338176682455525,4.287290706774187,-0.2668632693649935,-1.4149649982681471,-4.0117881346843385,-1.9433211463293814,-1.4418669721777932,-3.779072969840674,-2.0457869129415003,-1.0815526110578788,-0.43047872519612873,-2.1802371766745057,1.4008697037800324
70,0.5096104288704918,-0.4081619341953649,1.787283491069549,-0.6537183021960833,-0.5727337815561803,-2.7263975859640124,-2.511324178156948,-1.379052657827439,-3.049975774425908,-2.2820283534360906,-1.4543392323093711,-1.3137363546081737,-2.8339876025126047,-1.2718397756237485
71,-1.6326378911044719,-1.8540729072240436,-1.1577848455417883,-0.9588434401539039,0.3364409593434009,-0.6762149661038418,-2.4041710691019946,-0.9349855009023738,-1.4030704400085368,-1.9771949626618648,-1.5138490718025126,-1.9370660609585182,-2.859864522096159,-3.5989966242078832
72,-3.1850480664748604,-2.814239394153485,-3.790178561939775,-1.0700623563360017,1.0318282399042715,1.5345668664913428,-1.7470509336521804,-0.24945809846440525,0.5962108431619074,-1.2829652645315741,-1.2718856111082861,-2.1649403983552507,-2.2809276177791005,-4.973319707309004
73,-3.8063119584544323,-3.0400316898401862,-5.4489939252366675,-0.9264746211174479,1.3102696275624872,3.2435445662216322,-0.8207281102559236,0.4759235976559881,2.2747012609417805,-0.43203919628879395,-0.8041591096543845,-1.9586895079762383,-1.2695900948356753,-5.069513261149897
74,-3.425454204267218,-2.4825506260854504,-5.732827466833885,-0.534036790799052,1.1186702833204982,3.945378711152102,0.05001369199753806,1.0366839418754814,3.0741714019179214,0.3417216382417491,-0.2158044671687763,-1.365274630571974,-0.08124117613336941,-3.909427311282374
75,-2.227897490701114,-1.2944342029133515,-4.590388213392503,0.03826719406298045,0.5747226435851357,3.4588018125323567,0.6171083033632214,1.2823100420530278,2.737967743014684,0.8726945281484452,0.390680274342849,-0.4903661270913448,1.0273463306695507,-1.8285286589941137
76,-0.5790242765779462,0.21938938818510595,-2.322002963753315,0.6765294456196261,-0.07516710771443584,1.9859458550375173,0.792710848431363,1.1548800703212043,1.3981268132930196,1.0998800302825407,0.9319673014518705,0.5273155683730094,1.8634230350800869,0.634417312182615
77,1.0848657723426918,1.683887892573171,0.5028252453362752,1.2468417670809495,-0.5483395629466966,0.041499378883647055,0.6645140084841946,0.6999879809307693,-0.46775060780936994,1.0620785512766129,1.3425226021704617,1.5307344834081291,2.327176215712907,2.8849637650668734
78,2.366012177057993,2.745819755026752,3.188205534317658,1.620859668053921,-0.6359979037897704,-1.7248468809805724,0.4393305952631202,0.04926531159786865,-2.1967642482095244,0.8599049824088895,1.5640351741685512,2.3505567400366556,2.402391030558392,4.415689771459451
79,2.9899614299881403,3.15379429007436,5.079959957734853,1.6988154310152388,-0.28935456644229796,-2.7509620306476883,0.3398681885718655,-0.6182570787545062,-3.1651532976320174,0.6042222353651682,1.539902065632995,2.813948706287719,2.124219119667275,4.911538859591473
80,2.8522973293562073,2.8110850078850307,5.720672837026374,1.4291258744048214,0.3530004906466042,-2.751734526175189,0.49795098477868643,-1.1239667462933696,-3.0017590582433904,0.37315476764350386,1.225850971119441,2.7686504547765427,1.5473007721389278,4.301365502078144
81,2.0253884093638668,1.7934351682978407,4.957545363737418,0.8238829554370389,1.0104975358521557,-1.808978688560743,0.888480492806289,-1.3340172756043083,-1.7185427692776805,0.19317888736555222,0.6172105096096201,2.126189285341852,0.7329396611530715,2.7547609544654006
82,0.7309435703723992,0.3310511119850538,2.9792417776234505,-0.032435886786900604,1.3652342255433159,-0.330992420408939,1.3318566640125895,-1.1902820887911225,0.2862868128493945,0.04748002738269048,-0.21933389104425524,0.9137543808309582,-0.24017019799316022,0.6336097830858701
83,-0.7124574271662539,-1.2406193462659498,0.27260526796896767,-0.9860403573289891,1.1885378754103695,1.1023146748478168,1.5650360146010343,-0.7224794266582248,2.3544969015779658,-0.0974124810956725,-1.129528992533764,-0.688275081226093,-1.2535606128453547,-1.5878158992098181
84,-1.9571527881631197,-2.552564470242108,-2.4928435231802046,-1.8340165874105452,0.44149359823349016,1.9520597801074544,1.3538044527301494,-0.04056789096863452,3.78234208307779,-0.2624602997644238,-1.888833638316825,-2.3492428128862595,-2.136786026785593,-3.4199104053940412
85,-2.699751750101116,-3.2840033404562083,-4.627988419912092,-2.3635972039707123,-0.6910671073613696,1.9141414753296822,0.6020167964350813,0.6899735925848771,4.05314794876694,-0.43903878154408754,-2.2584924277070093,-3.6474671947902895,-2.6850381658953393,-4.457763572124576
86,-2.749187310919967,-3.2388971211545985,-5.597179827564505,-2.4056128108580106,-1.8501330478475628,1.0252627672407613,-0.58605528737474,1.2850287322410816,3.0119444859646505,-0.5908597084961842,-2.0672365802416746,-4.180582209866068,-2.7120442374219635,-4.468863447898645
87,-2.0766962153201804,-2.4002003077446656,-5.15820205426612,-1.889286694548296,-2.621561340493417,-0.355267631539425,-1.9168772828781986,1.5843207655748746,0.9251688165406537,-0.6717341670379289,-1.2894430815666211,-3.6977051902852014,-2.123823175039387,-3.4514144880015225
88,-0.8342443676111195,-0.946435191054077,-3.430921017203884,-0.8802924136228579,-2.6836047250207655,-1.679634713576359,-2.991603054444761,1.4915889519480616,-1.5943249507049013,-0.6485299180837909,-0.08524380741546247,-2.2079228795999963,-0.9829152507409916,-1.64663675371218
89,0.6690118298999167,0.7787720764528678,-0.8721424025521536,0.41514404889039297,-1.9296151913072164,-2.4122358912327653,-3.4351166800863546,1.003674529985091,-3.773667550120264,-0.5171206885246792,1.2223905481101136,-0.0196664077685981,0.47070060665101204,0.505804684273949
90,2.0343017789999718,2.3430166909661305,1.8417772526616805,1.6890794838588188,-0.5199674977830372,-2.2250974914122343,-3.0256914107951522,0.22007465713236699,-4.919453811390265,-0.3037680122334271,2.2362731852074145,2.31557487265212,1.8632012093837473,2.467661924442363
91,2.87431423082202,3.3330950762557223,3.996644501372527,2.60882727492451,1.158144666270284,-1.1192463277602946,-1.7801039158831158,-0.6728313550242028,-4.635714691989491,-0.05248033513294863,2.615062091343142,4.149339667769876,2.7914093823277972,3.7387842958983875
92,2.924044969283613,3.468662361202058,5.037652005750918,2.91254030597472,2.611408515218062,0.5695917026649665,0.0357173816058614,-1.44321743695857,-2.9528952469708236,0.19381339634075087,2.199982156589734,4.931787479460948,2.957305022489339,3.9963583191460086
93,2.129248871044581,2.6895079788162453,4.725281538870847,2.493970827928287,3.400713094225588,2.281770386984302,1.9750817821377575,-1.873681587894854,-0.32797675128123077,0.40764021940239914,1.088895902431972,4.39357438434568,2.283882187366381,3.1948108482857918
94,0.6813782467170385,1.1874611552188656,3.2020721192743347,1.4465881107962923,3.2855348526642336,3.421872785425058,3.5362380387689494,-1.8248317586478984,2.4849052699509615,0.5792978030169433,-0.3764675153732224,2.6495120748295937,0.9642723588500722,1.5903392832582903
95,-1.0196461992415595,-0.6329822160842967,0.9473270792018912,0.04786283334316625,2.3021856315725233,3.5598014177502804,4.305475578721225,-1.2834923180915225,4.655208954947399,0.7066904665388036,-1.713817045470679,0.18225594955543553,-0.5831487372625567,-0.32587894866085326
96,-2.472003742349984,-2.260813715905099,-1.3691958835035016,-1.3165259652003956,0.749143860907136,2.577610944695905,4.073373894652709,-0.3778814159730544,5.522947310191155,0.7798220983267216,-2.4630461060807396,-2.295893918645984,-1.8466460544668024,-1.9725947765115113
97,-3.2210671933420008,-3.225073308633085,-3.091163560022874,-2.267797408370997,-0.914445470262975,0.7145117307729834,2.8901005888554447,0.6497042391856159,4.7989328824180655,0.7709115832051704,-2.351971385057943,-4.062065216252493,-2.398121620338658,-2.8599021247499357
98,-3.006314570500323,-3.2394296117247774,-3.773845592554806,-2.552311229731073,-2.220680727637207,-1.5031323022827185,1.0460405495718055,1.5089667129256552,2.6586521394199285,0.6389344293171123,-1.403461294881655,-4.611566198282829,-2.052086352857507,-2.7488279730931233
99,-1.8570344277214978,-2.2985714719358232,-3.313513872537782,-2.1231220763736114,-2.8418520045258626,-3.422748844074984,-1.0126458308055655,1.9487072195207649,-0.2994988040016514,0.34998808880523846,0.059335080935110425,-3.8192728907966225,-0.9453305861198389,-1.73343962301085
100,-0.10033406234144597,-0.6914829187317398,-1.9661370138662317,-1.1553758853208498,-2.685356700724642,-4.465314559085824,-2.8053394181884337,1.8376841485677102,-3.2218544957464785,-0.09428812264911039,1.5170451199415482,-1.9779070315025666,0.49819988145039606,-0.21287281339825687
101,1.728304040651882,1.0789633856897327,-0.24932133269993362,0.012345583971934205,-1.9039555353923787,-4.301242050408678,-3.938559555503187,1.2112445001724614,-5.246376514815998,-0.6343564294015581,2.4343128655560307,0.3011257789724899,1.7116613814241435,1.2425954286675638
102,3.0489196557729867,2.450133726856339,1.239587758621967,0.9929072495350377,-0.8217469481706228,-2.949065932156081,-4.194758434470414,0.26522780757187836,-5.757949499157729,-1.1506532116078076,2.453300266646375,2.2915339538270945,2.1914471748165885,2.0894132818659688
103,3.4249023049868423,2.980877748874124,2.027574911537434,1.4831340173812944,0.19353298972871608,-0.7689504202210959,-3.5683129060671535,-0.7041461942503522,-4.5768687316254475,-1.4888855849472025,1.5300724639820071,3.3915232647015374,1.6917382478909284,2.0053750706822524
104,2.7123606062080734,2.5004558062978295,1.9223580199267143,1.367471505059108,0.8628690699556231,1.6442242330894317,-2.2460857314894214,-1.3965002498741526,-2.0227583714578388,-1.5084141876014956,-0.03801826946121067,3.317310073001066,0.33398232599572103,1.0114970352496833
105,1.1180656442722332,1.172745060610997,1.067306875952363,0.7550426421168336,1.0840976857778253,3.6337051733197225,-0.5454703944303272,-1.6076054826462036,1.168822104213194,-1.1379952482107525,-1.7074918258120806,2.185388033463111,-1.4145912859485037,-0.5255325959569978
106,-0.8581125173505889,-0.5505023707596894,-0.12364094111505586,-0.06457816032986242,0.9453808684599269,4.6671926509209065,1.1680967408194474,-1.2984404874288942,4.056706432298209,-0.41701338314634073,-2.8755271846767916,0.45722066253941585,-2.8930301139472974,-2.0160145423214004
107,-2.581237424553362,-2.0762370968349977,-1.1271026808800648,-0.7320644156305822,0.6631793544358592,4.482589194885869,2.5612347885640654,-0.6072804460459039,5.7721229801558716,0.49719215545093515,-3.093289501556817,-1.2318225715000415,-3.480395422875057,-2.8556685923071288
108,-3.489082729843296,-2.869767539026395,-1.5089595552639037,-0.955670404649917,0.4731137014732129,3.1532341190458175,3.393150927993957,0.2011128698409993,5.782331499348681,1.364247700300166,-2.22973107892455,-2.297458658747054,-2.8296292168238697,-2.6478238977343516
109,-3.279824906918411,-2.6399316544508036,-1.0884258777396445,-0.6244750468543404,0.519694044100498,1.0574566922231425,3.5484175792176447,0.8320567101364489,4.059059801711945,1.930381663849537,-0.5264571670127067,-2.405944511009158,-1.016034206138559,-1.359616752478312
110,-2.014943233186659,-1.444710331943095,-0.007595070116397172,0.14528049890453865,0.7901614600499622,-1.2349987657809134,3.0422703360716032,1.0684763772476742,1.0971307490360949,2.0107670581704893,1.4772841460814716,-1.5792835238701817,1.4578775016957808,0.6465494014903164
111,-0.10091174258166628,0.3218000068101297,1.3191259261018455,1.0493495518015328,1.11913921573342,-3.124433278806326,2.0040752741824908,0.8495188079733792,-2.226851759213062,1.5555775666123004,3.124141950110764,-0.17234461160135253,3.8098721839354246,2.7219723758648056
112,1.8449758259144131,2.0592097936611484,2.3574530298703067,1.7070254269343228,1.2619320877562465,-4.1436687318784,0.646277707499324,0.29042202771836007,-4.916247309587756,0.6746638290019953,3.8602249810517977,1.265896346756753,5.232182086950624,4.146740455460328
113,3.1990317561162005,3.1642484880582313,2.652052373102587,1.8047407215377163,1.0065734022771964,-4.076692559488249,-0.7747743778120869,-0.3643229177048375,-6.157866513053772,-0.3903757926799255,3.421666190605274,2.194292215362947,5.167268086999895,4.37779849748624
114,3.5360007984122506,3.237866113639389,1.9993744038007224,1.218956609491649,0.278926574037776,-3.0030236925471927,-2.001343959045534,-0.8369950466089203,-5.572999518313245,-1.3391371880824283,1.922321791749477,2.2713906419009025,3.509980486033536,3.243566969779379
115,2.7649211842423367,2.2240479979212426,0.5316730662227459,0.07266073774118717,-0.8026776873810735,-1.2595372497821598,-2.8161331703817813,-0.9251796758149526,-3.336103716328014,-1.906194581674822,-0.1857178807202,1.4701616098269166,0.6643674270983464,1.0161726282043644
116,1.1514500926973272,0.4319086201218453,-1.3183357520095866,-1.2962888371422794,-1.947629767051535,0.6651043220701529,-3.078899991959478,-0.5810415156532718,-0.12196272648964177,-1.9436855627800051,-2.2625443373072662,0.07827880953943749,-2.5677327051142993,-1.6654648970024077
117,-0.7780379686628549,-1.566598804993588,-2.9598185808971715,-2.444909720484035,-2.7837450684279808,2.270320324050349,-2.75227963866842,0.06928172883172339,3.1033505483782684,-1.4645915935479277,-3.6880973792921132,-1.4115975568962487,-5.2319524217470965,-3.9966916063026248
118,-2.414818445605448,-3.1276928646174644,-3.8430034903760335,-2.9748430433037405,-2.986971605693806,3.1770881671576094,-1.9109452799117332,0.7736427849068693,5.381809498049092,-0.6328231908732861,-4.056133221686799,-2.4787718779113828,-6.520577319101796,-5.264562698137934
119,-3.2661737858519464,-3.74944297990785,-3.645740470445686,-2.6698739236518487,-2.4031145559298888,3.2187381906195784,-0.729887921682673,1.2506474277561979,6.057609653235306,0.2947994837143843,-3.2915431259357053,-2.754495181105298,-6.027519636119901,-5.075232180401081
120,-3.1071469002893224,-3.235234089719529,-2.383540237524455,-1.573546420347836,-1.1165392824135802,2.4672260450045718,0.5485356724007295,1.2979230599340148,4.972486768936113,1.0530669685113936,-1.6571446895381678,-2.1428898621922223,-3.8760875361163127,-3.4763847641203554
121,-2.037980763237307,-1.752817710563707,-0.4068023594369175,0.019590105768159175,0.5606786511164695,1.1927196960716462,1.6638557222407306,0.8704113874983446,2.5013070102847155,1.4497828520670482,0.34523602026066097,-0.8443136031390304,-0.6793391464485344,-0.9367268028973186
122,-0.43365415738276836,0.22824954818033846,1.7118059708442608,1.6555855425583699,2.177561788719042,-0.22680181670865332,2.3930771055645157,0.09905207419471566,-0.5800654073598516,1.4174059004727528,2.140335684261652,0.721811053601653,2.6518002415480115,1.8068227216736166
123,1.1913824530628514,2.096154948264519,3.359981079783284,2.864008587228785,3.2819631688224815,-1.4165908738542494,2.599718124919964,-0.7566672441614029,-3.3477586832629362,1.0204628771090603,3.254254121100387,2.0632852540289974,5.1884220037148765,3.9805101542628805
124,2.3536254908243803,3.2968194670468853,4.076586837649865,3.304206411374611,3.5612309047516275,-2.104217705697443,2.263930206485442,-1.4035649560514007,-5.018745446230938,0.42053712055591547,3.4433760920316305,2.777665708044154,6.260749452192501,5.00682869108718
125,2.7483634517185114,3.5064346109634728,3.688452907579755,2.8672352706947097,2.939088003597176,-2.1804570389267073,1.4854842802426222,-1.6207160307549964,-5.1818184427004805,-0.18520163929490974,2.742402756608392,2.6761129129198267,5.645731994686707,4.665911517244593
126,2.3289715536671025,2.7209397298574167,2.3513776033920455,1.702028041884593,1.5973494580668437,-1.7090472290996173,0.45819886325466486,-1.3369194631882804,-3.8997632992289835,-0.6287881060354585,1.4256323820912,1.830303634960944,3.610429089455827,3.139058186740845
127,1.2978100734907705,1.2374933733332536,0.48680831926059365,0.16037665338085721,-0.08325303633008259,-0.8881616075892524,-0.5780866028853592,-0.651993985036947,-1.657279950336127,-0.8180422117418988,-0.09686875117313516,0.5325052699025163,0.8048834736198531,0.9285468103721346
