,AF3,F7,F3,FC5,T7,P7,O1,O2,P8,T8,FC6,F4,F8,AF4
0,0.2362498189537155,0.18457141091863338,0.3753936717688794,0.036233181285680524,-0.5177638310507513,-0.2218170584071125,-0.23030908747065645,-0.2626263704462744,-0.23391783715546033,-0.5466627305577358,-0.41735437486316684,0.015548919139254762,-0.17744970498981896,0.1668554431521145
1,1.8999462702898389,0.9640180601676043,0.2677594494862868,-0.3080646627816004,-0.34250624230375776,0.6327899304094298,-2.335535646079838,-6.177094941112218,-10.834996893477381,-7.014243237515699,-2.8687891151385907,-1.5691553125971414,-0.8518150091542486,-0.7894851137659791
2,3.0349473464968106,1.3117089843501548,0.09498887062211125,-0.5740162638944893,-0.18292455246761588,1.570209067861378,-3.4694913579962274,-10.157710057866904,-18.077237070592208,-11.58434993901197,-4.5899008397494265,-2.702066723286396,-1.4375483809478848,-1.5778549697295792
3,3.241650945918956,0.9650253080146272,-0.15603895294822048,-0.7465018926480709,-0.1613401774255278,2.5351444004367854,-3.100391681594429,-10.946737114182577,-19.70763455475679,-13.03780030947057,-5.1500490255538525,-3.0954648091299717,-1.8857930443973185,-2.08341610249679
4,2.41780385551303,-0.05165679513885712,-0.4601048095091469,-0.8226890489489737,-0.3195163453444311,3.3223619077369064,-1.2729450046338657,-8.303085760989353,-15.253047064669357,-11.034968763883102,-4.421069405444419,-2.6712492034063886,-2.104293265318905,-2.2334773724596326
5,0.7953032087675216,-1.4192212043653756,-0.7560458103322784,-0.8027285608651822,-0.5952816217303719,3.623457040714828,1.391991267968317,-3.077663417514504,-6.158226431243074,-6.19581382117586,-2.60613490891262,-1.5792481017888351,-1.9757434876554798,-2.0090565821822453
6,-1.1352347108391099,-2.6321570564879897,-0.9660914113849987,-0.6856766376026252,-0.8430180562702969,3.150651056836205,3.9118973697684023,3.0644467806793445,4.694054326862023,0.09770481471210131,-0.18292223947549122,-0.15001807329938718,-1.413338690693165,-1.453479949611889
7,-2.784773135691991,-3.1842788839399896,-1.0237688807454257,-0.4724379431373556,-0.8910257872548586,1.7885668909960137,5.296661056871571,8.183676926591408,13.918610346491283,6.1130462209002525,2.223937401326079,1.2043836975857845,-0.4281802830490106,-0.6714484656149166
8,-3.655217586399861,-2.763272895397482,-0.8984245349175543,-0.1737585015980015,-0.614487918036919,-0.29375067438780333,4.915880136188239,10.690228776568533,18.709286676312544,10.266057988152408,4.007801934667751,2.112466737570336,0.8269486826830387,0.1870407742614467
9,-3.4940724806318544,-1.3812405989970697,-0.6062551422986218,0.18138556419486807,0.003543932340376893,-2.6288907580816616,2.746171613107533,9.84841378862495,17.713026195351574,11.558210125339077,4.738549733712692,2.351501763592106,2.0662840842734784,0.9579668064606971
10,-2.364965550199464,0.6087659496498471,-0.20396464939308248,0.5422698976531496,0.8469138564465014,-4.558280299204501,-0.5936553768109905,5.997410298512654,11.417679845920638,9.82583229582767,4.271724199210392,1.9086883184131447,2.9400799358520167,1.5023317321255583
11,-0.6150910171214895,2.618851822263775,0.2312109642429253,0.8414257205995826,1.6883322139185137,-5.4354916662716946,-4.036872787053885,0.41984642349118495,1.940017767900489,5.736163179169101,2.7782813225629877,0.97636176523732,3.1452641203459546,1.7402881536468093
12,1.2442319011373917,4.019074326902416,0.6257914339742208,1.0085962456456707,2.253679202589622,-4.858452829702566,-6.427843223294275,-5.093082603452851,-7.700155739851072,0.544214847607783,0.6872354081776839,-0.11685428607505959,2.5386830908138376,1.6677717772977847
13,2.7002397113762107,4.349520925332037,0.9282259427662632,0.9904032407071254,2.309055143810955,-2.8445402728787257,-6.921290117057568,-8.831287725561916,-14.567806225256962,-4.303616807607535,-1.4410585082009548,-1.0162133751262261,1.2085403767992218,1.3491103055604146
14,3.3900852254833374,3.477310500418568,1.1142323101984,0.7696685851777778,1.742767794089708,0.12397596766980791,-5.281498519936754,-9.712569375174139,-16.73257228764489,-7.591135458584874,-3.0726222153145737,-1.4558537902417412,-0.5277602116373404,0.8885855706949408
15,3.194347063834726,1.6439193311091158,1.1792434572458876,0.3774347499768619,0.6152976616949705,3.214137589194582,-1.9751442225675542,-7.606981121840452,-13.825091102965711,-8.651056508103025,-3.841401449729684,-1.3405420882329366,-2.2051399396064304,0.3926027467161891
16,2.2487549166561847,-0.6128557387339625,1.1243151578869728,-0.10781184451898224,-0.8402442943666386,5.48923961125825,1.9765632411746934,-3.337721522884513,-7.065385369290716,-7.493158892172031,-3.633812166026192,-0.7674916094986562,-3.3480991946706533,-0.06211463011380783
17,0.8783977369769074,-2.6342484749013564,0.9449281771737467,-0.5756863355702456,-2.269757944133361,6.211056850213816,5.336322964202272,1.631211419294883,1.2199472791893058,-4.72004215821957,-2.5950411170759367,0.017585169825961335,-3.618697051613267,-0.4419840931157205
18,-0.517416989103517,-3.8522256215922375,0.6303486519431778,-0.9115602119227725,-3.288908997846869,5.094944122857053,7.062819805035672,5.704906381239574,8.40697108594046,-1.2772417937854712,-1.0618880642519055,0.713102675896952,-2.925218538833347,-0.7481128013106064
19,-1.589147488832813,-3.9657332232704787,0.17540564523280042,-1.0292804753856717,-3.5883947427553897,2.426409989759577,6.653946773836843,7.685875593030489,12.426636625159396,1.8669618599470899,0.5499541827879918,1.0690676946140367,-1.4546135750611282,-0.9927736030775599
20,-2.131067288203135,-3.023898698251935,-0.40049206289888023,-0.8991701337430766,-3.0245961386688385,-1.0077930424410915,4.303477632915069,7.141605327243329,12.377792891752723,4.003159355680263,1.8644067885655249,0.9711655881572284,0.3821240835249564,-1.1746775685607977
21,-2.1200498422167575,-1.391968669948789,-1.0370970360116123,-0.5615430728279251,-1.6699836297602568,-4.1580670579135885,0.8196712877467073,4.493928333239455,8.715028463144396,4.838865288841595,2.6326540975289556,0.47285157559160396,2.073285078889778,-1.2670174708569357
22,-1.6933346686003299,0.38395697246724414,-1.6300078247846042,-0.11922491690175395,0.19207720383790064,-6.044537287313846,-2.6618914276305494,0.8136031229543633,2.9792348504154242,4.498694709743644,2.76908497465836,-0.2333103009563758,3.158265636042871,-1.2252566587069909
23,-1.0786871760343142,1.764113678035987,-2.0458069837381965,0.2913611438557665,2.1291515862764485,-6.074102958269709,-5.067460258488555,-2.5932529478430215,-2.8053769584173818,3.390262808197225,2.3358235155953118,-0.8913633319149006,3.3601585959555984,-1.01095743384961
24,-0.5036805593231647,2.389618096843179,-2.1536364002295607,0.543612401198212,3.6643497583736044,-4.235511999664622,-5.738748699221638,-4.651123944098626,-6.839916918432282,2.003450685680169,1.493722985769488,-1.2745590930381219,2.659671171186319,-0.6190034664109088
25,-0.11520567998851124,2.1867587275481126,-1.8641167022075973,0.5654168707566554,4.398023909184764,-1.1061067712291093,-4.629234276632041,-4.866429375145393,-8.117744651665257,0.7259027955315536,0.4450898354636432,-1.260302672567143,1.2909875289392143,-0.09309159218560298
26,0.06465470713872995,1.36927296066542,-1.1629414660932824,0.36911056474888987,4.115022493475781,2.3329512420867857,-2.2802087783524487,-3.446149758637999,-6.6692732313197585,-0.2594273923227418,-0.6109907246300587,-0.8619018789128468,-0.33535426619392406,0.48011723290457764
27,0.13266797547164189,0.34222100739146327,-0.12781038726680172,0.053468806269584106,2.848079289041244,5.011866750072458,0.40607142640791893,-1.1553086213020036,-3.42906695406724,-0.9692291160287404,-1.5022858221952982,-0.2098870879049158,-1.7565252512761533,0.9969074388209518
28,0.2510496367499902,-0.45602541811852265,1.0772161609146587,-0.2272251737001868,0.8781000930295693,6.113429552137392,2.5065988457032327,1.018645418033144,0.19490837759846244,-1.5280562424401838,-2.0909802708829988,0.5044360164090519,-2.5906322705293956,1.3705023336743511
29,0.5651875872501516,-0.7173234572814351,2.2288865621870126,-0.3201430767250552,-1.3315686631563652,5.328297554999749,3.403782317431228,2.2587609227887517,2.872244124883824,-2.0439811819274905,-2.277724708797763,1.0972189769708762,-2.641140186460046,1.556367644013243
30,1.1220631039163902,-0.37575234247759937,3.086752701530466,-0.1385873142488919,-3.2513749016041738,2.942515202220517,2.9798949136029838,2.2180842212290948,3.8155381990463373,-2.5139706551833236,-2.0130708143229703,1.4445452725288312,-1.9446824454510077,1.556029401572913
31,1.821257085656293,0.37076404249435807,3.440764294913372,0.2902259880471818,-4.421590919159431,-0.2676618455096475,1.6149556253431019,1.116859210579977,3.001561330608681,-2.802658493695342,-1.3179114665720564,1.501816017101581,-0.7512847886546448,1.3978233379937255
32,2.422181989794466,1.1369245633789342,3.1557687800948138,0.8164192105647596,-4.570549418269281,-3.2947351678459835,-0.0013797829611285482,-0.39007239823794004,1.0896330631043492,-2.702266379606037,-0.30315892091595953,1.2895793719783497,0.555291297732955,1.1060179314466303
33,2.6134723736650494,1.4985212869712434,2.2062401465248582,1.2079832909833195,-3.6818035344548203,-5.224615461391499,-1.1639505622324056,-1.5138754780926955,-0.9070845153995094,-2.044109196531655,0.827890199281779,0.8608798484614816,1.5735426628134308,0.6777457747172762
34,2.1279050211722255,1.161376229507218,0.6961752257427964,1.2326485697138703,-1.9916891673558295,-5.520157001255734,-1.4348362423515075,-1.6752608827946833,-2.055457799244974,-0.8090384573371732,1.8086465847390616,0.27218833509916396,2.003654579723875,0.08521128240695998
35,0.8661457663697653,0.09065130281527926,-1.1405545194238709,0.7550901244293647,0.08046887026560764,-4.173758475405949,-0.8053268212342654,-0.7521487308448898,-1.8706734823142361,0.8156489725436264,2.3721213512160246,-0.4247854571647814,1.736600272484785,-0.6915930403683691
36,-1.0170701113090121,-1.4479632223352645,-2.9642003199921008,-0.18704007481431792,2.0472763627560635,-1.6850134212315135,0.3226430825195923,0.8671203987754932,-0.4837406269959956,2.462767725455838,2.333355785874002,-1.1671780696692047,0.8869670505091003,-1.6139385950379599
37,-3.1045731327040946,-2.9551447494416996,-4.3807614532726,-1.3621781351235527,3.4785506204448975,1.122128059796513,1.3236839314838567,2.445457493735429,1.4437857831631267,3.6902640632580375,1.66331425012014,-1.8540872043378231,-0.24151938438173423,-2.541814157418213
38,-4.80412961800488,-3.856311907958054,-5.019452102000127,-2.396328827323687,4.101190765425573,3.376761924402997,1.6268071854842188,3.2083155017126543,3.0119534520860682,4.126996647054386,0.5224972737408199,-2.331954509735273,-1.2500346051168634,-3.2295691361867953
39,-5.516777361798261,-3.7021682629540287,-4.62542462407014,-2.8883606517092613,3.848285986198128,4.439204156624336,0.9707977633897216,2.679211126422969,3.459568185927025,3.6042820313099266,-0.7674315014135553,-2.413332238817222,-1.7724665423735622,-3.3778559352303668
40,-4.839063655838496,-2.3444492202524505,-3.147055435265211,-2.554427967712836,2.8497866432556282,4.089992464472229,-0.4670832178406913,0.9028966051865954,2.477330294906463,2.222863415735464,-1.8142404643677381,-1.9353831861872375,-1.5990239202369914,-2.736519024771438
41,-2.732430722799619,-0.024000660743331813,-0.7902437063662916,-1.3509210280944521,1.3754566569267732,2.5727444342840466,-2.1236501016284923,-1.5379662039115813,0.33748608788147066,0.32923803952688246,-2.282973148226131,-0.8428234951674124,-0.7557895623082067,-1.2268685547458549
42,0.4049798222334716,2.6660492530117863,1.9865732039446757,0.4729532868442561,-0.2464012876699353,0.4840549012942874,-3.2668886661984486,-3.726573931120516,-2.206249542990017,-1.5906730254220132,-2.0173980408022785,0.7386740355540641,0.48917301575438477,0.9655983374005044
43,3.802964851725131,4.93952192989234,4.550942778644405,2.4212741885417532,-1.7076064414020156,-1.4460400026844356,-3.295168023153793,-4.762759211557846,-4.206398337118022,-3.062011047913952,-1.1080395025573617,2.478552999693678,1.7013777851297132,3.3761383555572766
44,6.516016019365466,6.054969825579058,6.241358447713152,3.891004167708764,-2.7754312041004505,-2.605354991713794,-2.001366089152694,-4.126660477190063,-4.8846663347381725,-3.761746704560154,0.124971193554445,3.894775747034571,2.4189578388730544,5.349568609817329
45,7.701096054699438,5.558877142139332,6.546947177440044,4.364962555186662,-3.3160558164399716,-2.6975463753207998,0.30526646662857504,-1.9114015261457984,-3.9311631189750673,-3.601191468435445,1.2360961866478712,4.484502742325346,2.3135795182640444,6.221881717043884
46,6.891584533092993,3.454405434507021,5.271338062755932,3.5947519372853614,-3.29045037748068,-1.822700095831331,2.8748776713512676,1.1728787411433939,-1.626967827861272,-2.7252574308651534,1.813573535571947,3.8980862035731327,1.3196786719740146,5.544139479719445
47,4.17538208376977,0.23522408406175624,2.6257980948403046,1.70823507304112,-2.735458288309126,-0.4180096842157146,4.771171647651398,4.035561458484297,1.2548797755456926,-1.4356860457012086,1.6369020249875397,2.0965543082395484,-0.316198945551818,3.2724445542946516
48,0.2097090086724259,-3.23531303065209,-0.7886238203310456,-0.8021091918271025,-1.7441641499928981,0.9160139601180173,5.215172628986146,5.601435531144253,3.730970712168822,-0.0735724438138705,0.7715352275919272,-0.5724684327867877,-2.0911932242292046,-0.15161680716177786
49,-3.9446536091781974,-5.969653201604402,-4.118727324439905,-3.2145222997544205,-0.4542060607112269,1.6401759175041104,3.891896130882316,5.220016866217302,4.964563459096845,1.0905243359086925,-0.44087454353684974,-3.424653066168278,-3.3977389150266517,-3.875543014735115
50,-7.126953867356502,-7.153589781435198,-6.486198767351508,-4.7983035102261455,0.9562479086015051,1.4726675561251987,1.1020803139959034,2.931885938356396,4.564087001428201,1.9176752287834973,-1.5007330569572912,-5.616999100579447,-3.7266667062241834,-6.859569266240456
51,-8.426054081773067,-6.402519306328959,-7.240292962888882,-5.048551889679247,2.2730523421256463,0.48873340418601413,-2.3053284561562166,-0.5150242710446173,2.7133523470976115,2.3954954398085575,-1.9390117898988446,-6.407598362005595,-2.8547450669913923,-8.188338686790006
52,-7.464026668538002,-3.8924049534784673,-6.157673676927399,-3.856329720013072,3.2622513776773143,-0.909378874421464,-5.204929473779896,-3.914365440825897,0.0891713198980606,2.5797350705594297,-1.5072396885290333,-5.413844337069429,-0.948813806719646,-7.3714076189255415
53,-4.5192953055209575,-0.3192413802938268,-3.5221758132833143,-1.5544859744592503,3.705043076276721,-2.140155723675984,-6.579784163232701,-6.030436403155238,-2.3969189434127967,2.5188559025613904,-0.2945081835037631,-2.776623989813506,1.4576258647145972,-4.528351675830021
54,-0.44558386483663526,3.3044856983173565,-0.0527255851143745,1.1796845945535233,3.449332379505817,-2.655696426582139,-5.883996452407396,-6.0518420125049275,-3.931081979699483,2.2041386112702077,1.2798043773316623,0.8371322025609454,3.6175927134081975,-0.38693549914905956
55,3.589785640766354,5.9542684238722945,3.303560720067966,3.535171397847463,2.4647711273540045,-2.145230025316434,-3.2518041486843874,-3.9011768321622315,-4.077737772717759,1.573909061617352,2.6039629137313245,4.4088234392431636,4.8095110570993445,3.9161993335324605
56,6.464103437884713,6.902801004991667,5.650598826121511,4.82251369541159,0.8808877213271595,-0.6585334174221477,0.5255965585163026,-0.2825030459449216,-2.907050760455366,0.5723813965274197,3.098379571154618,6.872609987445344,4.583810641657022,7.1744951483036035
57,7.437372968224798,5.935331962458456,6.406576727463979,4.689175589691726,-1.0117367061586526,1.3937328442561143,4.252396760148949,3.556015903284924,-0.9308678048613881,-0.7659618217091476,2.4459899719457625,7.4537413255303715,2.931207540114959,8.48140647980784
58,6.361071718313262,3.403059875351821,5.466742306929822,3.224146967506993,-2.8081195625954614,3.3638848747081953,6.7248172450124315,6.261640166278476,1.1166269258758224,-2.2527980633852493,0.7400748974038647,5.927254984132579,0.30923734761429883,7.508728271145995
59,3.693139163006461,0.09983236865939563,3.214259877620479,0.9187443592163603,-4.078725371748734,4.574797987562659,7.135235421156246,6.860447977769828,2.5602733419964623,-3.5456631623358033,-1.5130780094595029,2.706083536740535,-2.4895478925391292,4.600051375146032
60,0.32108566035325387,-2.9946947969135387,0.37868455275113816,-1.5006594052448698,-4.4814409786270515,4.543266342389111,5.3437365722125785,5.108863860006343,3.0164358152577124,-4.2285779393019824,-3.5479575287979435,-1.2765070430849064,-4.589064977171086,0.6488105011117384
61,-2.7405719944500677,-5.019640093246886,-2.207273077313608,-3.309703787052104,-3.8635455734320705,3.1464686831153506,1.923525758281584,1.5849918868471202,2.492622624178808,-3.9551138006218296,-4.602753865098805,-4.855224267204358,-5.318333961191762,-3.1957203305265076
62,-4.6726264515116185,-5.486337510182081,-3.8689783912423192,-4.0129151828173635,-2.3206164048498534,0.6777220798300677,-2.0340736443002165,-2.51381251997874,1.3286199647820471,-2.6030785629007953,-4.200167744308217,-6.997673167298455,-4.438651193895067,-5.892698156086308
63,-5.085610284395277,-4.402024005906776,-4.28206921479748,-3.486477342105279,-0.18978277854213918,-2.226675897830053,-5.285768628085985,-5.793665633625562,0.01847806489874306,-0.3760457042857702,-2.342911116916555,-7.124771926956895,-2.229244520802543,-6.8205331436633445
64,-4.09447597232644,-2.230952327369899,-3.5357604445116655,-1.9939478337153018,2.0262197315646224,-4.767197805430822,-6.846190891533786,-7.153946190754086,-1.002489884246938,2.2008031995552004,0.45316780238764287,-5.280678732473936,0.6010751702228639,-5.932775393496563
65,-2.2209169735713346,0.2849928226775561,-2.054717039812012,-0.07630897285463993,3.786158206854681,-6.212572950217277,-6.301507791564327,-6.167718564362079,-1.5142529065088013,4.407120523010688,3.309312993911748,-2.0982608516998846,3.1484876939179998,-3.715341157576134
66,-0.17136168131540863,2.3791192187490973,-0.4168729477431143,1.6403164663354275,4.653584287525053,-6.113364568548678,-3.9231303090681564,-3.2178573070568466,-1.5522814985674152,5.545648735818121,5.272087947473589,1.4235686968259345,4.615559975487171,-0.9729637681833926
67,1.42121317331913,3.499008915715975,0.8610453136890288,2.6507696253142226,4.414856880111063,-4.434723746646767,-0.5493994678661589,0.6557319703980153,-1.3269919201751568,5.181807077557305,5.6419776645564115,4.250808597711362,4.575782038671027,1.4683648915762986
68,2.19754571136747,3.4551337119691334,1.4916570132283438,2.721768850645248,3.137052387133129,-1.5706542186358927,2.716269974109845,4.137088354054277,-1.0724666195610848,3.317982634786798,4.226423104615263,5.639413955195684,3.1098139998837806,3.031447514533439
69,2.149016089831566,2.438146337555943,1.482186983887139,1.9417405860611958,1.1486573948278982,1.7624842051492606,4.881072214722517,6.101328451305159,-0.9042158605329313,0.4321113914992086,1.4248216202223316,5.346543769001903,0.7668882127354958,3.5364436328971736
70,1.556680634273546,0.911387164527975,1.082016384971323,0.661059660896372,-1.0508381839116177,4.720800996160007,5.381486048144716,5.998037116016881,-0.7579968412103175,-2.645172892377467,-1.8892548027593976,3.6638130013079375,-1.6335730594804372,3.1857083319902313
71,0.8305379505253146,-0.5731904774531865,0.6426562119454426,-0.6481011768837154,-2.92524536532335,6.559542804031197,4.239098812484634,4.01582735308835,-0.4404803962780702,-4.982839470283249,-4.6519289767633145,1.272674941952837,-3.28889957936133,2.4077063197137
72,0.32156069280311106,-1.5658202066005982,0.45149507173752074,-1.5583328568491825,-4.040585701535441,6.828051888850994,2.008460711970398,0.9763287270595334,0.2332667966040384,-5.85001464587518,-5.963047044456508,-1.016671648245348,-3.687083337619455,1.6355740653113835
73,0.18311596568965613,-1.851167268158885,0.6070042600755283,-1.821869398383316,-4.169858248498796,5.480601697500749,-0.4541306325295059,-1.9939983112925634,1.2854362083639976,-4.9620751727385075,-5.388958111583778,-2.544969908495545,-2.772333741247935,1.116345435134803
74,0.3325295781133709,-1.483841516989778,0.9832757308774202,-1.4319667824503624,-3.337259552507721,2.8761045172134017,-2.3109287983216706,-3.886145704196722,2.4872922890705347,-2.584940041435475,-3.1100019247760198,-3.004409413891183,-0.9471076064889818,0.8281587077608332
75,0.5197035389286678,-0.7269785539350224,1.2945394186598478,-0.598054394244399,-1.7947808615785428,-0.32843010239291426,-3.0347848171852543,-4.16651760207709,3.394231239561566,0.5421782555086958,0.1376361581285827,-2.496843338786732,1.0856287721719018,0.5337688012488018
76,0.4661070584049999,0.07218806093891703,1.2305514333890832,0.3476082633201716,0.05636428671197899,-3.3568102549337366,-2.5704552987567095,-2.941143157235454,3.5062271394589026,3.44238382567255,3.3053404681462837,-1.4414758234138407,2.580000491908052,-0.06002120788059394
77,0.011130462606426495,0.6176053512966746,0.6065856085906932,1.0729861071220321,1.7734460117207969,-5.513149724189907,-1.313331422130349,-0.8728785900731636,2.495256641047086,5.216469775838483,5.377571010455046,-0.3780208553317155,3.0113518188989743,-1.1119736070443573
78,-0.7970255804603572,0.7610537675998414,-0.5331139793683464,1.354873010209104,2.978770564049919,-6.347879438024005,0.0785260101938694,1.1077571800476824,0.4022581555744611,5.331664168097475,5.702886577444598,0.25440551542954987,2.254075543117873,-2.5128515551947346
79,-1.703628559088479,0.5310477823451447,-1.9011578394616124,1.1391679682549065,3.4396373164495526,-5.749370758262303,0.9627147833028212,2.181210464226881,-2.2921311611572865,3.7871363474565425,4.200762357595806,0.2791978197089559,0.6135795150272311,-3.8728168865433483
80,-2.341621813865805,0.09335169214691598,-3.0507439284828974,0.5393396962453445,3.1069700324868648,-3.9438677766235988,0.9732035964257824,1.959571408546727,-4.7739721865709726,1.1031173661778448,1.3782513499488374,-0.17131541599642122,-1.2939762543614248,-4.64366355718364
81,-2.379589576853441,-0.33246669369860954,-3.5290702696885923,-0.2183010828531086,2.1099883558347003,-1.4127284746011213,0.16377242338354958,0.6275814588389642,-6.1588315320904945,-1.8584329252223006,-1.8446855256219805,-0.7352432850654147,-2.7669419710370176,-4.333126086701575
82,-1.6645378225953311,-0.5633958490976418,-3.0459973311579316,-0.8779310922901058,0.7140270331017399,1.2430115281462366,-1.0203161453396683,-1.1466323183973162,-5.820976650692411,-4.177101822700601,-4.439152277926547,-0.9894286719410638,-3.2662511103861283,-2.728137224373224
83,-0.30309321610929235,-0.5161621913660862,-1.5970657054438018,-1.2361814115402763,-0.7457040242683337,3.4506366716205963,-1.9313672579778571,-2.4927171542144095,-3.6619363328545247,-5.164446069564749,-5.598077279072293,-0.6384635975095244,-2.5994291897108925,-0.035892079719339685
84,1.3515142688485033,-0.2244029037986974,0.504946141936742,-1.1979715870565981,-1.9396380173185215,4.788643529802089,-1.9960878228445758,-2.699686721561854,-0.20468007298825752,-4.567005509290375,-4.986023102156976,0.3488840913815774,-0.9795321584876611,3.120753669916729
85,2.8041650902908812,0.1890517801386272,2.704801616148706,-0.7935007352423453,-2.6142179248893025,5.059315920200513,-0.9721035544359429,-1.5165586698181457,3.53905207160508,-2.621526804911308,-2.8305889043545895,1.7074945407735447,1.056183890650213,5.864090289749386
86,3.578499544046681,0.5673844532701541,4.364853299748599,-0.15732927273489383,-2.644297030852103,4.302793354075624,0.9187054648250249,0.7254036583305217,6.393957177716809,0.04562258799401352,0.16777436134686846,2.960140066303888,2.8343760995436007,7.33080990605921
87,3.378139446388265,0.7781338857967217,4.960465976222952,0.5189200451549106,-2.057494282516937,2.760004575894092,3.0383146662716825,3.218050322970463,7.426543336904461,2.631586032619588,3.0713025844163098,3.587650496921107,3.772492586915638,6.960007999554773
88,2.193329584818319,0.7537993178990477,4.248601239897625,1.043674858587735,-1.024793216338967,0.8016565732029323,4.552213224399002,4.971988082755313,6.281168325768444,4.406731560256083,5.004679256235137,3.2237245786704642,3.5669994896807196,4.70006170662305
89,0.31682779461344435,0.5044403357204297,2.3552362793871513,1.2763342875281134,0.18199317927324976,-1.156715618372378,4.744096552292372,5.192893835422823,3.3177869168244416,4.920411155184249,5.421371814700499,1.8045159662699537,2.282801494569043,1.05980756212965
90,-1.7366840705156414,0.10414651168558445,-0.24749140214690551,1.1604172996081679,1.257606216354369,-2.736279740537751,3.309238698059316,3.5976558069088225,-0.5055336255367728,4.104545943826863,4.254590551688905,-0.38105498315692327,0.3198775005402898,-3.01890126134581
91,-3.382079246701109,-0.3382247286438646,-2.8692392272479763,0.733331918433774,1.9401409062574912,-3.6607811902550504,0.5129892212566173,0.5506677342011327,-3.9660663040894395,2.255522312584857,1.9119694637776288,-2.760204305136395,-1.725259333902024,-6.430352026358638
92,-4.138493340545463,-0.7112740532810479,-4.796864047942352,0.11285501658006607,2.0777317268617286,-3.799391690170913,-2.8534427456810945,-3.0339645098364385,-6.003845930556178,-0.0849740408558004,-0.8751508415932576,-4.643943855830484,-3.2528093491599175,-8.23155389133363
93,-3.7732591104837017,-0.9266089309753855,-5.498979352360361,-0.5350552038815856,1.6666912059235839,-3.1825264870651533,-5.7149223159607665,-5.993133099388224,-6.084645447446902,-2.3015214903607535,-3.2916874829041225,-5.439949947645651,-3.84305534986171,-7.922886351413453
94,-2.371662088621901,-0.9337994033363192,-4.778715419208403,-1.0392584368574598,0.8495549596898625,-1.9889678997802454,-7.07347028357087,-7.313114931338889,-4.364695902474043,-3.8718930531101643,-4.687290682113281,-4.8420548210175305,-3.372926077630607,-5.594663835160758
95,-0.3126140058677657,-0.7258058274327489,-2.829623488218848,-1.267394212212457,-0.12737708124186528,-0.5053981831543763,-6.36294021477232,-6.484532508657681,-1.5995023617495585,-4.483393950015412,-4.7554174483729295,-2.9353316467494013,-2.0340435452364503,-1.8952996501695334
96,1.8409381475107105,-0.3380458062229408,-0.17899425468550995,-1.1604240872876939,-0.9853725878556207,0.9362356763013071,-3.6694729475189996,-3.687883701397603,1.1629888734930245,-4.076278618957232,-3.5927848084096725,-0.18297639000941213,-0.25385402255769024,2.1658635528966244
97,3.5029828493663597,0.15664804547993624,2.4634900768647063,-0.7488227696308968,-1.4928570110530386,2.03248853930226,0.2657080040176597,0.2561273348161883,2.9832364906336,-2.8179645979487007,-1.6309814055107632,2.7011660071460275,1.4483995341343487,5.5162959102058835
98,4.228847144134374,0.6572901638552685,4.406160858093481,-0.1453051253043225,-1.52982549157302,2.577280907249626,4.268888845796193,4.15395211459285,3.370019398783463,-1.0308870140198017,0.5264348732967387,4.954946828906019,2.62141149260352,7.324643871187644
99,3.835727788526392,1.049925270564817,5.165748951707193,0.48518037341233394,-1.118096918973487,2.5081893537795743,7.109699707084183,6.830625464728623,2.431707502616991,0.8961678960006667,2.300678853848838,5.9833835924588294,3.0071162415898436,7.21982763362849
100,2.446520032104482,1.2296693144262256,4.593180880413411,0.9709283652765027,-0.4088793565222107,1.9162680085394772,7.903008406084594,7.50980747700797,0.78756130189828,2.5882592528595096,3.3025618489215924,5.523187639511555,2.5964577869826724,5.364253890740944
101,0.4474704672170502,1.1273536273255242,2.9008542448828276,1.1819808304330146,0.3677272808298856,1.0146894607052221,6.399547978964994,6.053687680207014,-0.7173355292788723,3.7428354285554986,3.4167357604474002,3.709715636292949,1.605115319955445,2.3692277819659386
102,-1.62488836080054,0.734408262152263,0.5874982279009369,1.067388157712077,0.9750030877215016,0.07365779666528713,3.066356322542528,2.98563939037208,-1.374040855124849,4.1654465108484295,2.788366966025131,1.0304280681155176,0.3842441882041086,-0.910227336701654
103,-3.2329020235524513,0.11694144796029542,-1.7132402708316607,0.6695682116734566,1.2409322835957515,-0.6598558141490484,-1.0689348369996892,-0.7044925117491577,-0.9019448835124396,3.788234807445575,1.729589418921713,-1.8172551540431503,-0.7001536045509396,-3.630420083631242
104,-3.9802395039353033,-0.5892515710952089,-3.4133552831239204,0.1107550182447881,1.1066911558546941,-1.0331001977384207,-4.754714161455508,-3.8982458534771447,0.44415154521710326,2.6766096005152242,0.5882639811780463,-4.119282276762017,-1.3790659139336678,-5.184802855851446
105,-3.7092219153282473,-1.2061571956465795,-4.127026310063035,-0.444716206537695,0.6381869984036138,-1.0266993978971535,-6.917036455818302,-5.709707039548404,1.991062976160251,1.0245266090192742,-0.3702537478034553,-5.333135470298765,-1.549660657223781,-5.338430181084565
106,-2.5295369112150783,-1.559217222165917,-3.760018529693953,-0.8405872020761499,-0.0013458004468517493,-0.7491206514498004,-6.991270790429857,-5.748148302453136,2.937115014295893,-0.8663622129590162,-1.0280079711463603,-5.219542047286123,-1.2841304416734864,-4.243168846470266
107,-0.7751881991431553,-1.529243006080447,-2.511042746411079,-0.9753223363563008,-0.6072494684968496,-0.3882466939206055,-5.076618839723158,-4.200611561010882,2.695591117012504,-2.629362707012024,-1.4096854680926487,-3.885664673020535,-0.7808809478401433,-2.3444004729763726
108,1.0938814231742475,-1.094155735611349,-0.7912415471629898,-0.830287108520392,-0.9987561028722345,-0.136574595380967,-1.8700567818569196,-1.7192839191423783,1.1529237017653595,-3.8977917509564066,-1.6201128390503008,-1.7344379014711715,-0.2789531098187821,-0.22041985811654524
109,2.615636285114025,-0.345252395240702,0.9085692212300125,-0.47074918033260515,-1.0725464439081966,-0.11618483454100002,1.5877835805938467,0.8337976194424618,-1.2614976357357908,-4.383627423939405,-1.757745973710443,0.6592637618741825,0.03283226531044255,1.5902566501595603
110,3.4412556921079513,0.5303231577919332,2.1602409562785487,-0.020271507247561625,-0.8283811979431035,-0.3305002647894155,4.260937348953398,2.687057153014478,-3.7215525774398612,-3.9515909852330893,-1.8453299175030293,2.7068867563991534,0.08048404523062123,2.722889233194569
111,3.4131832972639984,1.2984084951658774,2.7082058924672143,0.38190929189766315,-0.360726181606211,-0.6612416734595485,5.440619943998785,3.39905137704826,-5.309579014564739,-2.666093610024472,-1.8094456023690346,3.9543432175155546,-0.07804595993893318,3.049972007892572
112,2.5894956603181996,1.7445365141341032,2.518206835892385,0.6254587666472727,0.1781983846052911,-0.9133913193594282,4.938153949019813,2.9614292285426838,-5.362664935960342,-0.7922116359107126,-1.5182791741733965,4.182357159975375,-0.287327646169847,2.667969588243169
113,1.2134412071577592,1.7381577111794633,1.7570395674569848,0.6604894881503989,0.62964066038339,-0.8934873608189503,3.0950890087448797,1.743242834744449,-3.7281092851300524,1.2564200151311962,-0.8607401204196281,3.4377097567410204,-0.3661688648313417,1.8248098010145704
114,-0.3591198904004401,1.2737545823030283,0.7171130289091795,0.5065328160921879,0.8761757454435769,-0.4933381356046615,0.6224895669996942,0.3122771720684374,-0.8327341332462715,3.013728263357234,0.16921579496802738,1.9944939979956136,-0.18887047783623193,0.8203055834920175
115,-1.7526359623248857,0.47505938830498146,-0.2849799932138464,0.2379347583982407,0.8714844062420025,0.25259052124134207,-1.662430516233005,-0.7908449789940477,2.4575445234023734,4.077244420308663,1.4233825119625196,0.2628852335725382,0.2552376844588857,-0.08585148662160767
116,-2.660961314389567,-0.4397529383477469,-1.0019576458770376,-0.04704797303518841,0.6448999829372201,1.1601676969188235,-3.105789465583529,-1.2405847746989125,5.133079570699545,4.2116844473328605,2.6125706188286117,-1.325480681727883,0.8474026525385877,-0.7326327891864919
117,-2.9122159705410793,-1.2214792078292265,-1.3140155465522938,-0.2611747185946464,0.2826578842906458,1.945808242194757,-3.403194152898633,-1.013341083280061,6.380846108708565,3.409603484070221,3.38464069283273,-2.423918289493738,1.3769803996964671,-1.0723410966891482
118,-2.4970325450103936,-1.6622964829908027,-1.2388780011244918,-0.35472771901129907,-0.10493089277146819,2.3197676322315806,-2.650154268343231,-0.35301810672816875,5.847821785029207,1.8907541425306995,3.442582369463827,-2.8432954065698133,1.6181903479817845,-1.1471262626091705
119,-1.557507540625972,-1.6547878569369558,-0.8980354135490528,-0.32549005538695447,-0.4179843309591626,2.0912519748135945,-1.2557068260037505,0.35873376927047923,3.738940450097548,0.04023612565463596,2.659858609360662,-2.577032344941004,1.4182195241873623,-1.0443938010388958
120,-0.3430977159451182,-1.219766541076624,-0.4571209682385767,-0.21094841441182016,-0.5923473722848227,1.2474512441747487,0.23529891481872334,0.7693062410127205,0.7250353022470905,-1.6959357629949485,1.1484023832191468,-1.7785026569397244,0.7636581123142021,-0.8516558048480717
121,0.85385230077778,-0.49532551237891226,-0.06434742821146716,-0.06807041361898898,-0.6097881622097021,-0.02434279271152002,1.3399379434342058,0.6927292919222301,-2.29538980996395,-2.926928989309162,-0.7500397943074766,-0.7028457685996274,-0.20075442464169663,-0.6271416201769434
122,1.767161695907784,0.3080996699692053,0.19205508868985163,0.05016116931572585,-0.4932806248869839,-1.3834196954573608,1.7854270060356983,0.1690789622464599,-4.489371986896336,-3.4118246968101733,-2.5516731082500086,0.3674895205598704,-1.2102403350205162,-0.3932008019772134
123,2.215010208934198,0.971554535930902,0.2963910944922666,0.11239705387837697,-0.2922853923898605,-2.438561922277947,1.5641951161443,-0.5694862222505651,-5.335735042579842,-3.1081699818345836,-3.771476321395921,1.192872413369482,-1.9633893926512915,-0.14922595833530936
124,2.135206549399393,1.3301358723611862,0.2895448852841395,0.11525144305417492,-0.06484162332468124,-2.873537968567515,0.8903473019364562,-1.2048060393100666,-4.748617234636637,-2.164708482046473,-4.071342466648646,1.625924521536922,-2.222303670716979,0.1065830470867026
125,1.5909938736593732,1.3156865856580773,0.23617796126612625,0.07796778362913748,0.13765794695351327,-2.5519522086025765,0.08737346062893464,-1.4643720681134078,-3.0522816665671684,-0.8653773721970883,-3.366151220110646,1.6316168136280393,-1.894124767786677,0.35931503327536746
126,0.7475256882579919,0.9682022703483014,0.19101505718919956,0.029593593122322407,0.2797962329713011,-1.5642626884990571,-0.5430016856509948,-1.2263340511279037,-0.8339554500207782,0.45537881461930424,-1.8520900774559796,1.277924461964137,-1.0647406951244336,0.5724367469207088
127,-0.17426409847321128,0.4148511749612474,0.17769942199653396,-0.004953219460383348,0.34522606883441187,-0.19971551509702776,-0.8215336395133037,-0.5600307084333173,1.2619268457750745,1.500223527958466,0.05237244718826663,0.7039601055791936,0.02756181706560258,0.697901224161778
