,AF3,F7,F3,FC5,T7,P7,O1,O2,P8,T8,FC6,F4,F8,AF4
0,0.015823985583376228,0.34665485373580945,0.2003865229461245,0.08225377626893532,-0.04277097975712495,-0.027848165624421436,-0.17172094951450018,-0.19749437732468408,-0.23692993055138967,-0.49759751229373383,-0.25229759849560995,-0.0739285107707951,-0.42159874791017593,0.14861051978767253
1,0.18983687580829298,-2.055473987041127,1.0776884453320097,-2.0812689986395903,-0.4698869223854538,-1.2779667849563439,-0.9153736656316768,-2.0685540544610945,-6.597408971385945,-6.261799956032375,-3.7668419018932306,-0.6061133895001463,-2.632192670746454,0.13935182139547864
2,0.4492013588555109,-3.781953207327411,1.9015753501592867,-3.5851672542826853,-0.6927282112355989,-2.1065721319807174,-1.2636792843245348,-3.2676059175115086,-11.07112150424061,-10.34963664369479,-6.227177734483198,-0.8304159107237691,-4.126709263259053,0.2761129808034953
3,0.8187976210523161,-4.310668052446211,2.622396969950301,-3.971863621574378,-0.6228861663708734,-2.294084620097306,-1.070810644349689,-3.4208309603199485,-12.426259263489769,-11.681478007566819,-6.932940046635906,-0.5706686076412839,-4.490706802701576,0.6626946964084276
4,1.238002459858509,-3.5027059921517316,3.127718418850905,-3.138910846236272,-0.2838492105533248,-1.8323361054913438,-0.4044398423330864,-2.4939478503657355,-10.358368659871566,-9.942517898312106,-5.682993139385295,0.1712205312022456,-3.6224078396641985,1.267713639082388
5,1.5711081251151757,-1.641858517123395,3.2560704962490132,-1.3665142190156365,0.1979598343554457,-0.9131632513220793,0.4811431048330615,-0.7994772947247836,-5.560785000187047,-5.656736571874687,-2.832495472994343,1.2015214680523953,-1.7607290684853947,1.9140460173666802
6,1.6517705144726473,0.6607483049232492,2.8489263315406825,0.7766171942506934,0.6395975312320175,0.14953759635820257,1.2426536780637034,1.108384515564497,0.5099670321855396,-0.023994595050017095,0.8097137206275569,2.18294282840818,0.5804871295148305,2.325410632503725
7,1.3477192025085347,2.6656694172110758,1.8243699284476718,2.6174902161135285,0.8686996786198731,1.0326370160478309,1.5786212908752988,2.616470016071536,6.093885419817763,5.428586681122392,4.2137431468085,2.7347934036071866,2.7549259140827966,2.2204157148479715
8,0.6238697063895597,3.743443687429109,0.24459671959710982,3.593100648740516,0.7871219281883399,1.5090383394882054,1.3437148195702457,3.2528325477856987,9.662860314978955,9.277110921858014,6.42398938372312,2.5584798674943894,4.164390471937416,1.4267553215543678
9,-0.4196062953723209,3.5754129960991974,-1.6523192013967272,3.4259623071007326,0.408181660936597,1.508688958643832,0.603722190512489,2.838640578218973,10.362517997621103,10.58809269772873,6.831684143461628,1.5510003973538544,4.427288686231447,-0.02298747916434428
10,-1.55168576963336,2.2525639419905756,-3.476750867802243,2.205508208646707,-0.146047692795406,1.1179787876705685,-0.3887556676705382,1.5418980753766494,8.226754907442407,9.153068206644638,5.345738677062758,-0.13176321898746762,3.4866630883323078,-1.8523047065814566
11,-2.4622787144336735,0.24091969407885094,-4.770586639533076,0.35098947093825833,-0.6866661625877516,0.5248564317482737,-1.2877195111578033,-0.18438351794442923,4.108581260929839,5.509063840978268,2.4126021735707726,-2.088980228475349,1.6252956836554218,-3.5831732802919305
12,-2.8505502745761824,-1.7748241931440774,-5.130942607596911,-1.5300909815968948,-1.0242935106902766,-0.0630363615950057,-1.7803664172711533,-1.7584097213104593,-0.6363873578160806,0.7479989846674262,-1.119907852759665,-3.7713333694056383,-0.6182922269534307,-4.659626847973796
13,-2.5248209380964726,-3.11828659592028,-4.339545290091302,-2.840620401421423,-1.0361885458144375,-0.4923988029674158,-1.699246157007382,-2.6672900892767397,-4.6002810825228675,-3.820049838438683,-4.253808847036499,-4.638554946924472,-2.609534680125276,-4.622860683677126
14,-1.4816202851040712,-3.3448861314008758,-2.455989975197429,-3.184607680853904,-0.7101276459984819,-0.7028716002121529,-1.078858445932479,-2.6390117982360817,-6.756579463588497,-7.044257747062651,-6.132018126417131,-4.333246334517194,-3.80581299788293,-3.284467110891857
15,0.06585306471116842,-2.3886599493745693,0.16033982051060605,-2.488678642785196,-0.14931177897771022,-0.7205720829524189,-0.137357104516366,-1.7299702734334264,-6.739780140189723,-8.238216144248584,-6.282281781803898,-2.815050651770308,-3.915038815617248,-0.836048843756926
16,1.7263131236492595,-0.5840066432833089,2.9157928476964323,-1.0165057143226504,0.4634416125015143,-0.6173659157722368,0.807497342982273,-0.29805507470643133,-4.891377902474414,-7.3271609888840175,-4.741534733431024,-0.40609630420522164,-2.9749110027264893,2.153608571719705
17,3.0317114996616708,1.4453313932170324,5.1250489798439895,0.7261722488143387,0.9293179791892805,-0.4606137577455561,1.454716682820625,1.1291249071772818,-2.0733730104376513,-4.804363724809745,-2.0252432413455326,2.2765065865354757,-1.3275585358333237,4.86968166066885
18,3.575093803143787,2.9941300280897933,6.194774385064933,2.162530863574527,1.1020464549024396,-0.2797864053573472,1.624358818353797,2.044371258556749,0.672476215127049,-1.5249467280109057,1.0454829568411508,4.489157706673428,0.5015105397731084,6.482960386426811
19,3.1432974344696407,3.512237070084236,5.796061408835778,2.83399017379714,0.9368085064832707,-0.06552326794328966,1.3114309039393437,2.141753960125253,2.4939482309150707,1.5850688425168966,3.6019195115518023,5.583626272941829,1.9788358051351456,6.414672920314229
20,1.8000774895346037,2.791569908812831,3.972688090620764,2.5454526833749425,0.502263184720611,0.2011967832914161,0.6718659021027081,1.423299491081586,2.9976579435816433,3.804915788745634,4.987866368832429,5.21253457787928,2.7326148424293337,4.547228910924457
21,-0.11227044960761702,1.0410113793667053,1.1484617043797092,1.4200741717562928,-0.04793588737365219,0.5085469183630581,-0.05000371110109109,0.19289954199287568,2.331376981435088,4.793519070527093,4.940049641789535,3.4494117064154333,2.6584978403341704,1.30316320933432
22,-2.059935145924991,-1.176724328282834,-1.9741532627925034,-0.15157639220237445,-0.5328154838547553,0.787849608591392,-0.6205453290019403,-1.0603294899536553,1.0627807188363456,4.616888148662596,3.63506661884887,0.779327692802417,1.9268483427861007,-2.4467587325278473
23,-3.471094977983955,-3.1266111432393595,-4.598979670849579,-1.6475852779076303,-0.8089583710023579,0.9219114352985305,-0.901508457118765,-1.8463823376191741,-0.08817272495388814,3.637920726725014,1.5947732900836469,-2.0418981248480015,0.8930452527376831,-5.628976637335279
24,-3.9100353760983357,-4.14216671931384,-6.053023527863521,-2.5880259618475487,-0.8182556101731201,0.7907310113940361,-0.887213350556005,-1.8582884539148743,-0.5551760527567442,2.3258422515882176,-0.5105935097391769,-4.217297732588412,-0.05177142561447365,-7.294088653264639
25,-3.216688234012391,-3.846577158866996,-5.972468042303615,-2.687176298111118,-0.6011790858021601,0.3375097798568252,-0.6825991460744496,-1.087375733994637,-0.15178507642198677,1.0660712542533908,-2.0896124718991262,-5.153311938749188,-0.6305364664633583,-6.920418148860586
26,-1.5654372831269143,-2.2812027166729543,-4.402975591421364,-1.9359443758177126,-0.27184863439832607,-0.37602346947637844,-0.43628941787945696,0.1730032102566827,0.8662588636343611,0.043003869073222636,-2.8085989367340787,-4.63926884354466,-0.7729623033121573,-4.591697264173123
27,0.5780791658292997,0.10103773496489994,-1.7846490135249633,-0.5914399394347483,0.033823933113357046,-1.1563795022986116,-0.2619323575061478,1.4366275067728747,1.9222100665149837,-0.767273921351697,-2.6648058443380527,-2.9032722921921605,-0.6171830377030445,-0.9850723221972709
28,2.5909180171938275,2.575498985423581,1.1736282283458177,0.91742287211337,0.21515196237630335,-1.7238136300078661,-0.18516200402150917,2.205734618447205,2.3718296873355453,-1.5050328259033812,-1.937042025510073,-0.5277157102048956,-0.42340733958405785,2.8318424117272167
29,3.8771317535364025,4.373444885613073,3.6930269350947733,2.1324216277502055,0.24534678611352068,-1.8084252989860206,-0.140756299989066,2.1571336047515914,1.7876578390360673,-2.2870740468485673,-1.0415736399438829,1.7452727059888606,-0.438115331231024,5.731510583069156
30,4.045995649764349,4.923948374461116,5.13846019757951,2.70763993857533,0.17612981428949076,-1.2640685487173084,-0.02051081890292955,1.2644345374321548,0.16124143374392147,-3.0882186014631334,-0.3536655679424045,3.252242630375354,-0.7670860212839683,6.877481884312758
31,3.0298857588566213,4.032826952063594,5.185948866366243,2.505444418241187,0.10684164166912187,-0.15390567496479818,0.2522605717028793,-0.18798454129763145,-2.0577311428232674,-3.7019199403735548,-0.06402460964421773,3.6119082869491805,-1.3117208722548346,5.981376112461473
32,1.1066041827019621,1.9427642410892718,3.8979140902566725,1.6207774371238506,0.13159844908282411,1.2334714610947857,0.6595685592751066,-1.7033671705621514,-4.1041298710183,-3.802605560766432,-0.12245639296295785,2.829195357870455,-1.7973632631350243,3.3829822459712795
33,-1.1797231297073612,-0.7424569052809544,1.6889076077385736,0.3332706881690917,0.28759969008629416,2.455020813852072,1.0712946087167483,-2.746584932279011,-5.171553316750366,-3.08790695770239,-0.28552850513181466,1.2705008271172846,-1.884924367950356,-0.07003973464687531
34,-3.174915814649701,-3.2435580680436282,-0.8036878541106166,-0.9902230612220656,0.5278085319444819,3.0553751317208113,1.2876680300796686,-2.9307878816152293,-4.717576054923273,-1.4430474052187467,-0.24470459229902283,-0.475886838991779,-1.3228707113349318,-3.3000484974988575
35,-4.302000921370165,-4.841568935688953,-2.903323748785276,-2.0069995749388085,0.7317046440340857,2.733471087202367,1.127785349785018,-2.1511465326872554,-2.6870188780715596,0.9435142767871072,0.21875087106951022,-1.8036184458199682,-0.07886637519772614,-5.341528650806827
36,-4.225543645213974,-5.0903997913541,-4.0786584710025355,-2.4883371438788755,0.7523115628664383,1.4722174991008277,0.5266915966193729,-0.6210170620801496,0.4309554453688488,3.5692032746560667,1.115060657035163,-2.287476345532652,1.6040210499466814,-5.635906784395212
37,-2.9469689400354513,-3.9422743189218727,-4.077980637047918,-2.364243078876583,0.482326684423534,-0.4219621119074344,-0.40449711981617364,1.1986167385086366,3.7368655129519386,5.729600860445727,2.21193926755783,-1.8139914559393824,3.254702727597578,-4.186884766299319
38,-0.8051738897825925,-1.7509740706742924,-2.9800091157133255,-1.7174984617141562,-0.08690957248307665,-2.3931164512807452,-1.3888242097693508,2.74897149063288,6.203206823280595,6.725745807810509,3.1015465904679935,-0.6047538806743454,4.314978995825161,-1.532919498383407
39,1.6166025308114065,0.8437739073340151,-1.15252537692098,-0.7383221274946623,-0.8388987654951897,-3.8057763710932875,-2.069279174928849,3.5503051285347227,7.010103611047377,6.100182076877152,3.3465519173010505,0.8701715775354153,4.328562002774156,1.445773159694717
40,3.651150312146883,3.1117530628590813,0.8640404962603189,0.3388709294311399,-1.5523011790619041,-4.156617418838032,-2.142488420450989,3.3480360415248174,5.820928836826231,3.819922403860684,2.6533649709016434,2.056344341067008,3.113195984983308,3.8163004601847414
41,4.730613701198152,4.446256212398034,2.511835025786588,1.29429784550541,-1.9655280155268144,-3.254833895156957,-1.4891551369413532,2.184299400221341,2.905146858366115,0.33773067776852395,1.0090233332404495,2.501251147858159,0.8540682004357885,4.882176892579954
42,4.5427953020112195,4.532484129820892,3.365507615984701,1.962097120413192,-1.8662509419955098,-1.3057234422272044,-0.24658192867902246,0.37779172241748205,-0.9327188318735375,-3.498877241417088,-1.2708900328552761,2.003000524274881,-1.9183858954924466,4.3821585714595725
43,3.118081358773448,3.4227138674628446,3.2373204277649683,2.2460212408119054,-1.175856197202727,1.136448438850245,1.2122763419549931,-1.5758275361490874,-4.594739268820198,-6.671454974745882,-3.6064236461511716,0.6758205485771396,-4.46517570990137,2.5429577593537567
44,0.8234306098104494,1.5006152298931057,2.2127218674964313,2.1172979073157836,0.0017033409947404335,3.335405866033754,2.3937362188574207,-3.1482330028163514,-7.02339187830283,-8.28263991499448,-5.314621954760617,-1.0857145725676567,-6.0506731468774,-0.0202167605721091
45,-1.7350969967195637,-0.6490286096949178,0.6118423020463631,1.6050807691626754,1.3872889623576883,4.606555400748228,2.855324776494402,-3.923222757152514,-7.5209112780157525,-7.8268431515030565,-5.819445322050227,-2.7300959084177028,-6.164892245594834,-2.5133426223405477
46,-3.8750980244601942,-2.4215555750673827,-1.1079022800951932,0.7881996300614423,2.5933973721437353,4.539911742132099,2.3728768431882505,-3.7023689540483713,-5.954670240936663,-5.354100604629638,-4.843472760823084,-3.7201303202210307,-4.686576945136479,-4.210671654541842
47,-5.021898415485918,-3.368035170164848,-2.478804470399708,-0.20933592057395778,3.234109267319385,3.1369963558584026,1.03904848323846,-2.5470060905438188,-2.7877481390022973,-1.473408369378221,-2.5181236035592987,-3.6990740938073037,-1.9350960870836014,-4.661168907503893
48,-4.863940488339837,-3.3134177525286588,-3.1448391012433055,-1.2235739675561355,3.0464397014161513,0.8148065856420821,-0.7477607465038598,-0.7516017929370284,1.0697170108517087,2.808760254372551,0.6267113389194677,-2.601760313049284,1.406877057726836,-3.7960670786398656
49,-3.4370450868555236,-2.38552114406296,-2.947967643144279,-2.0646876243529775,1.985212121243145,-1.7253294040206628,-2.4057454735476536,1.2386040958069435,4.537364803388206,6.368132899612473,3.795560408166801,-0.6784666145898005,4.4784156577372505,-1.9154526567705408
50,-1.1144213665495806,-0.9518106468722054,-1.9594236177959607,-2.545877462492513,0.25915500111462964,-3.7206228569125046,-3.3636610458351557,2.94102466339064,6.681564425952842,8.277673713096117,6.146235254671739,1.5742596539985323,6.4789619624037105,0.42897484891178317
51,1.494800801997544,0.5110255851959083,-0.4516912919471269,-2.52590959385208,-1.7078797884098713,-4.58740345686458,-3.2591957753119654,3.9514314425169075,6.976271327782694,8.064840697717782,7.030453068671316,3.554254715228402,6.890459856798242,2.6084716752469985
52,3.7104162065182473,1.570759487565961,1.1783019576931097,-1.9550438490688427,-3.3843534114345712,-4.10024218850038,-2.0712648091311263,4.035908177431331,5.433195025872723,5.836262465241386,6.1839132377456245,4.723944575870084,5.618367886767805,4.091447348225331
53,4.963716626572146,1.9680688573637353,2.5131605072444385,-0.9077800930543415,-4.279124614559956,-2.452314103970818,-0.13824533874951722,3.1805128142243326,2.569701690925579,2.2356965437332055,3.8077540468510294,4.760438442313818,3.0116930954364745,4.567879981418997
54,4.947446435409977,1.6817392403241507,3.2193776585178258,0.41400909823121934,-4.087821281252804,-0.18059434603176,1.9458333815902025,1.590021088477823,-0.767042794990938,-1.7488503504378037,0.5156944404520394,3.6426755603013756,-0.24150665650355205,3.9970082896130776
55,3.6923490006823636,0.9141817286935501,3.126746102278326,1.7162764818332306,-2.793160094694101,2.0151126906768493,3.5223464352315497,-0.3623874474060652,-3.6595937898642372,-5.068991352952993,-2.83818701616803,1.6519792685290675,-3.3100383393670274,2.57863598360023
56,1.550537675137879,0.006375972050013194,2.2647695260553165,2.6820150612184825,-0.6865553636955587,3.496187386923243,4.081474452998633,-2.22292177143921,-5.3822321332690946,-6.9061283200713905,-5.399789869209611,-0.7118522466770941,-5.447914062784666,0.6707414667081206
57,-0.9076727785675975,-0.6870389436661554,0.849148505063244,3.056716202208167,1.6993284067651344,3.8776958042508687,3.4261525125399404,-3.5631149303605074,-5.5887778365402125,-6.884395640188223,-6.551676889942803,-2.8721234059084524,-6.18868476451667,-1.313089152045045
58,-3.0526878077380193,-0.9205018003060713,-0.7762969033691417,2.723979375658561,3.73102322212814,3.129143656169165,1.7329701297530704,-4.080113347751315,-4.376709629363662,-5.1487723905895075,-6.0761000460694845,-4.331524859304684,-5.452095924986782,-2.9951240069158342
59,-4.364554247995461,-0.6381556785447632,-2.2263265058168886,1.7458895607747653,4.849210585790388,1.5571836475702199,-0.5074363339799701,-3.6677467126134515,-2.218337291220836,-2.292658427585056,-4.197819686429553,-4.797332475497215,-3.5377196735343897,-4.094456399186909
60,-4.564573333821206,0.013075052676437151,-3.167280107437998,0.35293588250859625,4.72822375474554,-0.3153010419594848,-2.6471832886016804,-2.4405182260586478,0.2098762814500129,0.8361958061185818,-1.49775850141639,-4.240977076579611,-1.0147405167630945,-4.453323272041729
61,-3.674446288322113,0.7411088580272438,-3.3934007558438792,-1.1155242374574823,3.3733734100571535,-1.9263647475706152,-4.080786530298695,-0.7034207748154115,2.2405806300955486,3.3887180352298643,1.2718148283356971,-2.87905817159278,1.4531326160119318,-4.036749117660234
62,-1.9898904908719717,1.2170339279106306,-2.868693091145392,-2.302840948249716,1.1265654723730458,-2.8467532395602064,-4.422233203814148,1.125833115151853,3.404032796217326,4.750346505365484,3.410762638751875,-1.0878027028056596,3.292491998757835,-2.918542003491539
63,0.018991981463252757,1.1973466236470982,-1.726157291153809,-2.930740898439103,-1.4231256574826878,-2.89238829880116,-3.605528791537214,2.6225589897179007,3.5376771722545985,4.693244585454928,4.46386564272057,0.7169557046618588,4.161231632854086,-1.2642704732216696
64,1.8473829078697555,0.6182633790489296,-0.22763901851934154,-2.8702856562960575,-3.599758011171546,-2.1489302891757984,-1.8833316597820644,3.4608830165148934,2.7916424109753923,3.4070784951775845,4.326174737913632,2.193517661860365,4.009703775822367,0.6850889632804004
65,3.092071000729905,-0.3711504936294894,1.3025511042708129,-2.168192142783581,-4.826796821394413,-0.9118675520541224,0.26707493799586435,3.4910050693540264,1.539479144305257,1.4082457862013715,3.234299478514806,3.146397476018526,3.052870377965486,2.632186883226192
66,3.5446964536745234,-1.450433494325667,2.5515487231798604,-1.0236061984618994,-4.7865874683212235,0.4273711578396189,2.292803537927786,2.7672590087263225,0.23212810373411083,-0.6375095504444599,1.6544458222666536,3.5386446952308344,1.6714680104558877,4.251718763853257
67,3.2183212373148775,-2.232126805994464,3.2809866990045378,0.2740507529044331,-3.50754722363092,1.505690873630416,3.718623022185662,1.5205841848292656,-0.7527124888428567,-2.12175724769682,0.11043537829753874,3.4491832639266926,0.2794322327847881,5.232970305503092
68,2.306809227502769,-2.3954282833986085,3.3664178419524085,1.4248540457224719,-1.3540294407842652,2.0830838407008434,4.258876552098271,0.08538819582007125,-1.2173573200955015,-2.6676457855747384,-0.9881200626441273,3.000031304352104,-0.7989867383219811,5.334935950048739
69,1.098477217807184,-1.8039734435891324,2.8088472401245883,2.191701345452825,1.0783809087203828,2.0846930254182414,3.862039694797842,-1.19602393942907,-1.1775888132371626,-2.223622245906817,-1.461009756610819,2.288105642888049,-1.4065256134738595,4.444649029401044
70,-0.12136853338807667,-0.566246334736685,1.7221542371577623,2.4482428957089706,3.132107853085866,1.588683581016873,2.6872258009734953,-2.062560140910443,-0.8202851455797829,-1.0546401207951155,-1.3819904155657892,1.352159051025511,-1.5664949273934505,2.623496359944671
71,-1.1445395526032844,0.9847291686205634,0.30491912538266547,2.192670564666997,4.272477074290232,0.7762067099808085,1.0332716631002936,-2.3916686874445086,-0.4081097721094763,0.3604779799316807,-1.0117998211742851,0.18876310888605255,-1.4362122813563554,0.1250975498534826
72,-1.869096781732267,2.388810434514364,-1.1945342241705579,1.5297635232689493,4.234623429994694,-0.13222856448102135,-0.7487102627824809,-2.2110346487169465,-0.16970757136394332,1.4905097391865514,-0.6705590659896767,-1.191443752482422,-1.2224951108497966,-2.6271566847261734
73,-2.2819340951587117,3.203033088337053,-2.514195279676056,0.6318785766088034,3.0898786527143094,-0.9323522038306371,-2.331172815091743,-1.6660502107982558,-0.215142382428653,1.9220141370341517,-0.6000230663940792,-2.6957193431230295,-1.0915113650273567,-5.105565530483136
74,-2.4122275195900245,3.1456615423688237,-3.4138118555286567,-0.3071082753536618,1.2131474845416064,-1.4719074909084806,-3.4585401432766285,-0.9581676879921829,-0.5040049362057364,1.4877651538243617,-0.8668132365503665,-4.106302472748543,-1.1043211817631824,-6.777818654070583
75,-2.2834560679646727,2.1919400159013973,-3.7100787095641747,-1.1125235305906738,-0.83728183437383,-1.6659284739851048,-3.96744231492917,-0.2768732116395651,-0.8729280031338282,0.31682704973672543,-1.3401365473336342,-5.0925486473358985,-1.19856940588348,-7.221852900961515
76,-1.8894226590593395,0.5890914360914403,-3.31065530722831,-1.6567134726281938,-2.4894563676165347,-1.4980630308198923,-3.788980703134532,0.25252381789693634,-1.1078669263588459,-1.206672948353518,-1.7487723123315502,-5.287458390292159,-1.2201603185051961,-6.230524042344763
77,-1.2062862572292683,-1.2151328078190113,-2.2421955792669737,-1.871964821633482,-3.324250053282564,-1.0154983021968078,-2.9458741577874767,0.5908862069035201,-1.0318470959721808,-2.5624105363688408,-1.793212612262977,-4.411077913350294,-0.9919613311604345,-3.880418575033579
78,-0.23410104012496882,-2.707475520349127,-0.663569623568393,-1.7508003896597348,-3.187904021394857,-0.32104977353871866,-1.5518548035213162,0.7743350204729151,-0.5755357906431674,-3.2546257001387264,-1.2701312966222178,-2.400354638524423,-0.3948044180981708,-0.5450288762583321
79,0.9541850534898473,-3.4643240874380288,1.1455675243718295,-1.3378586255763962,-2.2181110689611754,0.43936685434245387,0.18887454572788856,0.8789882558323945,0.19366356358654102,-2.9675008657142348,-0.1638215326722401,0.5045611309725725,0.5675000306277523,3.1565485563070865
80,2.184143518207757,-3.2777580511465874,2.8267743944679626,-0.7173357648146831,-0.7795668755309493,1.0983066109021176,1.9920783140272993,0.9769739760406864,1.0919812876634125,-1.6698470280060362,1.3273520001732455,3.758994840124428,1.7421868519020678,6.470528638505365
81,3.192979650327442,-2.2137382100588074,4.012740993218166,0.001460749646458447,0.6659168774928448,1.499551926633,3.5249461346300563,1.1003185070775066,1.879089881655382,0.361550893071554,2.8379248186408854,6.613710032287774,2.851563222582594,8.660406487997886
82,3.689087779309333,-0.5863483849527866,4.412035519884135,0.6993624033330753,1.7094705482652723,1.5378117328033276,4.462850835170133,1.2246601373397967,2.3341540502482747,2.607517134879369,3.9393647882434624,8.298633570437842,3.562747421821429,9.170482480532408
83,3.4428289657776565,1.1410872493420758,3.8873993656507304,1.2630022777599703,2.1156228743005356,1.1941183730473497,4.563555652832908,1.2768080170585387,2.3210702205416327,4.443640623411254,4.26713857503682,8.241780202933672,3.58471655235831,7.765650221961864
84,2.3780032333310834,2.4949757793536986,2.504157548647486,1.60026616328192,1.8757854558728337,0.5523820454000725,3.7392451196238294,1.1620768161669734,1.8221532568913328,5.31172155555181,3.6314147225625857,6.257705082837181,2.765153405417356,4.613260013202231
85,0.6291815949946022,3.1268578657813553,0.5309896947446918,1.6541449388867937,1.1820626913012164,-0.2141647983117367,2.101304088278537,0.8016954980325408,0.9329857875999948,4.878694570210671,2.079386873364535,2.643467406776394,1.157974953762324,0.2817190409109856
86,-1.4610898135297872,2.9052167526069224,-1.612262721329275,1.4129114639087663,0.33671486889304586,-0.8882472050862794,-0.04282107496408543,0.16864083758199663,-0.17391105792880546,3.1394889602632063,-0.10648939266805159,-1.8555650700823532,-0.9610867506028945,-4.353462425808126
87,-3.4120595195119274,1.9394223071051528,-3.4496038782497394,0.914387997728251,-0.3659742264893643,-1.274542308557568,-2.247688916452895,-0.6883333592990033,-1.2985539193560156,0.43523841575999456,-2.4710308311108355,-6.209836838466344,-3.140332203248261,-8.284593783567827
88,-4.725643350776977,0.5335567584695516,-4.563107587933633,0.24260585095320025,-0.741281694183102,-1.2651025624693366,-4.031654234718298,-1.6392344676962278,-2.256305005738817,-2.619383264544858,-4.490691125661865,-9.359821629497894,-4.8522452056131735,-10.594687127256137
89,-5.0242671901413525,-0.9111874020925254,-4.6959411138538325,-0.48371133416442313,-0.7637691578578572,-0.8799392379409284,-4.995337062878058,-2.488634633497255,-2.9012932878395015,-5.282247677089934,-5.692512325999452,-10.49185375912427,-5.625064058208869,-10.67891411388958
90,-4.1641771845065145,-2.013332581174166,-3.816075866188211,-1.1299388206386152,-0.5511140489634824,-0.26510792953604356,-4.9225408022856065,-3.011603007100821,-3.1300333226070425,-6.867011157668554,-5.760277478674253,-9.258610714746393,-5.172382039385239,-8.409453663039471
91,-2.288846989247562,-2.512338794505021,-2.1234620919704583,-1.5692107151217196,-0.29351425165482115,0.3547972427454204,-3.8338903046106894,-3.0050204290891944,-2.8761456648366117,-6.917893621283468,-4.606638144773467,-5.881794729183972,-3.4854166626835337,-4.196912576380487
92,0.1953101285904655,-2.327413680099714,0.0005137220507380764,-1.7072746386903324,-0.16027342802894048,0.7555262678432242,-1.9781224058941929,-2.3457272668463607,-2.1114696384795915,-5.3324680416866554,-2.3991812907480123,-1.107578569115738,-0.8602650034401699,1.07612203205978
93,2.7155970491764982,-1.5621699762370453,2.0864501920965783,-1.5040203780253836,-0.22259260709605244,0.7959791866526309,0.23460253829084252,-1.0429733206497886,-0.8635350585253962,-2.4014965625494265,0.4625073943258458,3.973366164489044,2.1518145333436762,6.24213136919285
94,4.67563040124993,-0.4600635751287277,3.6874587601016375,-0.9868912801165814,-0.42379377144007235,0.4739366156998453,2.335823831276108,0.7303594690882074,0.7535877481024632,1.245471997463994,3.414511638058141,8.19252991883668,4.863277672467825,10.116380323221692
95,5.604881758446112,0.6715046652554061,4.478296491568023,-0.2519146932764105,-0.608412835113993,-0.06806538843869424,3.9077665435417486,2.6430718224304264,2.512216705021424,4.777975444864281,5.831403795741863,10.58631012438678,6.611940331650941,11.781338107197639
96,5.275427758869814,1.5446954016614074,4.32020213206393,0.5502999836211243,-0.5975282674430822,-0.5919619048581624,4.66924640988212,4.257155191934514,4.072389822809897,7.355705597348506,7.150076428802785,10.622843215040174,6.92663395499337,10.816068910208493
97,3.7565937934188143,1.9603753628827811,3.279754496437883,1.2433685662917324,-0.27864965579039846,-0.8530751347631045,4.520156413360732,5.123456203129206,5.031290088107386,8.329594323861588,6.995536454518549,8.318896082945136,5.655239414907611,7.41032719948277
98,1.3957655983458674,1.848185606152566,1.6026529285015005,1.664574187540527,0.3280709575692459,-0.6972550364371285,3.5408781041446495,4.903946063353729,5.02279503621548,7.406013940083191,5.284611201646128,4.223419045020732,3.020914368021015,2.3311454776684988
99,-1.2671633631983807,1.2721877842936533,-0.3467315316655899,1.7066035006245588,1.0568910584407045,-0.12970995616237818,1.9558575441207753,3.4887418828474455,3.8448254898964103,4.733484861036556,2.2807158967274965,-0.7218408437307088,-0.4116002702393513,-3.2530971332013245
100,-3.628608717955924,0.40518405238578636,-2.1640603859311973,1.3503296635331656,1.645673384456838,0.6725739912149068,0.07743038649800249,1.0692636592442932,1.5715888519275039,0.8868494073525718,-1.424072339796169,-5.406250300646956,-3.856560458465541,-8.049683859653586
101,-5.161549259223716,-0.5193371776318296,-3.48560970515585,0.6774461140487898,1.8312871160330004,1.413449120439504,-1.754310535832449,-1.8653539954555227,-1.398392714615133,-3.2536385342674605,-5.011315762664329,-8.803968943161959,-6.49001014363137,-10.952026248481106
102,-5.534647332502969,-1.265646028613098,-4.056955394992191,-0.1441916400298257,1.4560106637795205,1.7800659418685403,-3.225134098072945,-4.622317764182176,-4.393699749152395,-6.705497637764539,-7.613576358222221,-10.199941993628428,-7.65287444599359,-11.306778808340868
103,-4.684058417713929,-1.6518956024246103,-3.779579521154122,-0.9020113460799967,0.5436388111432651,1.5604525679318526,-4.089780540615103,-6.475283539804039,-6.624574588146581,-8.62404807345613,-8.532265377140185,-9.340273367614774,-7.0240864033568124,-9.070946035586292
104,-2.823197144047107,-1.5922436907691682,-2.7286234726431933,-1.3973143375983914,-0.6863086412121615,0.733695744721641,-4.20460333052481,-6.867948604132366,-7.405510124286311,-8.520212675814012,-7.440470477875214,-6.477290112865122,-4.717060170519173,-4.819318965998911
105,-0.3895864000792959,-1.1159029754744332,-1.1383242122555475,-1.5040277377649887,-1.8758162832923306,-0.5023714017813382,-3.549831640259088,-5.590950959500784,-6.379385958855016,-6.397499534782438,-4.508149855984361,-2.3023437766924717,-1.2689621362546315,0.4002595329009399
106,2.058471373251679,-0.3583737755521704,0.6442337755910552,-1.2083645229108462,-2.6403202860362005,-1.7804093738255342,-2.238711657149796,-2.872941880529861,-3.6661590622464204,-2.7662956479709386,-0.40021324288471344,2.217448269345462,2.481675327995968,5.328147920338043
107,3.9717351254882636,0.473953141076988,2.2308909353547746,-0.6147030900688428,-2.697979671836577,-2.6772131309843314,-0.5080399482952225,0.6515488385653689,0.12391371846598553,1.4758733905333605,3.8689850576051996,6.0623924560853695,5.603285130799498,8.805360488607947
108,4.936591009725931,1.1579832182088419,3.277118161652513,0.08643825516519281,-1.9714339490869954,-2.855467720833877,1.3150343921594718,4.097923391564029,4.031549494991891,5.272416461528854,7.196767016584018,8.393876849807137,7.313748733006261,10.058313520797174
109,4.768797783354555,1.513443465315351,3.561621098849125,0.6793426880039045,-0.6256918617427363,-2.185461037106975,2.870253330296263,6.571142996725552,7.011289216280794,7.685443274226119,8.69951751670731,8.745274840169447,7.191560333480567,8.88328719839787
110,3.551966455771259,1.4517564929751678,3.0409073417025536,0.9931363732587812,0.9728596370583602,-0.8033260046023477,3.837767786370696,7.419496261764173,8.238445775289712,8.146544145036886,7.974327313052378,7.124629002166321,5.294613360274821,5.683280490191383
111,1.611207673286973,1.000174522401556,1.8625034263212832,0.9568985028717969,2.3646599650522866,0.9173612719740221,4.0120428827057655,6.424594781561762,7.3624110928047575,6.607926854932269,5.2295456428546965,4.00275880062234,2.148694136410882,1.3481680532672622
112,-0.5717068997231486,0.2934363547595154,0.329915036367085,0.6202465343669065,3.1379501176747353,2.4746939577094635,3.3560163483719383,3.867042201578323,4.6215383310233715,3.5479579582282077,1.2356500880888528,0.18775199930398515,-1.3957461900454662,-2.9893951701311137
113,-2.4802922094862585,-0.46551752389617496,-1.1743980845615758,0.13171315593998434,3.0569403038582523,3.394391463268951,2.0177351004840487,0.44535431218613086,0.7780846743652924,-0.17233622780815322,-2.895770281456037,-3.383841932898039,-4.400528323378655,-6.256149678349105
114,-3.6910164468898756,-1.0647629193916208,-2.288732871601468,-0.3175393513681868,2.1357566166595774,3.3818215836891583,0.3008588268043712,-2.927758567762213,-3.1089866086041646,-3.55976146480784,-6.039850228966043,-5.885414909982342,-6.102441956674721,-7.716074111694644
115,-3.97346168850972,-1.3449693403586247,-2.766936070990936,-0.5642405307441241,0.6346273483973746,2.419527435889246,-1.4062470679972965,-5.388444447211328,-6.000981107023624,-5.770805858017247,-7.390406504316227,-6.804770602404019,-6.1237798100159395,-7.148104598844147
116,-3.3371246180986027,-1.2445307702570483,-2.540578950391067,-0.531819629689593,-1.0198391096368886,0.7772032053099335,-2.725124249355476,-6.362438821316273,-7.1837235055868085,-6.339325080738237,-6.689829505127464,-6.059208074815402,-4.567270913461873,-4.876446089153262
117,-2.0138426705309933,-0.814300753823183,-1.7297776357145858,-0.25572414254410675,-2.364099058839168,-1.070028897923821,-3.379853075913929,-5.710571835849212,-6.461910530710923,-5.282462677060416,-4.283838494628713,-3.990693109689485,-1.9673009203272527,-1.6488747627627116
118,-0.382955990927792,-0.19759351266317332,-0.5995568677886358,0.13400408221268356,-3.035385330171297,-2.588726338079473,-3.2620052384381477,-3.7387719917989335,-4.185239635122516,-3.057378582196413,-0.9867516009251366,-1.2455494299264465,0.8855457837931243,1.5972297134651041
119,1.1376698148737119,0.4176091045981497,0.5240807150363049,0.4659060906838853,-2.8747990526063534,-3.3516832418024025,-2.4503335205566934,-1.0771423577208583,-1.1060528811708548,-0.3901434512156946,2.1934585135112528,1.422672228916918,3.189499465801758,4.008972423303263
120,2.202654919286788,0.8582048965995561,1.351323194710203,0.5953148581387346,-1.9653206979355353,-3.16656430835528,-1.1811422233968882,1.5259223619902322,1.8756762867342718,1.9614058947599295,4.375266667634612,3.3661838110811626,4.36766172630973,5.049819893657128
121,2.620919236510174,1.0175722848681183,1.7081050768635249,0.4610800125266215,-0.595959248929332,-2.127753297468267,0.22031685723592445,3.4247135566110107,3.990058497350455,3.4310085847848826,5.062042274044712,4.20808420776635,4.221389612123273,4.622458242987303
122,2.3874428185022785,0.882713757274461,1.574015447838957,0.10884757493515759,0.833289511871113,-0.5766019599557629,1.426476627348207,4.243291072696839,4.806781102536812,3.783797085882209,4.257842176790768,3.9137389887526304,2.956668160901571,3.052173314941967
123,1.660457419243413,0.5293691336936088,1.0694835567784902,-0.32784087961361563,1.9334598660364775,1.014184580682233,2.187511171378716,3.943412787671026,4.316075476238755,3.136417285793305,2.412581547547987,2.7547829493261204,1.0827141915866572,0.9454604726685722
124,0.6963448211269218,0.08892439403689578,0.4007154161316739,-0.6806673110399792,2.4370553922432894,2.191758432605092,2.3841190459584216,2.7846884612581424,2.8698999811866024,1.8649682654749202,0.22876441706980288,1.1873775659227996,-0.7756070709636742,-1.0226119064385246
125,-0.23377282791812984,-0.2994519459138743,-0.215471686410954,-0.8124326983434794,2.264538913274014,2.659466025486901,2.041904922111218,1.2040141880243973,1.020391932911961,0.44561682198800256,-1.5928193408018074,-0.3077430800390762,-2.0836968946149472,-2.3192819277711987
126,-0.9187266055663478,-0.5337581184925542,-0.6198148883634964,-0.6695163727463609,1.5303572966820693,2.355112321656837,1.3079436216530615,-0.3362943681874125,-0.6772413974564989,-0.7094626928660034,-2.576345629633915,-1.368078299200598,-2.5521398104977666,-2.6961529908059094
127,-1.2522965796121428,-0.5760302909957687,-0.7497926089453976,-0.3005877797888329,0.49177192280376086,1.4495829879756623,0.400205191028888,-1.479581832304793,-1.827473860614742,-1.3648366872301643,-2.590466316913288,-1.831647134698291,-2.194108361510136,-2.2236592867166167
