,AF3,F7,F3,FC5,T7,P7,O1,O2,P8,T8,FC6,F4,F8,AF4
0,1.1932959486743142,1.1183047973191338,-0.10655921855092274,0.9020463978013576,0.12804908511020252,-0.3514266423325076,-0.4196544657250527,-0.2760263615295952,-0.24165065626000673,0.6041850011330613,1.3361308030513093,0.7816301035832005,1.03939869976095,1.374676463181543
1,5.271057575659101,3.7064765988586434,0.07042186478608144,3.6373317954812365,0.5495655086765802,-1.0175489179758705,-2.7830625845031443,-3.0255541453327455,-0.5681193112577547,1.9897978373813106,5.565952208387578,3.0083277242004245,6.517406939301069,5.67552512538328
2,8.712050397969097,5.924305940207356,0.21948922268303828,5.952303052893424,1.0796606042982175,-1.381349852791505,-4.247690399899289,-4.757343238477476,-0.39491461039625536,3.363156900474178,9.058217293457162,5.04303953738146,11.0148824867672,9.263492022966108
3,11.104612392310402,7.58665228845916,0.2970884210307466,7.574531876895846,1.7451526413659235,-1.3214506595433135,-4.33296162378763,-4.846860778421815,0.5090363599135682,4.733868345497654,11.392213372193496,6.755395791706946,13.88758195121904,11.72580906845307
4,11.97586634446502,8.389282605197756,0.28153948232544523,8.193052061938722,2.431226050648743,-0.827756251445957,-2.993240093424579,-3.2117833740342783,2.0266873270026347,5.908128355345384,12.169023032012204,7.840061372950006,14.611727106775417,12.606468813454825
5,10.875425731203284,7.951213815917531,0.17979174301896325,7.510468604642801,2.900494783282934,-0.002288274382546169,-0.6242957480084768,-0.3377670648106225,3.702421892770925,6.501136948160516,11.064933846178482,7.862738773377808,12.864543519346967,11.477246901597894
6,7.566018047050106,5.965720463688765,0.02547630840232946,5.361219900617558,2.876708328636994,0.9637654300984357,2.0665676075476256,2.879070769831701,4.88857445388087,6.061232103759189,7.950519081303137,6.423532209631089,8.649937147687465,8.112877033329239
7,2.245499644384202,2.4036086454872954,-0.1312003127769001,1.8520424822887473,2.162906876492346,1.8309037163352309,4.2802132471313294,5.418553769590561,4.979782786389096,4.266162369811656,3.033517061720546,3.3777728141723564,2.4227285749762073,2.702714767923596
8,-4.310779262099624,-2.323383201727486,-0.2387514447955992,-2.541870830905142,0.7479498096665926,2.3624786393153023,5.363067335221083,6.4575457928058135,3.652436384071846,1.1181280803523257,-3.043044799614828,-0.9804466039905554,-4.859066589285155,-4.005480008641301
9,-10.785982424315076,-7.32960262607999,-0.2604169740636249,-6.986911012470228,-1.1431125348454356,2.37782105421474,4.989592728389285,5.623637950091783,1.021817798616098,-2.9439453165533123,-9.215165401969758,-5.864333029996093,-11.817420394784078,-10.726496636308196
10,-15.575879773387657,-11.40258200385387,-0.18617283724159328,-10.436724946742181,-3.080667370411212,1.7984579525792783,3.240035271815202,3.10447767511898,-2.34416183947922,-7.074301327958352,-14.161172456303435,-10.121403843453447,-16.89710833102839,-15.867824423385674
11,-17.215846934028644,-13.313336433839721,-0.03707947670682075,-11.893153494125242,-4.540864071980958,0.6782549115791127,0.5600078068036587,-0.4156755332938486,-5.567277290010465,-10.205374128507637,-16.59835179022802,-12.527038154661552,-18.732976293167326,-17.934061118078244
12,-14.857504919042377,-12.205131688822894,0.13966335595842347,-10.712980445274386,-5.062268433983357,-0.7910455144493123,-2.375047538215278,-3.965567612690053,-7.7160725095190426,-11.345294523001213,-15.642209396326125,-12.163395902237031,-16.54898897490748,-15.994131560038582
13,-8.632391369627774,-7.93302145896826,0.2840475649721675,-6.861760003211672,-4.398058129245178,-2.3047699906458043,-4.84290531686781,-6.572710180096809,-8.095799770749661,-9.899855855636538,-11.120750318927357,-8.76010514897786,-10.46416457672523,-10.056945595061206
14,0.24177705143657258,-1.2266914425577,0.34159490552449334,-1.0196018837046465,-2.6119740012727033,-3.5012730793761104,-6.251203746465866,-7.536578565236435,-6.47624562378302,-5.912731239187188,-3.733319855246035,-2.8725675421530488,-1.589493553189384,-1.211479073473412
15,9.683117134800108,6.40397117377377,0.28154580269010343,5.517820102594117,-0.08327627029733238,-4.041749709758315,-6.264811295076486,-6.6107456346973255,-3.1817035166744985,-0.13510962775716717,5.020473444743222,4.181977370894209,8.148005356607761,8.548404736856227
16,17.26076511702836,13.021048814595147,0.10923604064269772,11.137286505110573,2.5847640526461904,-3.6984404932016655,-4.862369644858464,-4.048797903675813,0.9877576502677942,6.114886634057318,13.15048638575436,10.634581908253766,16.43687441789758,16.795170143556128
17,20.865939469928637,16.78181487616033,-0.1318643184584621,14.332858358090544,4.726867110094601,-2.4296024144654065,-2.3226499531338507,-0.5125462759061544,4.979627922764661,11.276778835082702,18.657993909999565,14.742463840281413,21.167018505680144,21.31525012113743
18,19.339572562484506,16.482212324694917,-0.3702409161354069,14.137615687250781,5.799408955779423,-0.4184654664034764,0.84335494276184,3.119793914450513,7.786656212053731,13.969193501065085,20.063737175047674,15.29556994088931,21.00980038252553,20.746683650250336
19,12.858746814786668,11.952094225270045,-0.5266196249187274,10.430957285151296,5.530215905590938,1.9409440178851156,3.9933767049696125,5.984614658253652,8.726682645302567,13.385825699403743,16.832387377276664,11.995503520715237,15.821344880519439,15.011456318299713
20,2.9509957345866398,4.170558809760467,-0.5389091252915953,4.020637998245018,3.9902655036279464,4.116058610184838,6.4692840249240895,7.4397828689032846,7.620979709804719,9.546228147770302,9.5655715192121,5.583746530846671,6.7404715768238805,5.401333574493078
21,-7.883015076155331,-4.949137602436759,-0.38408705038618013,-3.5369600098628657,1.568124714698737,5.555081261809826,7.713769172126008,7.199460891110092,4.822442326354499,3.322228643776267,-0.10264028742107413,-2.329810408026359,-4.062585928298436,-5.723157128965852
22,-16.83766723960599,-13.055383865946942,-0.08953967482611709,-10.336373023536085,-1.1419162566962773,5.827096147113455,7.377955063480319,5.37437714715713,1.0933884614833782,-3.7735846615040005,-9.89047385925474,-9.695494349493442,-13.929077507544486,-15.545004240284248
23,-21.57037242499863,-17.997615024963096,0.27081064350820133,-14.632652241275801,-3.5018015863059913,4.747153459229569,5.407468889147691,2.420957023365955,-2.6219458361664008,-9.98068649379578,-17.43607635167218,-14.587423304102124,-20.401765644404133,-21.54422386893493
24,-20.84664952995435,-18.425545866086402,0.5955833341613468,-15.315819787455922,-4.992996173917163,2.450276231435924,2.0893085163251106,-0.9781530496500489,-5.457211067298186,-13.755083886381403,-20.897852760541838,-15.737501034431649,-21.872156717132015,-22.17906776097373
25,-14.876080580286201,-14.17351411373125,0.7851832742216549,-12.213532695122307,-5.335683331195957,-0.611433113148582,-1.9613114638438982,-4.070305977253276,-6.839899613282871,-14.175680108206096,-19.426987690473,-12.883729042952472,-18.00505171371532,-17.301822898827307
26,-5.245325006074579,-6.317199463354504,0.7724965847781714,-6.135368970976158,-4.535417408741921,-3.7556854594872107,-5.890164679570366,-6.19315990537981,-6.607536122428646,-11.180839054760522,-13.386226640649696,-6.832889974943167,-9.823005888630066,-8.193444520524942
27,5.526805360018858,3.1143012971664294,0.5453457458212332,1.351902780750146,-2.852718258067765,-6.22540872971968,-8.769559731933283,-6.910556858148141,-5.002965739986683,-5.5731596990427565,-4.257947592891025,0.7765921597096288,0.5707469769150161,2.7887296894998412
28,14.678812345906486,11.687992551837642,0.15319306627150303,8.350590993150988,-0.7136372963806804,-7.376837251709015,-9.81612048610727,-6.101284530314844,-2.564442152884138,1.2037884857714718,5.732154327765959,7.937564694061746,10.551494097331913,12.84665973775307
29,19.94149741269854,17.220834829380905,-0.30467163854473206,13.13614651431915,1.4066022343746132,-6.852352367515699,-8.611501702313682,-3.9844540400776745,0.046409315122195594,7.450770390764051,14.175096936356153,12.825165313386858,17.658551420662175,19.480578422064507
30,20.114449072459884,18.354045728765094,-0.7064009855122114,14.597440473982637,3.0925937301352495,-4.690429606907851,-5.261655939964298,-1.0734239662289051,2.2246431358438854,11.652915284052627,19.07608670832179,14.277801166022284,20.220619178694893,21.128264318572985
31,15.33413112566766,14.891530062067517,-0.9422655342923034,12.496129601990235,4.064683157707659,-1.3387422523487402,-0.4346619824970511,1.9380641732576576,3.5619141860441705,12.85714075657863,19.337363982399182,12.076951945558587,17.756876625845376,17.536660808952618
32,6.977577539374644,7.817801501091542,-0.9461967213317658,7.4851599196982965,4.210948644180438,2.439236559094394,4.755780364942122,4.338561823262154,3.9163814766127207,10.89173079399684,15.008092493330007,6.958622087301334,11.056577146774409,9.778066092207068
33,-2.7506766384178833,-0.9965379555036098,-0.7145546161089713,0.8970600111656563,3.5791420178621665,5.7450893017291165,9.009778730075215,5.5756657411751975,3.4057297916351286,6.378836476297372,7.24557912068026,0.3688834087181083,1.930270147366395,-0.07670369494220151
34,-11.418262272880975,-9.30819861068364,-0.30650590365490654,-5.625410193891855,2.342206652838501,7.769587255722194,11.18399156079103,5.401746687656925,2.33688488093947,0.5465624355811208,-1.993959841755654,-5.953450453445227,-7.2869888605428415,-9.52489648859576
35,-16.981593221191986,-15.085936387443445,0.17375805015068557,-10.5479843994855,0.7531529281745263,8.001791973205298,10.622904129556089,3.944739767661261,1.0990132616315682,-5.1022939745561,-10.450841218745673,-10.44246002799271,-14.339890150527134,-16.277895366900022
36,-18.26046725585255,-17.00973000552031,0.6070278933209429,-12.80287145422264,-0.8992816156104155,6.366342852416969,7.376092865478255,1.676047254441721,0.05052690489871271,-9.17527679536469,-16.117020391315272,-12.091648565040495,-17.60525789830108,-18.816567350211386
37,-15.16407823289539,-14.761674627063575,0.891729455227889,-12.00421206127033,-2.329973719007416,3.249711519481409,2.2246926522390678,-0.7238443463826637,-0.5725724609587106,-10.731423276036685,-17.714571218492413,-10.66682280639834,-16.457435663632246,-16.721542896355952
38,-8.636386488955345,-9.049862774976445,0.9692751735476602,-8.485352683939704,-3.293193039747034,-0.5944251886567852,-3.5057503968468047,-2.5682716669932724,-0.7078096478181974,-9.497004968392659,-14.984518186863834,-6.706216998792757,-11.368376093834465,-10.711965793609027
39,-0.3621812922198587,-1.3797084473510801,0.8351293695103366,-3.1703729832360286,-3.617333050515651,-4.237268812558327,-8.302568928095592,-3.3757891118415606,-0.46783043731590734,-5.9087510884709715,-8.722087125529608,-1.3285212873507093,-3.73580164191411,-2.405041241698187
40,7.67198533003903,6.351096101829664,0.5337667304161091,2.671161448632111,-3.2374257211475745,-6.81334789487314,-10.892953824834173,-3.021420126205763,-0.09404976414922636,-0.9807805220204517,-0.5567931136727953,4.083541693807889,4.500322925328678,6.123284130234521
41,13.645976489154055,12.322199614821033,0.14113034120351856,7.719541238119762,-2.2184221633238357,-7.740522044302683,-10.612531935148514,-1.7737897166800984,0.12609419683978398,3.966623750259706,7.463464178458156,8.23334409371377,11.346725475064686,12.855182012541148
42,16.29657535318002,15.20903588120002,-0.25812493856876084,10.884734447160117,-0.7582418026691959,-6.861489890687541,-7.600321156703865,-0.19944174170578724,-0.04182738707073286,7.646911582260923,13.379892471417943,10.206857140154566,15.228633264753995,16.29714210187558
43,15.155514541007388,14.458403080722077,-0.5906707163252172,11.519328503943923,0.8390968948553458,-4.469060915513078,-2.7559956338372893,1.0392343660563934,-0.6897165133920731,9.13189861747127,15.797824970884035,9.652903020641633,15.336051886155293,15.79194041769672
44,10.602535550475624,10.37152166019568,-0.806308616465027,9.533114602989858,2.2223913838993954,-1.2109477025208037,2.530717758074126,1.426694090044294,-1.713542099141994,8.082269210300606,14.215238534506526,6.82028896677897,11.773906436572945,11.618747694277978
45,3.741764323852392,3.9924088715712296,-0.8802735080143556,5.397280708353756,3.0747744794403125,2.095530006493086,6.7960581544128855,0.7930711739874241,-2.816719488856862,4.828216974241146,9.127730696210966,2.4606121664022154,5.495483304508793,4.877155137755269
46,-3.859006755138886,-3.158909980658407,-0.8089004426418569,0.04253098296112278,3.1974551024113538,4.683302678237992,8.934152427925161,-0.6049915014608307,-3.577932641514817,0.2804897935252882,1.8878380884298136,-2.3675304161112996,-1.9517207185836487,-2.8015474404806318
47,-10.50770155025372,-9.44062846283795,-0.6037124931257862,-5.330883742170923,2.5700194348418153,6.026568186595254,8.510026190754692,-2.158030488227188,-3.5729349809372697,-4.306983556619857,-5.643754699133866,-6.543007678866671,-8.800105672874102,-9.640315466690138
48,-14.740344081548796,-13.451647037588502,-0.2883701113126496,-9.5007476945921,1.3652261683771982,5.951188352096736,5.857645579730066,-3.115346181978578,-2.521117963857508,-7.6650697414971365,-11.56741542348095,-9.123490095110773,-13.467801540849647,-14.111374219084666
49,-15.622719186735699,-14.3278736040909,0.10005972167975827,-11.485946034968906,-0.09142588011456146,4.639691384248305,1.937150368226311,-2.867244657959133,-0.4142669693694199,-8.846419330622506,-14.417794173824936,-9.538949025094194,-14.907429614912969,-15.258365460829031
50,-12.94679526012099,-11.91561949245155,0.5078476148263091,-10.77423818775658,-1.4096279809802006,2.5394053031981687,-1.9962583201337671,-1.200712483491875,2.417409038102359,-7.48512596533652,-13.524359433046678,-7.704786086050302,-12.82629484084582,-12.884463192284427
51,-7.283332462957662,-6.791636883279714,0.864306842073566,-7.462607814977506,-2.245376305529347,0.21083700127062233,-4.799202843341195,1.5662782413697496,5.33507308077839,-3.9091737156951045,-9.17064962533981,-4.036517054502465,-7.73651087283938,-7.575048438397225
52,0.12513783682981156,-0.129352755326658,1.0893247638327515,-2.2684423384634194,-2.4013993170020944,-1.8318627901663034,-5.788431379402472,4.630746655131944,7.525168908775435,0.9292436025371367,-2.513569475775399,0.6365127505460317,-0.8295995933304106,-0.556415617968454
53,7.618127923130846,6.559963212533532,1.110497428695584,3.606226100097602,-1.8844982717194263,-3.2398047562779704,-4.919697198798835,6.9310251249328925,8.213793038762484,5.694481045108208,4.716284754639251,5.244577922022569,6.29460470756513,6.577203197429227
54,13.473917410044745,11.758231854412177,0.8866971963917061,8.740533819737552,-0.9001252840637142,-3.878165247209921,-2.7465505150403824,7.4906704648416165,6.908179118402581,9.022281290208449,10.657524400198472,8.708048592865396,11.986347435119933,12.211662511646319
55,16.298221354976658,14.275745295646828,0.4302852771525249,11.836592999486047,0.21536801509990602,-3.802552173601575,-0.18404245104908928,5.771737005375146,3.5946198760187893,9.897869636903975,13.792171005904867,10.180695191181465,14.915973447317212,15.06500408156078
56,15.358693528233506,13.519462310857971,-0.18180868836780525,12.055033909523127,1.103626660020666,-3.1855761085513907,1.8327445469862322,1.9175189133889345,-1.175256237242004,7.954853290208313,13.331000278876154,9.25371937558108,14.376825211863277,14.470895542318788
57,10.782802078248457,9.634485907063615,-0.8158979044058902,9.253794885702664,1.4990209201059355,-2.2302419339781645,2.6733335049063784,-3.207176426545433,-6.353388146397168,3.6080621561498063,9.412038268952154,6.070847454974396,10.454331870402763,10.532613377954078
58,3.5617573595636696,3.483360664547719,-1.310187732876764,4.057447323448777,1.3115278602287965,-1.105489652611745,2.2086055905417297,-8.209769555425778,-10.621229032950579,-2.025788463856493,3.06154370326186,1.319964629092905,4.020498051042505,4.111415500830111
59,-4.653643154718277,-3.537958689388835,-1.51848143250991,-2.2739769247786503,0.6505479927176412,0.07557795043905514,0.817610355844469,-11.554618733063576,-12.726773756104578,-7.409194448408817,-4.072576361901874,-3.9067138220838977,-3.451110391942049,-3.3532315686604655
60,-11.927737022690732,-9.811561598099924,-1.3564188328560585,-8.152654639628324,-0.21772811867392927,1.235732723027545,-0.7887456132825263,-12.030524846041729,-11.84697154321635,-10.998687081846105,-10.146529811122706,-8.35951938394796,-10.215195626390363,-10.157714678359348
61,-16.501142403462428,-13.869126539829784,-0.8348034192310924,-12.070898981848446,-0.9643735554766013,2.2920313728436503,-1.8561598886238115,-9.158751763360252,-7.871538352956719,-11.683026087268662,-13.596000954657745,-10.930939103077616,-14.659472535993338,-14.71727864070647
62,-17.226209226074502,-14.738554327939436,-0.06706045605095365,-13.000291447620558,-1.3109238377030121,3.1217912254350675,-1.8794576343598786,-3.4086530687012635,-1.515488730719896,-9.120793171099148,-13.538397648087335,-10.93522064078411,-15.692184553717249,-15.933593501433183
63,-13.864880615024047,-12.182382546303343,0.7546351434950858,-10.671010699548725,-1.123363840735658,3.560835680213808,-0.7932573569389678,3.8600356103360247,5.791513547972927,-3.8748279288050704,-9.997931282643464,-8.294977289494637,-13.018101017040046,-13.46154697451693
64,-7.167589144476308,-6.766974471440342,1.4098620286003292,-5.651335449106442,-0.4557022167391749,3.44272895669848,1.0055667500337642,10.728980482255196,12.229929429754966,2.706105893434018,-3.895435208332657,-3.581649997519682,-7.229919820353779,-7.808980220694374
65,1.294000057098304,0.2596688735051845,1.7130417331350407,0.7972185736575537,0.47032669367634306,2.6670999713523824,2.808008941990877,15.243277037672634,16.05571289209152,8.836914926358618,3.193736300084459,2.1073223778129915,0.31610297093400247,-0.23927341326331575
66,9.50370790049412,7.257073479133335,1.5699012837816824,7.050180431051207,1.3409962804817253,1.2687973414912221,3.858216813718076,15.97719660245837,16.08436786485581,12.786422193943642,9.449701296793416,7.4088963035797235,7.818003590202633,7.507603462879773
67,15.494276705309593,12.581464311679511,1.0091296507904952,11.544638386743753,1.8550372945296012,-0.5451897584227692,3.636741475190931,12.476795494324664,12.056047997958553,13.371821497637717,13.278258659864306,11.028912214042336,13.465839759801606,13.615505374604838
68,17.83247520347176,14.980822033133764,0.17820069366321672,13.181509180614036,1.8216107638672274,-2.4147322190472456,2.060266023584011,5.442495798820907,4.768613484240854,10.313763738147117,13.718744460882782,12.065700988664014,15.891089593563752,16.621967834115395
69,15.971743100323076,13.897881710852877,-0.6966102602974329,11.597796427977988,1.2203549723584652,-3.9048240550638895,-0.47208803748333467,-3.4126066181971932,-4.074189911797084,4.344174461664528,10.684593241045667,10.239121091334175,14.512382670524062,15.774704659674759
70,10.382421323295961,9.604576298534905,-1.3746422413856796,7.240136448637324,0.2059976985209765,-4.623028877296396,-3.2006899829072766,-11.798845621747414,-12.272649549714165,-2.971836306268335,4.976566653653609,5.965313610182699,9.685957430841384,11.226040155944009
71,2.427640225275444,3.1332433272155162,-1.67044110365347,1.2276140255448047,-0.9412399819561377,-4.338951387043635,-5.252000916610861,-17.46342188534106,-17.69669990432961,-9.65586936932346,-1.931701420489676,0.25741987679746214,2.6184535838809024,4.013083000875047
72,-5.981130872378212,-3.9785394103939367,-1.507467994208835,-4.9511100838025754,-1.9012709148750593,-3.064884724472984,-5.9250318509512425,-18.810290278134016,-18.856222404473044,-13.862394141154052,-8.277698812744644,-5.522596616882004,-4.938409819173976,-4.17769681174379
73,-12.85877538746739,-10.064936962919274,-0.939718935582619,-9.819973345635107,-2.4078010794960774,-1.0682441716805748,-4.922044737142553,-15.351522233452023,-15.318682758628103,-14.397104565780086,-12.463084797006069,-9.99803372733982,-11.133636593156567,-11.409535804335418
74,-16.629694711891304,-13.735084055111994,-0.13494361480017383,-12.275207585464196,-2.321758478603601,1.191190834913644,-2.449512314441701,-7.86187419750934,-7.855308593765773,-11.059505120480347,-13.459325686439954,-12.113282396790973,-14.487262541107336,-15.963497063111141
75,-16.49811777904475,-14.201028390821456,0.6751594008732305,-11.833382728415666,-1.6645947660399814,3.181212410284609,0.8398163455187286,1.8083636901250555,1.7302650570000804,-4.710785311005214,-11.063067898816598,-11.387742255776269,-14.261486850329938,-16.760365096986963
76,-12.615878616999183,-11.449601231198109,1.2626175741772276,-8.713434874230128,-0.6050319617267754,4.4378378628362745,4.041177506260627,11.211850880736634,11.050655617243843,2.954330376730975,-5.937616279032564,-8.025698880928301,-10.63467086489799,-13.628937371285472
77,-6.011951311786946,-6.219183837400016,1.4686317562178135,-3.7441910454978204,0.5932226481230933,4.684614132527765,6.2644036735471795,17.9437503152911,17.744799100483203,9.869319216113094,0.5682977844492167,-2.8568507345854393,-4.633093447507479,-7.349548180938937
78,1.6901573938297962,0.20633801454374692,1.247840559590864,1.8670425411746447,1.6449790887103408,3.8969433044371256,6.890097003189862,20.2696729350982,20.089272191202106,14.162819880744378,6.776403647854117,2.8751651497097375,2.1587986012574283,0.5417389476243646
79,8.687741815502507,6.327334992189782,0.6790388795645896,6.838088475862966,2.3163646661962543,2.2963720445830913,5.740332728483129,17.57499049987186,17.449634569224894,14.672911968824977,11.116521329457013,7.821147663698841,8.028293761031234,8.140106993666175
80,13.436681301506225,10.793240564141255,-0.06011606737183322,10.109281605600133,2.477524781109114,0.281451119936911,3.1185176274954967,10.519139293549161,10.452489272494956,11.26572041692885,12.531601752185153,10.853157375478917,11.585026069248896,13.650240709369507
81,15.000737633361418,12.709038439499018,-0.7465833385062757,11.065009172683673,2.123508630983327,-1.6807536979413644,-0.28624516334392647,0.8589756494079535,0.8323176700599604,4.870216750816442,10.74387083041602,11.328256584374463,12.108504388135513,15.830392055824818
82,13.230255498538837,11.810666715628802,-1.1779041016309748,9.634810028809708,1.3617187454488202,-3.17009423045901,-3.5961266326190127,-9.007087064172982,-9.007723230836925,-2.7796540313814493,6.312025259999105,9.225459271278776,9.69984838205952,14.285696746568362
83,8.737501760416393,8.475662750515761,-1.2315579330852826,6.262786686478965,0.3736959380976571,-3.9054445978491086,-5.982833627868529,-16.651043836999182,-16.607342866489354,-9.622946139274687,0.4652195235871845,5.126117851758781,5.2027267795259045,9.536012543930507
84,2.6911698780538145,3.581038339917057,-0.9005275163378718,1.7665759861169261,-0.6349093556418235,-3.793575715775567,-6.880205808735331,-20.223291646856037,-20.07473787258085,-13.836273283061093,-5.239606277994023,0.04884687395473735,-0.07420524943710288,2.8466339063498394
85,-3.5020377446395057,-1.7407988846583302,-0.29462091373818144,-2.8693352787452886,-1.481015597952524,-2.929065918866694,-6.116276286997241,-18.902316920787264,-18.564829337475768,-14.328006105211447,-9.341539581372388,-4.813180540898582,-4.744536836139435,-4.124009247797061
86,-8.537706770791758,-6.376079787159554,0.3930903176456428,-6.711601567011765,-2.0356979087154308,-1.552677615853115,-3.9357797010628515,-13.07693709483472,-12.487486717944822,-11.02577980744655,-10.862493310286878,-8.382010435643307,-7.723680991852858,-9.756875751822744
87,-11.48908382252189,-9.462949768709876,0.9451137087792496,-9.05822079669161,-2.2356356928775067,0.0157504216563832,-0.9153401865047796,-4.223299756837935,-3.3937329304289507,-4.879846373146881,-9.54998866622974,-9.938277067369167,-8.49152540644529,-12.865064691819228
88,-11.958773116256749,-10.53446040862197,1.186312204468834,-9.548590798392269,-2.076871036592101,1.4511494789257002,2.198665841517339,5.483055983502494,6.428208074256787,2.4148194933230016,-5.911389855229303,-9.261488550700097,-7.170200157477774,-12.945355903092354
89,-10.089118902186302,-9.554061071334809,1.0384441330192367,-8.193030627587566,-1.5989605766658772,2.4875386777238258,4.682260863855921,13.715043705798234,14.540085754255259,8.895806686055678,-1.0365383168753786,-6.641346959901606,-4.409644018873298,-10.23420341522269
90,-6.453806247987729,-6.85814223692053,0.5454980394071589,-5.331490020066619,-0.8693677786741042,2.962093553603584,6.005306719765265,18.56107344406485,18.970527526981396,12.873160583113789,3.732418797903488,-2.769441078482976,-1.133512863234651,-5.573381164470196
91,-1.8801327851017533,-3.041124915653462,-0.13860670766885838,-1.5438691857513296,0.024729579216980244,2.8344702788742855,5.941480425606969,18.97150737153267,18.702319974545766,13.37984456906784,7.182150339618292,1.4499919048324503,1.7624211516426709,-0.14309253448269854
92,2.7414346744076385,1.1765673994325734,-0.7969125566958853,2.462577349404315,0.975966264345724,2.182026081406372,4.595466903816258,14.980249640265772,13.906873683906687,10.409272504002912,8.547419907224484,5.115825096248746,3.660141523739305,4.8498524807808945
93,6.615376321821362,5.067226335068339,-1.2169453311096234,5.968246415282009,1.8529679032749762,1.1749285011287478,2.348985273429658,7.656808960200964,5.870895785322253,4.879988881411507,7.679863015224308,7.518806509471336,4.344594617421876,8.4413649000506
94,9.144719519683198,7.988526185828416,-1.2580154810467872,8.346603150391344,2.502633170032834,0.037011699152319964,-0.2525724144651517,-1.1879909124292751,-3.358050723680093,-1.6529238403283766,5.028266645476135,8.264893499924963,3.9803349424665777,10.076089857609396
95,9.981527819897854,9.45349823892693,-0.896982883410374,9.154893404959752,2.767378729613943,-1.0006281575167022,-2.6386606459413517,-9.46050655480216,-11.507511580679477,-7.448419973524003,1.4523538709530297,7.317426380017671,2.9692141291230945,9.650116686537205
96,9.040621798584075,9.188026510945445,-0.23753562173151277,8.206804388039055,2.5204058199447514,-1.7453902134932833,-4.340767776905219,-15.288795878431975,-16.653462278192674,-11.057938596842643,-2.0585562077747253,4.96463734210506,1.757386680575309,7.449629468309174
97,6.494519843530038,7.18112654570762,0.5205905279907563,5.620151339999816,1.7128053050999505,-2.079853204471239,-5.07931225893083,-17.449682455587634,-17.68207771279753,-11.695698820667735,-4.66773480044429,1.7340291415769484,0.670415277592525,4.0290653083909564
98,2.7577135435075624,3.7201762186566323,1.1432211587395769,1.8269351168769767,0.41722706520449904,-1.9816450181668377,-4.795634292800757,-15.620180304992278,-14.526355895366924,-9.403062376284302,-5.889516545871803,-1.720027651012567,-0.1648173618467101,0.07578059482167636
99,-1.5458309531999475,-0.6096561312787488,1.4349062412550286,-2.469559016534255,-1.1518856910261646,-1.5214953625508039,-3.630966647654471,-10.403236985664611,-8.128349260049513,-4.974499586610121,-5.65630979985578,-4.73314386153579,-0.7940120464353094,-3.7062364011075357
100,-5.647410085712922,-4.986181296138831,1.3004434954577822,-6.400812422233146,-2.658669739957311,-0.8394136303267665,-1.8679060255694917,-3.1355227883508983,-0.1522490512783789,0.31601853874267577,-4.255368845230904,-6.737992496420574,-1.3330070133461813,-6.6835083938913895
101,-8.743536276024484,-8.484453472186512,0.7751437815602298,-9.097851094448501,-3.7129675343254265,-0.10502867791303054,0.14318614063570295,4.462721101469812,7.462877317808727,5.094309476641498,-2.1792274432595744,-7.35411542209748,-1.8474606953478105,-8.359333277974162
102,-10.148448818419926,-10.273304187739688,0.014175819597260513,-9.889252352672242,-3.9737612000922184,0.526743680906718,2.051747501155718,10.701940932631317,12.986289838895388,8.254267703461426,0.04482141186622422,-6.454745863473311,-2.277082245447569,-8.43298798746711
103,-9.46320338816208,-9.833356422718559,-0.7555730355763957,-8.486692304649925,-3.261812632509492,0.9516826515279052,3.555578772114831,14.299838646182716,15.290710818788483,9.212846527294058,1.9862837634316244,-4.2020758235245586,-2.4431241232875855,-6.856862591896735
104,-6.7147869939197555,-7.13373926497369,-1.3057228563078542,-5.102312069096933,-1.6443593562832282,1.1335624135627782,4.4285087505264045,14.636334114966235,14.068906155074274,7.993543430086215,3.371410590816059,-1.0387164791051722,-2.137132789790142,-3.8794981448369175
105,-2.4120517018471435,-2.7021189987811236,-1.4763937726565461,-0.44971891557559024,0.5433136607309516,1.099050461406905,4.534284004300636,11.83971951835142,9.835616508440612,5.137460994609975,4.0744836714254955,2.3760708223716307,-1.2490735435429159,-0.04825297492445504
106,2.520606688441439,2.454936376780368,-1.2239683003495117,4.392629493591874,2.7589179564306243,0.914538322262069,3.836770803132999,6.700921411174795,3.7367938242591974,1.4918327052968567,4.071515332150685,5.287706605567147,0.12847477542059343,3.855784592393349
107,6.93718473066776,7.080873790239141,-0.6319984351042499,8.236399577766802,4.390348315530363,0.6554494779482484,2.4122576472212223,0.4522389093349191,-2.766602059900021,-2.0454045211086633,3.396667472733252,7.010606370138573,1.6764381629562937,6.961520152052847
108,9.75362522573206,9.99605765413388,0.11743430946835909,10.095908852124493,4.934455475788301,0.3803698001602185,0.46048581517767884,-5.5274024312143695,-8.251142206385131,-4.74648195554125,2.129742248348376,7.101478973789382,2.92900594418002,8.511246597336058
109,10.24561294174111,10.431343546103498,0.8020107758987978,9.470080980112195,4.1630148221128245,0.1190899406989801,-1.6978125134407418,-10.010744152273531,-11.634723212693832,-6.186498266502707,0.4174151401377362,5.494174798829474,3.4347513639455785,8.073386665403136
110,8.269334397073148,8.264341408094484,1.228029690522101,6.504832965271694,2.218645920568709,-0.12310469459582915,-3.6519577904733174,-12.162622579903461,-12.371010664575389,-6.271934528833003,-1.4949575386239542,2.549200031040474,2.9381295028527545,5.696124348197836
111,4.328541401484534,4.076793804798976,1.287846419825447,1.9763506360317344,-0.3990761456807745,-0.3497883920340043,-4.969589796895707,-11.680869515794958,-10.508495452473397,-5.184255130990147,-3.2567030522287626,-1.0107939242106745,1.5057666622468082,1.9396610100004974
112,-0.5453494878261279,-0.9958245756690716,0.9881729198811784,-2.9115334356816573,-2.9632627121870603,-0.5558678806485478,-5.296083063393668,-8.820400075415742,-6.621698008293113,-3.27875112988421,-4.458367946518559,-4.275624413616105,-0.4609795428596212,-2.2426363708424457
113,-5.074194154168339,-5.584891179900158,0.44143846126205144,-6.8630114393500765,-4.73160530077099,-0.7177357198625881,-4.461655667064677,-4.3064811401165395,-1.6465297063069553,-0.9804320618042759,-4.734072402356428,-6.391265515547856,-2.3426625150274094,-5.754274541293404
114,-8.094385630589352,-8.484237256828033,-0.17535867232547342,-8.860176352426098,-5.175898419211794,-0.7964509556304972,-2.5607644302034926,0.8381826668108345,3.3359766491256813,1.295359601103687,-3.890934070492654,-6.803471416098449,-3.51104692264936,-7.667928540755043
115,-8.887557929732376,-8.99780885674795,-0.6794554557522353,-8.45305618789179,-4.153919344619313,-0.7528363638432051,0.031117557582798907,5.515294269997543,7.322097839490052,3.1905188779092986,-2.0146745394443686,-5.425002709164833,-3.55500341241162,-7.50226974916127
116,-7.376533422406921,-7.129525898410983,-0.9388008930231476,-5.878398251680853,-1.963694370735066,-0.567625872834611,2.722835139781549,8.778125997383388,9.574555974643825,4.429384243279749,0.5003951926638289,-2.6690330143677516,-2.4367916484406065,-5.370296123960605
117,-4.12498791246809,-3.5561980418606507,-0.9080218007992868,-1.969914795722511,0.7424149096246435,-0.2572325576084877,4.848067316789775,10.02040111429016,9.748670486258362,4.8366916806072515,3.025698785267184,0.6680925809098617,-0.5167375269490009,-1.945178773976249
118,-0.143664545676494,0.6043075176555913,-0.6336158035210683,2.109709988399689,3.1592279933175735,0.12267338609024883,5.845919556066982,9.090131297394747,7.937485791332395,4.357645575259523,4.8666514422145415,3.642445660431449,1.5663303250128284,1.749659875296929
119,3.430581978379761,4.150322420648646,-0.22917073025600965,5.22703325900688,4.581055840033049,0.4886197037179431,5.427667204932072,6.305459930009655,4.630955410875862,3.0775583637229893,5.475214595492877,5.443788268370378,3.1165993936506995,4.658990452459153
120,5.6765184947498035,6.160362133653791,0.16844475805413214,6.610539429916651,4.621465643542709,0.752527404390434,3.6746268962905346,2.369140839147844,0.5986031192488208,1.228188864259459,4.634367839479156,5.633197220498583,3.623743959275376,6.0176683388009495
121,6.1416898376562,6.247047301654484,0.44534164161612627,6.053744609437644,3.327555807734068,0.8485840007510909,1.0307255069488934,-1.7997093408451301,-3.280752314557722,-0.8345442435813676,2.5463385824432234,4.261375132986701,2.937831503610579,5.570080052836677
122,4.931955119620386,4.6258396529049435,0.543413070516546,3.931061919753477,1.1518407912299824,0.7541747639029925,-1.8139095341254703,-5.278600246289647,-6.207427059759178,-2.6894370221065107,-0.21268967111394457,1.8316717208530437,1.314244690447595,3.6178575093703538
123,2.620647860555819,1.9890972687478135,0.4700855274839038,1.0328807581827866,-1.2062012258411527,0.4973942292183901,-4.116215502123887,-7.350076918877543,-7.627733798094667,-3.9391979593687902,-2.86216333134455,-0.8762846817070573,-0.6848092755708813,0.8869943718020419
124,0.021455882587689858,-0.7584623944012326,0.2846338940908622,-1.7146733472361078,-3.0325507717461706,0.1485443633268318,-5.291941640105129,-7.656598255689507,-7.343150644712953,-4.308875110687006,-4.657060971131848,-3.060625057068334,-2.3929143660116985,-1.7325428460284538
125,-2.0889090426514416,-2.8043839083800877,0.06910360456868929,-3.5461246494362184,-3.824852744765183,-0.20129256377657123,-5.08024120270862,-6.265633568048022,-5.537914855587145,-3.723790129297768,-5.118070816354768,-4.143438912715954,-3.270399334986017,-3.4805150469731365
126,-3.2027697753686355,-3.6691615859047406,-0.10356940362879599,-4.0720180060411595,-3.437135888902995,-0.46717465838642686,-3.6100489133998175,-3.630919294363469,-2.719630865292374,-2.3392997608970365,-4.174587788103879,-3.9297725456285226,-3.08061682262387,-3.9531005669679358
127,-3.1971828648440495,-3.3100315000294223,-0.19233809335620344,-3.351089352820766,-2.099000849881457,-0.5937812875649012,-1.3488236706893646,-0.4619225175760165,0.41215240708929207,-0.5076969345046635,-2.1734948228837156,-2.6331741666333333,-1.9520573224407565,-3.191861487350749
