,AF3,F7,F3,FC5,T7,P7,O1,O2,P8,T8,FC6,F4,F8,AF4
0,4197.436035,4215.897461,4203.077148,4216.410156,4216.922852,4211.282227,4197.436035,4206.666504,4203.077148,4197.94873,4190.256348,4170.769043,4199.487305,4186.666504
1,4191.282227,4213.846191,4201.025879,4215.897461,4214.358887,4201.025879,4188.717773,4207.179688,4202.05127,4191.794922,4186.153809,4166.153809,4192.307617,4185.641113
2,4195.384766,4223.589844,4209.230957,4216.410156,4215.897461,4206.666504,4196.410156,4211.794922,4214.871582,4204.102539,4199.487305,4168.205078,4204.615234,4201.538574
3,4200.512695,4231.794922,4217.436035,4221.538574,4220.512695,4220.512695,4207.692383,4220.512695,4223.077148,4217.94873,4207.179688,4172.307617,4214.871582,4206.666504
4,4201.025879,4232.307617,4216.922852,4229.230957,4221.538574,4219.487305,4211.794922,4222.05127,4221.538574,4217.94873,4203.077148,4172.307617,4206.666504,4198.974121
5,4202.05127,4229.230957,4216.922852,4227.692383,4217.94873,4213.333496,4214.358887,4216.922852,4219.487305,4209.743652,4196.922852,4169.743652,4199.487305,4197.436035
6,4200.0,4221.025879,4215.384766,4217.94873,4215.384766,4214.358887,4213.333496,4213.333496,4217.94873,4202.563965,4195.897461,4169.743652,4198.974121,4196.922852
7,4199.487305,4214.871582,4212.820313,4215.897461,4213.333496,4212.307617,4210.769043,4215.897461,4216.922852,4205.128418,4197.94873,4170.769043,4197.436035,4194.871582
8,4210.256348,4217.436035,4221.025879,4219.487305,4213.333496,4211.794922,4214.871582,4215.384766,4220.512695,4211.794922,4201.538574,4171.282227,4202.05127,4201.025879
9,4212.307617,4216.922852,4224.102539,4217.94873,4213.333496,4212.307617,4212.820313,4212.307617,4214.871582,4205.128418,4199.487305,4169.230957,4203.589844,4202.563965
10,4206.666504,4214.871582,4215.384766,4218.974121,4213.846191,4209.743652,4205.641113,4216.922852,4206.666504,4200.0,4194.358887,4164.615234,4200.512695,4197.436035
11,4213.846191,4226.666504,4222.563965,4230.256348,4217.436035,4218.461426,4215.384766,4221.538574,4220.0,4214.871582,4202.563965,4169.743652,4211.282227,4205.641113
12,4224.102539,4237.94873,4236.410156,4236.922852,4221.025879,4224.102539,4226.153809,4217.94873,4234.358887,4223.589844,4214.358887,4180.0,4221.538574,4217.94873
13,4219.487305,4235.384766,4233.846191,4232.307617,4220.0,4217.436035,4222.563965,4212.820313,4224.615234,4216.922852,4210.256348,4179.487305,4217.436035,4216.410156
14,4216.410156,4231.282227,4229.743652,4230.256348,4218.461426,4219.487305,4217.436035,4211.282227,4215.384766,4215.384766,4203.589844,4173.846191,4215.897461,4209.230957
15,4215.897461,4232.307617,4228.717773,4230.256348,4218.461426,4225.128418,4213.846191,4211.794922,4217.436035,4216.410156,4204.102539,4173.846191,4216.410156,4206.666504
16,4206.666504,4231.282227,4220.512695,4225.128418,4215.897461,4217.436035,4208.205078,4207.692383,4214.871582,4213.333496,4201.538574,4174.871582,4209.230957,4208.717773
17,4204.102539,4229.743652,4214.358887,4225.128418,4215.384766,4212.820313,4209.743652,4205.641113,4213.333496,4215.384766,4200.512695,4172.820313,4207.179688,4212.820313
18,4211.794922,4231.794922,4218.974121,4232.307617,4219.487305,4223.589844,4213.846191,4209.743652,4217.436035,4219.487305,4206.666504,4172.820313,4215.384766,4215.384766
19,4213.333496,4233.846191,4223.077148,4232.307617,4221.025879,4230.769043,4213.333496,4214.358887,4217.436035,4218.974121,4205.128418,4181.025879,4217.436035,4217.94873
20,4203.589844,4233.846191,4220.0,4228.717773,4216.410156,4225.641113,4217.436035,4212.307617,4214.871582,4214.358887,4197.436035,4182.563965,4209.230957,4220.0
21,4200.512695,4231.794922,4221.538574,4230.769043,4216.410156,4223.077148,4222.563965,4210.769043,4215.897461,4212.307617,4197.94873,4174.358887,4206.153809,4217.436035
22,4210.256348,4236.410156,4228.717773,4234.871582,4224.615234,4228.717773,4220.512695,4211.282227,4213.846191,4215.384766,4202.563965,4176.410156,4211.794922,4220.0
23,4215.384766,4238.461426,4230.256348,4234.358887,4224.615234,4227.179688,4220.0,4210.769043,4210.769043,4215.384766,4203.077148,4185.128418,4214.358887,4227.179688
24,4213.333496,4233.333496,4228.205078,4231.794922,4216.410156,4215.897461,4218.974121,4210.256348,4209.743652,4213.846191,4204.102539,4183.077148,4211.794922,4228.717773
25,4215.384766,4238.461426,4231.794922,4233.333496,4219.487305,4218.974121,4217.436035,4210.256348,4216.410156,4222.05127,4212.820313,4189.743652,4215.897461,4231.794922
26,4218.461426,4246.666504,4235.897461,4237.94873,4229.743652,4227.692383,4222.05127,4212.307617,4225.641113,4233.846191,4218.461426,4203.077148,4221.025879,4235.384766
27,4214.358887,4238.461426,4229.230957,4233.846191,4222.05127,4218.974121,4214.358887,4211.282227,4219.487305,4229.743652,4214.358887,4193.846191,4216.410156,4233.333496
28,4213.333496,4234.871582,4229.743652,4229.230957,4214.358887,4213.333496,4202.563965,4210.769043,4212.307617,4225.128418,4214.358887,4185.128418,4222.563965,4237.94873
29,4217.94873,4246.666504,4240.512695,4233.846191,4226.666504,4225.641113,4212.307617,4217.436035,4224.615234,4238.461426,4225.128418,4193.846191,4236.410156,4249.743652
30,4217.436035,4251.282227,4242.05127,4235.897461,4236.410156,4232.307617,4225.641113,4221.538574,4235.897461,4246.153809,4231.794922,4193.333496,4235.897461,4251.794922
31,4214.358887,4246.153809,4234.871582,4233.846191,4229.743652,4230.769043,4217.94873,4217.436035,4228.205078,4234.871582,4226.666504,4184.615234,4230.256348,4247.179688
32,4213.846191,4246.153809,4233.846191,4234.871582,4226.666504,4229.743652,4214.358887,4217.94873,4226.153809,4230.256348,4218.461426,4185.128418,4231.282227,4243.077148
33,4212.820313,4251.794922,4236.410156,4236.410156,4230.256348,4226.666504,4223.077148,4222.563965,4233.846191,4238.461426,4222.563965,4189.230957,4228.205078,4237.436035
34,4206.153809,4245.128418,4231.794922,4233.846191,4223.589844,4217.436035,4221.025879,4219.487305,4224.615234,4233.846191,4219.487305,4181.538574,4218.974121,4230.256348
35,4197.94873,4230.769043,4225.128418,4228.717773,4215.384766,4214.358887,4215.384766,4217.94873,4212.307617,4216.922852,4201.538574,4168.717773,4212.307617,4222.05127
36,4197.436035,4234.358887,4226.153809,4229.230957,4222.563965,4224.102539,4221.025879,4219.487305,4215.384766,4211.794922,4201.538574,4169.230957,4211.794922,4215.897461
37,4205.641113,4249.743652,4231.794922,4234.871582,4231.282227,4227.692383,4227.179688,4219.487305,4219.487305,4217.94873,4214.358887,4181.538574,4214.871582,4221.025879
38,4212.820313,4249.230957,4233.846191,4238.461426,4230.256348,4219.487305,4224.102539,4219.487305,4216.410156,4220.512695,4215.384766,4186.666504,4217.436035,4230.769043
39,4212.307617,4243.077148,4232.307617,4237.436035,4226.153809,4216.410156,4221.538574,4222.563965,4215.897461,4215.897461,4209.230957,4183.077148,4215.897461,4232.820313
40,4213.846191,4248.717773,4233.333496,4236.410156,4228.205078,4220.0,4223.077148,4219.487305,4215.897461,4215.384766,4207.692383,4184.102539,4216.922852,4231.794922
41,4220.0,4254.358887,4235.384766,4238.974121,4231.282227,4217.94873,4222.05127,4215.384766,4207.692383,4215.897461,4203.589844,4186.666504,4215.384766,4233.846191
42,4215.897461,4250.769043,4231.282227,4238.461426,4228.717773,4214.358887,4221.025879,4216.922852,4198.974121,4208.205078,4200.0,4185.641113,4206.666504,4233.846191
43,4201.538574,4245.128418,4228.205078,4231.794922,4221.538574,4214.871582,4220.0,4217.436035,4197.94873,4200.0,4200.0,4184.615234,4202.563965,4229.230957
44,4199.487305,4244.615234,4228.205078,4229.230957,4224.615234,4212.820313,4218.461426,4214.358887,4200.0,4201.025879,4201.025879,4182.05127,4207.179688,4222.563965
45,4207.179688,4248.717773,4224.615234,4233.333496,4229.743652,4212.307617,4218.461426,4214.871582,4198.461426,4203.077148,4202.05127,4174.358887,4204.102539,4215.384766
46,4198.461426,4244.102539,4214.358887,4232.307617,4222.05127,4211.794922,4215.384766,4211.794922,4196.410156,4200.0,4193.333496,4163.077148,4190.256348,4200.512695
47,4186.153809,4234.871582,4209.743652,4227.692383,4215.897461,4213.333496,4214.358887,4209.230957,4199.487305,4197.94873,4188.205078,4160.0,4189.230957,4193.846191
48,4192.820313,4238.461426,4213.333496,4229.230957,4221.025879,4215.384766,4218.974121,4214.871582,4204.102539,4200.512695,4196.922852,4165.128418,4198.974121,4206.666504
49,4201.538574,4245.641113,4213.846191,4231.794922,4221.025879,4210.769043,4220.0,4219.487305,4201.538574,4207.179688,4203.589844,4173.333496,4203.077148,4218.974121
50,4202.05127,4244.615234,4221.025879,4230.256348,4215.897461,4207.179688,4214.871582,4217.436035,4199.487305,4214.358887,4205.128418,4182.05127,4208.717773,4218.974121
51,4202.563965,4246.666504,4228.717773,4230.256348,4223.077148,4213.333496,4215.384766,4217.436035,4204.102539,4213.846191,4207.692383,4185.128418,4214.358887,4218.974121
52,4203.077148,4251.282227,4223.077148,4230.256348,4229.230957,4217.436035,4217.94873,4217.436035,4203.589844,4206.153809,4204.615234,4182.563965,4206.666504,4218.461426
53,4200.0,4247.179688,4215.897461,4227.179688,4223.589844,4209.230957,4212.307617,4210.256348,4196.410156,4199.487305,4196.922852,4184.615234,4197.94873,4216.922852
54,4197.94873,4242.563965,4217.436035,4225.641113,4220.512695,4204.615234,4207.179688,4207.179688,4193.846191,4196.922852,4195.384766,4188.717773,4200.512695,4218.461426
55,4204.615234,4250.769043,4220.0,4229.743652,4227.179688,4212.307617,4213.846191,4216.922852,4200.0,4203.077148,4202.05127,4194.871582,4205.128418,4219.487305
56,4211.794922,4258.974121,4220.0,4234.871582,4233.846191,4217.94873,4221.538574,4225.641113,4206.153809,4213.333496,4209.743652,4200.0,4206.666504,4222.563965
57,4207.692383,4253.333496,4218.974121,4233.846191,4230.256348,4214.358887,4216.922852,4224.102539,4201.538574,4209.743652,4207.692383,4193.333496,4206.666504,4224.615234
58,4197.436035,4244.102539,4214.871582,4227.692383,4220.0,4211.282227,4214.871582,4220.512695,4194.358887,4201.538574,4198.974121,4186.666504,4198.974121,4214.358887
59,4200.512695,4247.692383,4220.512695,4226.153809,4215.384766,4213.333496,4221.538574,4221.538574,4198.974121,4209.743652,4206.666504,4196.922852,4201.025879,4210.256348
60,4211.282227,4254.358887,4231.794922,4230.256348,4220.512695,4212.820313,4223.589844,4223.589844,4206.153809,4222.05127,4222.05127,4206.666504,4213.846191,4218.974121
61,4210.769043,4250.769043,4230.256348,4231.794922,4221.538574,4210.769043,4218.974121,4221.025879,4201.538574,4216.410156,4214.871582,4201.538574,4212.307617,4220.512695
62,4209.743652,4247.692383,4228.205078,4230.769043,4217.94873,4213.846191,4221.025879,4221.025879,4199.487305,4209.230957,4205.128418,4197.94873,4206.153809,4212.307617
63,4212.307617,4251.794922,4229.743652,4231.794922,4217.436035,4218.461426,4224.615234,4220.0,4203.589844,4214.358887,4212.307617,4198.461426,4211.794922,4206.666504
64,4208.205078,4250.256348,4222.05127,4231.794922,4217.436035,4217.94873,4222.563965,4217.436035,4203.589844,4212.820313,4210.256348,4190.256348,4212.307617,4201.538574
65,4200.0,4245.128418,4212.307617,4227.692383,4217.94873,4216.410156,4221.025879,4217.436035,4202.05127,4203.589844,4201.025879,4185.641113,4203.077148,4197.436035
66,4196.410156,4245.641113,4211.794922,4225.128418,4216.410156,4215.897461,4220.512695,4218.974121,4202.05127,4202.05127,4201.538574,4186.153809,4200.512695,4200.0
67,4197.436035,4246.666504,4213.333496,4224.615234,4214.358887,4211.794922,4215.897461,4215.897461,4198.461426,4203.589844,4204.102539,4187.179688,4201.538574,4202.05127
68,4198.974121,4244.102539,4214.358887,4224.102539,4214.871582,4204.615234,4213.846191,4214.871582,4197.94873,4204.102539,4205.128418,4188.717773,4202.05127,4203.589844
69,4196.410156,4244.102539,4211.794922,4218.974121,4214.871582,4203.589844,4216.410156,4220.0,4203.589844,4210.769043,4212.307617,4190.256348,4206.666504,4208.717773
70,4193.333496,4243.077148,4204.615234,4216.922852,4213.846191,4211.282227,4219.487305,4222.563965,4203.077148,4214.358887,4214.358887,4188.205078,4206.153809,4205.641113
71,4195.897461,4241.538574,4205.641113,4223.589844,4216.922852,4217.94873,4225.641113,4222.563965,4201.025879,4212.307617,4212.307617,4192.307617,4207.179688,4199.487305
72,4202.05127,4246.153809,4214.358887,4231.282227,4218.974121,4220.0,4235.384766,4224.615234,4214.358887,4217.94873,4217.94873,4201.538574,4214.358887,4208.717773
73,4202.563965,4247.692383,4215.897461,4232.820313,4220.0,4220.512695,4236.922852,4226.153809,4221.538574,4218.974121,4215.897461,4200.0,4213.846191,4215.897461
74,4195.897461,4238.461426,4207.692383,4226.153809,4212.820313,4217.94873,4227.692383,4223.077148,4207.692383,4205.641113,4204.102539,4195.897461,4203.589844,4202.563965
75,4189.743652,4231.794922,4203.077148,4217.436035,4203.077148,4214.871582,4222.563965,4218.974121,4196.410156,4198.974121,4197.436035,4197.94873,4198.461426,4194.871582
76,4197.94873,4235.384766,4209.230957,4220.512695,4206.666504,4215.384766,4228.205078,4220.0,4203.077148,4206.666504,4202.05127,4204.615234,4205.641113,4209.230957
77,4211.794922,4243.589844,4217.94873,4228.205078,4213.846191,4215.897461,4230.769043,4223.077148,4207.179688,4217.436035,4211.282227,4212.307617,4215.384766,4219.487305
78,4215.897461,4249.230957,4221.025879,4229.743652,4213.846191,4215.384766,4225.128418,4222.563965,4203.077148,4218.974121,4216.410156,4218.461426,4219.487305,4220.512695
79,4215.384766,4251.282227,4220.0,4231.282227,4215.384766,4215.384766,4221.538574,4222.563965,4200.512695,4208.717773,4213.333496,4219.487305,4214.871582,4215.384766
80,4210.769043,4251.282227,4218.461426,4228.205078,4215.897461,4216.410156,4220.512695,4221.538574,4200.0,4200.512695,4206.666504,4213.333496,4207.179688,4200.512695
81,4202.05127,4248.717773,4217.436035,4221.538574,4205.641113,4217.436035,4217.94873,4219.487305,4196.922852,4199.487305,4202.05127,4205.641113,4202.05127,4192.307617
82,4200.0,4246.666504,4216.410156,4221.538574,4200.512695,4213.846191,4214.358887,4217.436035,4196.410156,4201.025879,4202.563965,4200.512695,4201.025879,4198.461426
83,4203.077148,4249.743652,4215.384766,4229.230957,4209.230957,4210.256348,4214.871582,4221.538574,4201.025879,4206.666504,4207.179688,4199.487305,4208.717773,4203.077148
84,4205.641113,4253.333496,4217.94873,4230.256348,4215.384766,4212.307617,4220.512695,4224.615234,4205.641113,4210.256348,4206.153809,4203.077148,4214.871582,4198.461426
85,4203.589844,4249.743652,4216.922852,4223.077148,4213.333496,4213.846191,4220.0,4219.487305,4197.436035,4203.077148,4199.487305,4198.974121,4206.666504,4192.307617
86,4194.871582,4243.077148,4204.102539,4214.871582,4205.128418,4209.743652,4212.307617,4212.820313,4188.205078,4194.358887,4194.358887,4188.205078,4194.871582,4182.563965
87,4190.256348,4242.563965,4196.922852,4214.358887,4202.563965,4209.230957,4213.333496,4213.846191,4194.358887,4197.94873,4196.922852,4189.230957,4203.077148,4181.538574
88,4198.461426,4247.179688,4206.153809,4219.487305,4209.743652,4214.871582,4216.410156,4217.94873,4202.05127,4207.692383,4206.153809,4201.538574,4215.897461,4194.358887
89,4209.230957,4248.205078,4216.410156,4222.05127,4215.384766,4216.410156,4216.410156,4217.436035,4206.153809,4214.871582,4213.846191,4209.743652,4216.922852,4204.102539
90,4214.358887,4249.743652,4217.436035,4223.589844,4213.846191,4211.794922,4218.974121,4216.922852,4213.846191,4217.436035,4213.846191,4217.436035,4220.0,4206.666504
91,4217.94873,4260.0,4218.461426,4227.692383,4212.307617,4208.205078,4220.512695,4219.487305,4213.846191,4218.974121,4218.461426,4230.256348,4230.769043,4208.205078
92,4218.974121,4263.589844,4219.487305,4227.692383,4212.307617,4207.179688,4217.94873,4220.0,4202.563965,4216.922852,4218.974121,4230.769043,4229.743652,4202.563965
93,4215.384766,4253.333496,4214.871582,4221.025879,4210.769043,4208.717773,4216.410156,4214.871582,4195.384766,4211.282227,4207.179688,4219.487305,4216.922852,4197.436035
94,4214.871582,4252.307617,4214.358887,4221.025879,4211.282227,4212.820313,4220.512695,4213.333496,4201.538574,4212.820313,4206.666504,4215.384766,4213.846191,4203.077148
95,4222.05127,4263.077148,4218.461426,4229.230957,4214.871582,4218.974121,4229.230957,4221.538574,4208.205078,4217.436035,4215.384766,4217.436035,4221.538574,4209.230957
96,4229.230957,4263.589844,4217.436035,4231.282227,4215.897461,4221.025879,4233.333496,4224.102539,4205.128418,4214.871582,4215.384766,4220.512695,4222.05127,4208.717773
97,4229.743652,4260.0,4220.0,4229.743652,4216.922852,4217.436035,4230.769043,4219.487305,4208.205078,4216.922852,4214.871582,4226.666504,4216.922852,4211.794922
98,4233.846191,4266.153809,4231.282227,4234.358887,4219.487305,4215.897461,4231.794922,4220.512695,4216.410156,4224.102539,4219.487305,4233.846191,4224.615234,4215.384766
99,4241.025879,4270.256348,4233.846191,4234.871582,4219.487305,4216.410156,4231.282227,4223.077148,4209.230957,4221.025879,4220.0,4233.333496,4231.282227,4211.794922
100,4239.487305,4266.153809,4230.769043,4231.794922,4218.974121,4216.410156,4230.769043,4222.563965,4203.589844,4216.410156,4218.461426,4230.256348,4221.538574,4210.256348
101,4235.384766,4264.615234,4233.333496,4233.846191,4220.512695,4218.974121,4232.307617,4221.538574,4211.282227,4217.94873,4219.487305,4232.307617,4215.384766,4214.358887
102,4235.384766,4263.077148,4232.307617,4231.794922,4217.436035,4213.333496,4226.153809,4219.487305,4198.974121,4209.743652,4214.358887,4233.333496,4216.410156,4207.692383
103,4235.384766,4262.05127,4228.205078,4227.692383,4212.820313,4204.615234,4219.487305,4215.897461,4182.563965,4200.0,4210.256348,4234.358887,4214.358887,4200.0
104,4233.846191,4265.128418,4230.769043,4230.256348,4216.922852,4210.256348,4227.179688,4218.974121,4195.384766,4206.153809,4214.871582,4235.897461,4216.922852,4209.743652
105,4231.794922,4266.153809,4231.282227,4230.769043,4220.512695,4214.358887,4232.307617,4223.589844,4209.230957,4217.436035,4220.512695,4232.820313,4219.487305,4218.974121
106,4227.692383,4260.512695,4226.666504,4228.717773,4217.94873,4206.666504,4225.128418,4225.128418,4211.282227,4218.974121,4216.410156,4226.153809,4211.794922,4209.230957
107,4228.205078,4258.461426,4222.563965,4230.769043,4221.538574,4211.282227,4226.153809,4226.153809,4214.358887,4218.461426,4211.794922,4222.05127,4210.769043,4204.102539
108,4228.717773,4256.410156,4220.0,4232.307617,4230.256348,4221.025879,4230.769043,4221.025879,4206.153809,4216.922852,4217.94873,4218.974121,4216.410156,4207.179688
109,4220.0,4249.743652,4216.922852,4228.205078,4231.282227,4217.94873,4226.666504,4215.897461,4193.333496,4214.871582,4220.512695,4215.897461,4214.871582,4203.077148
110,4215.384766,4253.846191,4215.384766,4229.230957,4229.743652,4223.077148,4227.692383,4220.512695,4198.461426,4215.897461,4214.871582,4214.358887,4214.358887,4198.974121
111,4219.487305,4258.974121,4212.820313,4229.230957,4230.769043,4232.307617,4232.820313,4223.077148,4201.025879,4215.384766,4211.282227,4213.333496,4213.846191,4199.487305
112,4220.0,4253.333496,4213.846191,4222.05127,4230.256348,4222.563965,4229.743652,4220.512695,4190.256348,4214.871582,4214.871582,4212.307617,4208.717773,4200.512695
113,4218.974121,4248.717773,4217.436035,4217.94873,4229.230957,4220.0,4229.230957,4222.05127,4190.769043,4213.846191,4211.794922,4208.717773,4204.615234,4201.025879
114,4223.077148,4252.820313,4218.461426,4224.615234,4229.230957,4231.282227,4235.897461,4224.102539,4201.538574,4208.205078,4204.615234,4203.589844,4201.538574,4202.563965
115,4227.179688,4256.922852,4223.589844,4229.743652,4228.205078,4228.717773,4235.897461,4224.615234,4206.666504,4208.717773,4207.692383,4207.692383,4203.589844,4207.179688
116,4233.333496,4261.538574,4231.282227,4229.230957,4229.230957,4216.410156,4230.769043,4220.512695,4213.333496,4218.974121,4220.0,4217.94873,4215.897461,4215.384766
117,4241.025879,4268.717773,4236.922852,4231.794922,4231.794922,4216.410156,4235.384766,4217.94873,4216.922852,4225.128418,4225.641113,4221.025879,4223.589844,4220.512695
118,4237.94873,4264.102539,4234.871582,4231.282227,4232.307617,4225.128418,4237.436035,4216.922852,4204.102539,4214.358887,4214.871582,4217.94873,4217.436035,4213.846191
119,4230.769043,4251.794922,4224.102539,4222.563965,4228.717773,4232.307617,4233.333496,4216.410156,4190.769043,4202.563965,4202.563965,4208.205078,4206.153809,4201.538574
120,4228.205078,4248.205078,4215.384766,4215.897461,4226.666504,4231.282227,4233.846191,4217.436035,4201.538574,4206.153809,4201.025879,4200.512695,4202.05127,4194.358887
121,4221.025879,4249.743652,4215.897461,4218.461426,4226.666504,4227.179688,4236.922852,4219.487305,4215.897461,4217.94873,4205.641113,4204.615234,4207.179688,4195.384766
122,4215.384766,4246.153809,4216.922852,4220.0,4228.205078,4225.641113,4232.307617,4217.94873,4212.307617,4217.94873,4209.230957,4211.794922,4211.794922,4198.461426
123,4223.077148,4244.102539,4216.922852,4217.94873,4231.282227,4222.05127,4230.256348,4217.94873,4199.487305,4215.897461,4214.358887,4213.846191,4217.436035,4205.128418
124,4234.358887,4252.307617,4225.641113,4221.538574,4231.794922,4214.871582,4231.282227,4221.538574,4198.461426,4222.05127,4224.615234,4214.358887,4228.205078,4213.846191
125,4241.025879,4261.538574,4232.307617,4229.743652,4230.256348,4216.922852,4229.743652,4224.615234,4210.256348,4229.230957,4228.205078,4220.512695,4234.871582,4215.384766
126,4248.205078,4268.717773,4236.410156,4235.897461,4235.897461,4222.563965,4232.820313,4225.128418,4221.538574,4238.974121,4231.794922,4233.333496,4237.94873,4219.487305
127,4244.615234,4263.077148,4234.358887,4229.230957,4237.94873,4220.0,4231.794922,4221.538574,4221.025879,4244.615234,4233.333496,4230.769043,4236.410156,4219.487305
