,AF3,F7,F3,FC5,T7,P7,O1,O2,P8,T8,FC6,F4,F8,AF4
0,4190.769043,4198.974121,4199.487305,4204.102539,4182.563965,4196.410156,4192.820313,4209.230957,4183.077148,4185.641113,4184.102539,4277.436035,4183.077148,4205.128418
1,4211.282227,4218.461426,4220.0,4220.0,4194.358887,4209.743652,4212.820313,4209.230957,4210.256348,4215.384766,4205.641113,4296.410156,4202.563965,4228.717773
2,4211.794922,4218.974121,4226.666504,4217.436035,4196.410156,4211.794922,4214.871582,4210.769043,4216.922852,4216.922852,4208.717773,4299.487305,4206.666504,4231.282227
3,4194.871582,4198.974121,4210.256348,4200.0,4184.615234,4200.0,4196.922852,4209.743652,4198.461426,4198.974121,4197.436035,4289.743652,4193.333496,4214.871582
4,4193.846191,4194.358887,4203.589844,4196.410156,4180.512695,4195.384766,4192.820313,4208.205078,4196.410156,4198.974121,4197.436035,4290.256348,4192.820313,4215.384766
5,4198.461426,4204.615234,4210.769043,4202.563965,4185.641113,4208.205078,4203.589844,4210.769043,4209.743652,4206.153809,4202.563965,4300.0,4201.538574,4226.666504
6,4190.256348,4200.0,4209.743652,4201.025879,4185.641113,4215.384766,4200.512695,4210.256348,4208.205078,4201.025879,4197.436035,4298.974121,4193.846191,4223.589844
7,4179.487305,4186.153809,4196.922852,4196.922852,4181.538574,4203.589844,4188.717773,4209.230957,4193.846191,4186.666504,4186.153809,4286.153809,4177.436035,4210.769043
8,4180.512695,4189.743652,4196.410156,4197.436035,4183.589844,4199.487305,4192.820313,4210.256348,4195.897461,4187.692383,4188.717773,4286.153809,4182.05127,4212.307617
9,4192.820313,4200.0,4211.282227,4201.538574,4189.743652,4208.717773,4204.615234,4211.794922,4211.282227,4206.666504,4204.102539,4303.077148,4199.487305,4228.717773
10,4201.538574,4201.538574,4220.0,4206.666504,4194.871582,4208.205078,4201.025879,4208.717773,4212.307617,4215.897461,4212.307617,4311.282227,4204.615234,4236.410156
11,4205.128418,4208.205078,4226.153809,4213.333496,4200.0,4207.692383,4200.0,4211.282227,4209.743652,4214.358887,4213.333496,4309.230957,4210.769043,4236.410156
12,4205.128418,4216.922852,4228.717773,4212.820313,4197.436035,4213.333496,4207.179688,4213.333496,4215.384766,4217.436035,4217.94873,4310.256348,4215.384766,4236.410156
13,4202.563965,4213.846191,4223.077148,4206.666504,4190.769043,4206.666504,4204.615234,4211.282227,4216.410156,4218.461426,4216.922852,4310.256348,4210.769043,4230.769043
14,4205.128418,4213.333496,4223.077148,4207.692383,4191.794922,4196.922852,4197.94873,4209.743652,4213.846191,4218.461426,4213.333496,4310.769043,4211.282227,4229.743652
15,4209.743652,4213.333496,4228.205078,4210.256348,4193.333496,4200.0,4202.563965,4210.769043,4215.897461,4221.025879,4217.94873,4311.794922,4212.307617,4235.897461
16,4201.538574,4202.05127,4217.94873,4202.563965,4188.205078,4203.589844,4203.077148,4213.333496,4215.384766,4214.871582,4214.871582,4302.563965,4201.538574,4225.641113
17,4187.692383,4196.410156,4198.974121,4193.846191,4187.692383,4203.589844,4199.487305,4216.410156,4214.358887,4209.230957,4203.077148,4290.769043,4195.384766,4204.102539
18,4184.615234,4198.974121,4200.0,4194.871582,4191.794922,4205.128418,4204.615234,4211.282227,4217.94873,4212.307617,4201.538574,4286.153809,4197.94873,4200.512695
19,4176.922852,4189.743652,4200.512695,4191.794922,4187.692383,4203.077148,4207.692383,4206.153809,4207.692383,4205.128418,4201.025879,4278.461426,4188.717773,4202.563965
20,4166.666504,4183.589844,4187.692383,4187.692383,4184.615234,4200.512695,4202.563965,4208.717773,4193.846191,4194.358887,4195.384766,4272.820313,4181.025879,4198.461426
21,4171.282227,4193.846191,4184.102539,4196.922852,4187.692383,4201.025879,4200.0,4212.307617,4197.94873,4196.922852,4195.897461,4280.0,4186.153809,4201.025879
22,4170.256348,4192.820313,4184.102539,4198.461426,4187.692383,4201.538574,4198.974121,4211.282227,4200.0,4192.820313,4189.743652,4280.0,4186.666504,4195.897461
23,4155.384766,4181.025879,4178.461426,4184.102539,4182.05127,4200.0,4190.769043,4210.256348,4190.256348,4180.512695,4181.538574,4270.256348,4177.436035,4180.512695
24,4163.589844,4190.256348,4185.641113,4187.179688,4183.077148,4198.461426,4191.794922,4210.256348,4194.871582,4192.307617,4198.461426,4280.0,4185.641113,4190.256348
25,4189.230957,4208.205078,4205.128418,4204.102539,4192.307617,4200.512695,4200.0,4210.256348,4214.358887,4216.410156,4221.025879,4298.461426,4212.307617,4221.538574
26,4186.153809,4206.153809,4204.615234,4198.461426,4190.769043,4198.974121,4197.436035,4212.820313,4218.461426,4218.974121,4217.94873,4298.974121,4215.897461,4229.230957
27,4171.794922,4197.436035,4196.410156,4190.769043,4184.615234,4195.897461,4194.358887,4211.794922,4210.256348,4213.846191,4215.384766,4292.820313,4206.666504,4217.94873
28,4176.922852,4198.974121,4201.538574,4197.94873,4185.641113,4198.461426,4201.538574,4208.717773,4208.717773,4213.333496,4221.025879,4294.871582,4208.205078,4214.871582
29,4180.512695,4202.05127,4204.102539,4196.922852,4187.179688,4199.487305,4200.512695,4208.205078,4208.205078,4208.717773,4215.384766,4298.461426,4207.692383,4217.436035
30,4172.820313,4199.487305,4200.512695,4190.769043,4183.589844,4199.487305,4192.820313,4212.307617,4199.487305,4198.461426,4202.563965,4297.436035,4197.436035,4213.846191
31,4169.230957,4192.307617,4200.512695,4187.692383,4184.102539,4197.436035,4191.282227,4211.282227,4186.153809,4190.256348,4195.384766,4289.743652,4191.794922,4203.589844
32,4166.153809,4187.179688,4195.384766,4181.538574,4183.077148,4187.179688,4187.179688,4208.205078,4179.487305,4185.641113,4189.743652,4280.0,4187.692383,4195.384766
33,4169.743652,4195.384766,4195.897461,4186.666504,4182.05127,4189.230957,4188.205078,4208.717773,4192.307617,4191.794922,4194.871582,4288.205078,4190.256348,4204.102539
34,4185.128418,4208.717773,4212.820313,4204.102539,4190.256348,4207.179688,4204.102539,4210.769043,4209.230957,4210.256348,4212.820313,4308.717773,4205.641113,4222.05127
35,4185.641113,4208.205078,4216.922852,4202.05127,4191.794922,4204.615234,4205.641113,4208.717773,4207.179688,4212.820313,4214.358887,4305.128418,4209.230957,4221.025879
36,4170.769043,4200.0,4200.512695,4186.153809,4184.102539,4185.128418,4192.307617,4210.769043,4200.0,4199.487305,4200.512695,4284.102539,4199.487305,4201.538574
37,4164.615234,4199.487305,4191.794922,4183.077148,4182.563965,4185.128418,4192.820313,4212.307617,4205.128418,4198.974121,4197.94873,4280.512695,4195.384766,4192.307617
38,4161.538574,4201.025879,4190.769043,4186.666504,4185.641113,4193.333496,4198.461426,4210.256348,4207.179688,4205.128418,4203.077148,4286.153809,4194.358887,4197.436035
39,4151.794922,4197.94873,4184.102539,4185.128418,4183.589844,4186.666504,4186.666504,4209.230957,4198.461426,4198.461426,4200.512695,4281.538574,4188.717773,4193.333496
40,4150.256348,4198.461426,4182.563965,4184.102539,4182.05127,4185.128418,4180.0,4212.820313,4196.410156,4191.794922,4198.461426,4275.384766,4186.153809,4186.153809
41,4159.487305,4202.05127,4186.153809,4185.128418,4186.666504,4193.846191,4187.179688,4213.333496,4198.461426,4197.94873,4201.538574,4281.538574,4190.256348,4186.666504
42,4152.307617,4194.358887,4175.897461,4176.410156,4181.538574,4190.256348,4181.538574,4208.717773,4190.769043,4194.871582,4193.846191,4279.487305,4182.563965,4181.025879
43,4133.333496,4178.461426,4161.025879,4165.128418,4168.717773,4178.461426,4166.666504,4208.205078,4181.025879,4176.410156,4179.487305,4263.077148,4165.641113,4162.563965
44,4139.487305,4180.0,4170.769043,4171.794922,4172.820313,4185.128418,4172.307617,4210.256348,4186.153809,4175.897461,4181.025879,4266.666504,4169.230957,4163.077148
45,4168.205078,4204.102539,4196.410156,4190.256348,4188.717773,4202.563965,4190.256348,4211.282227,4205.641113,4198.974121,4198.461426,4293.846191,4193.333496,4190.256348
46,4177.436035,4216.410156,4203.077148,4192.820313,4190.256348,4205.128418,4193.846191,4210.256348,4219.487305,4211.282227,4207.179688,4304.615234,4205.128418,4208.717773
47,4170.256348,4207.692383,4197.436035,4184.615234,4183.077148,4198.461426,4189.230957,4210.769043,4216.922852,4206.153809,4206.666504,4293.333496,4200.0,4207.179688
48,4171.282227,4201.025879,4196.410156,4185.128418,4185.128418,4198.461426,4185.641113,4208.717773,4204.615234,4198.461426,4201.538574,4287.179688,4191.282227,4197.436035
49,4170.063965,4200.705078,4194.358887,4185.192383,4185.0,4198.717773,4186.410156,4208.589844,4204.294922,4197.243652,4199.55127,4283.205078,4188.717773,4196.346191
50,4168.846191,4200.384766,4192.307617,4185.256348,4184.871582,4198.974121,4187.179688,4208.461426,4203.974121,4196.025879,4197.563965,4279.230957,4186.153809,4195.256348
51,4167.628418,4200.063965,4190.256348,4185.320313,4184.743652,4199.230957,4187.94873,4208.333496,4203.653809,4194.807617,4195.577148,4275.256348,4183.589844,4194.166504
52,4166.410156,4199.743652,4188.205078,4185.384766,4184.615234,4199.487305,4188.717773,4208.205078,4203.333496,4193.589844,4193.589844,4271.282227,4181.025879,4193.077148
53,4165.192383,4199.422852,4186.153809,4185.44873,4184.487305,4199.743652,4189.487305,4208.077148,4203.012695,4192.371582,4191.602539,4267.307617,4178.461426,4191.987305
54,4163.974121,4199.102539,4184.102539,4185.512695,4184.358887,4200.0,4190.256348,4207.94873,4202.692383,4191.153809,4189.615234,4263.333496,4175.897461,4190.897461
55,4162.756348,4198.782227,4182.05127,4185.577148,4184.230957,4200.256348,4191.025879,4207.820313,4202.371582,4189.936035,4187.628418,4259.358887,4173.333496,4189.807617
56,4161.538574,4198.461426,4180.0,4185.641113,4184.102539,4200.512695,4191.794922,4207.692383,4202.05127,4188.717773,4185.641113,4255.384766,4170.769043,4188.717773
57,4153.333496,4193.846191,4171.794922,4182.563965,4188.205078,4195.897461,4180.0,4209.230957,4198.461426,4180.512695,4181.025879,4247.179688,4163.589844,4180.0
58,4161.538574,4199.487305,4172.307617,4190.256348,4194.871582,4210.769043,4189.230957,4210.256348,4204.102539,4185.641113,4183.589844,4257.436035,4173.846191,4186.153809
59,4165.128418,4200.0,4176.410156,4190.256348,4189.743652,4209.230957,4188.717773,4209.230957,4209.230957,4192.820313,4192.307617,4261.538574,4187.692383,4190.256348
60,4157.94873,4188.717773,4171.794922,4183.077148,4185.128418,4190.256348,4174.358887,4207.692383,4200.512695,4187.179688,4190.769043,4251.282227,4183.077148,4183.589844
61,4153.846191,4180.512695,4169.743652,4179.487305,4183.589844,4187.692383,4174.871582,4209.230957,4194.871582,4181.025879,4182.05127,4243.589844,4171.282227,4182.563965
62,4162.563965,4189.230957,4182.05127,4186.153809,4184.615234,4202.05127,4188.717773,4209.743652,4209.230957,4190.256348,4188.205078,4245.641113,4178.974121,4192.307617
63,4175.384766,4202.563965,4196.922852,4196.922852,4193.333496,4208.717773,4191.794922,4207.179688,4220.0,4204.615234,4201.538574,4257.94873,4196.922852,4203.589844
64,4184.102539,4203.077148,4201.025879,4197.436035,4197.436035,4203.077148,4190.769043,4208.717773,4216.922852,4207.179688,4207.692383,4268.205078,4200.512695,4212.820313
65,4184.615234,4200.512695,4201.025879,4190.769043,4192.820313,4200.512695,4193.333496,4211.282227,4216.410156,4204.102539,4214.871582,4268.205078,4202.563965,4215.897461
66,4178.461426,4198.974121,4201.538574,4190.256348,4190.769043,4207.179688,4196.410156,4210.769043,4222.563965,4204.615234,4214.358887,4265.128418,4203.077148,4212.307617
67,4174.358887,4193.846191,4197.94873,4189.743652,4192.307617,4214.358887,4197.436035,4207.692383,4220.0,4200.0,4203.077148,4261.538574,4192.307617,4203.589844
68,4171.282227,4189.743652,4196.922852,4189.230957,4188.717773,4210.256348,4195.897461,4209.230957,4209.230957,4191.794922,4197.436035,4250.769043,4184.102539,4198.461426
69,4169.743652,4189.743652,4197.94873,4190.256348,4185.128418,4196.410156,4185.641113,4209.743652,4200.0,4184.102539,4195.897461,4239.487305,4185.641113,4198.974121
70,4171.794922,4187.692383,4193.846191,4188.717773,4186.666504,4191.794922,4181.025879,4210.256348,4200.0,4183.589844,4196.410156,4233.333496,4186.153809,4201.538574
71,4172.820313,4187.692383,4192.307617,4191.282227,4188.205078,4198.974121,4188.205078,4210.256348,4212.307617,4193.846191,4200.512695,4231.282227,4184.615234,4202.05127
72,4173.333496,4191.282227,4195.384766,4195.897461,4188.205078,4204.102539,4187.692383,4212.307617,4218.461426,4199.487305,4193.846191,4231.282227,4184.102539,4197.436035
73,4179.487305,4194.871582,4197.94873,4190.769043,4186.153809,4198.974121,4180.0,4212.307617,4209.230957,4193.846191,4184.615234,4226.666504,4183.077148,4195.897461
74,4186.153809,4197.94873,4197.436035,4185.641113,4185.641113,4190.256348,4177.436035,4209.743652,4201.538574,4186.153809,4191.282227,4223.077148,4183.077148,4201.538574
75,4186.153809,4191.282227,4193.333496,4186.666504,4181.025879,4185.641113,4174.358887,4208.205078,4199.487305,4182.563965,4196.410156,4226.153809,4183.589844,4204.102539
76,4185.128418,4185.641113,4195.384766,4187.179688,4176.922852,4185.641113,4173.846191,4207.692383,4201.025879,4185.641113,4194.358887,4230.256348,4185.641113,4203.077148
77,4186.153809,4191.794922,4201.538574,4187.179688,4180.0,4187.179688,4178.974121,4207.692383,4207.179688,4194.358887,4197.436035,4230.769043,4190.769043,4205.128418
78,4181.025879,4193.333496,4195.897461,4186.666504,4177.94873,4185.641113,4177.94873,4210.256348,4209.230957,4194.871582,4200.512695,4224.615234,4188.205078,4206.666504
79,4173.846191,4185.641113,4185.128418,4184.102539,4172.307617,4184.102539,4171.794922,4208.205078,4203.589844,4187.179688,4194.358887,4217.94873,4185.641113,4204.615234
80,4161.538574,4176.410156,4177.436035,4179.487305,4170.256348,4183.589844,4165.128418,4202.563965,4198.974121,4186.153809,4185.128418,4213.333496,4181.538574,4194.358887
81,4147.692383,4170.256348,4166.666504,4175.384766,4169.230957,4183.077148,4160.0,4202.563965,4198.461426,4184.102539,4180.0,4202.05127,4171.794922,4182.563965
82,4147.179688,4174.871582,4162.563965,4180.0,4174.358887,4184.615234,4162.563965,4205.128418,4201.025879,4182.563965,4183.589844,4196.410156,4173.333496,4177.94873
83,4153.846191,4186.153809,4169.743652,4187.179688,4184.615234,4186.153809,4167.179688,4207.692383,4203.077148,4191.794922,4193.333496,4208.205078,4188.717773,4184.102539
84,4156.410156,4187.179688,4172.820313,4187.692383,4186.666504,4187.179688,4168.205078,4209.230957,4202.563965,4203.077148,4201.538574,4218.461426,4194.871582,4198.461426
85,4154.871582,4182.05127,4170.769043,4186.153809,4183.077148,4188.717773,4170.256348,4209.230957,4204.102539,4198.974121,4201.025879,4214.358887,4188.717773,4202.05127
86,4153.333496,4181.538574,4169.743652,4183.589844,4181.025879,4186.666504,4166.153809,4206.666504,4203.077148,4191.282227,4196.922852,4210.256348,4188.717773,4190.769043
87,4157.436035,4184.102539,4174.871582,4186.153809,4181.538574,4182.563965,4165.128418,4208.205078,4197.94873,4192.820313,4198.974121,4214.358887,4192.820313,4189.230957
88,4169.230957,4189.743652,4184.102539,4192.820313,4186.153809,4187.692383,4176.410156,4210.256348,4203.589844,4194.358887,4201.025879,4220.512695,4194.871582,4202.563965
89,4170.256348,4187.179688,4185.128418,4189.743652,4186.666504,4190.769043,4178.461426,4210.769043,4203.077148,4184.615234,4189.230957,4219.487305,4187.179688,4201.025879
90,4165.641113,4184.615234,4189.230957,4187.179688,4182.05127,4182.05127,4170.256348,4208.717773,4189.230957,4178.974121,4183.077148,4224.615234,4184.615234,4195.384766
91,4174.871582,4195.897461,4198.974121,4196.410156,4182.563965,4183.077148,4180.512695,4208.717773,4193.846191,4185.128418,4192.307617,4233.846191,4196.410156,4202.05127
92,4184.615234,4202.05127,4196.922852,4201.538574,4185.641113,4196.922852,4192.307617,4210.256348,4209.230957,4188.205078,4196.410156,4233.846191,4200.512695,4201.025879
93,4185.128418,4203.077148,4197.436035,4201.538574,4189.230957,4202.563965,4186.666504,4208.717773,4207.179688,4191.282227,4196.922852,4241.538574,4201.538574,4203.077148
94,4176.922852,4200.512695,4198.974121,4201.025879,4191.282227,4193.846191,4178.974121,4207.179688,4196.410156,4190.769043,4195.384766,4247.179688,4197.94873,4204.102539
95,4165.641113,4188.717773,4185.641113,4196.922852,4186.153809,4186.153809,4176.410156,4209.230957,4196.410156,4177.436035,4188.205078,4232.307617,4185.128418,4189.743652
96,4166.666504,4183.589844,4183.589844,4196.922852,4183.589844,4184.102539,4168.717773,4210.256348,4199.487305,4177.94873,4190.256348,4228.205078,4186.153809,4189.230957
97,4175.384766,4200.0,4197.436035,4203.589844,4193.333496,4187.179688,4166.153809,4207.179688,4202.563965,4198.461426,4206.666504,4247.179688,4202.563965,4210.769043
98,4173.846191,4203.589844,4193.846191,4203.077148,4197.94873,4188.717773,4170.769043,4207.179688,4203.589844,4203.589844,4209.230957,4250.769043,4205.128418,4209.743652
99,4166.666504,4187.692383,4182.05127,4197.94873,4187.692383,4185.128418,4170.256348,4208.205078,4202.563965,4192.307617,4201.025879,4243.589844,4196.410156,4192.820313
100,4169.743652,4187.692383,4188.205078,4198.974121,4184.615234,4189.743652,4175.384766,4207.692383,4206.153809,4198.974121,4208.205078,4254.871582,4201.538574,4204.615234
101,4171.282227,4190.769043,4191.282227,4198.461426,4189.743652,4194.358887,4182.05127,4207.692383,4206.153809,4206.666504,4209.743652,4262.05127,4205.128418,4216.922852
102,4169.230957,4184.615234,4188.205078,4196.922852,4187.692383,4190.769043,4184.615234,4209.743652,4208.717773,4200.0,4200.0,4257.436035,4195.897461,4205.641113
103,4169.743652,4180.0,4190.769043,4196.922852,4183.077148,4187.692383,4183.589844,4209.743652,4216.922852,4195.384766,4198.974121,4261.538574,4187.692383,4201.538574
104,4165.641113,4174.871582,4189.743652,4192.820313,4185.128418,4187.692383,4178.461426,4209.230957,4206.666504,4190.769043,4197.436035,4264.102539,4184.102539,4202.563965
105,4163.589844,4173.846191,4186.666504,4192.820313,4185.641113,4190.256348,4174.358887,4206.153809,4188.205078,4180.0,4191.282227,4257.436035,4183.077148,4200.0
106,4176.922852,4184.102539,4195.897461,4202.05127,4187.179688,4199.487305,4185.128418,4208.205078,4192.307617,4181.538574,4196.410156,4261.538574,4189.743652,4203.589844
107,4186.153809,4192.307617,4206.153809,4206.153809,4195.384766,4207.692383,4195.384766,4209.743652,4206.666504,4195.897461,4206.666504,4271.282227,4201.025879,4208.717773
108,4175.384766,4185.128418,4195.897461,4201.025879,4195.384766,4198.461426,4183.077148,4208.205078,4202.05127,4194.871582,4200.0,4264.615234,4195.897461,4198.974121
109,4171.282227,4182.05127,4187.692383,4198.974121,4191.282227,4190.769043,4171.794922,4207.179688,4194.871582,4188.717773,4195.897461,4257.436035,4187.179688,4190.256348
110,4184.102539,4194.871582,4197.94873,4207.179688,4198.461426,4200.512695,4183.077148,4212.307617,4210.256348,4204.102539,4211.794922,4266.666504,4205.641113,4205.128418
111,4190.256348,4202.563965,4198.974121,4213.846191,4204.102539,4205.641113,4188.717773,4210.256348,4220.512695,4221.538574,4222.05127,4273.333496,4223.077148,4214.871582
112,4184.615234,4192.820313,4190.769043,4210.769043,4198.461426,4193.333496,4180.0,4206.153809,4207.179688,4217.436035,4216.410156,4270.256348,4218.974121,4203.589844
113,4185.641113,4191.794922,4197.94873,4210.256348,4197.436035,4184.102539,4176.410156,4208.717773,4203.589844,4213.846191,4220.0,4276.410156,4218.974121,4205.641113
114,4194.358887,4204.102539,4207.692383,4214.871582,4201.538574,4192.307617,4183.589844,4211.794922,4217.94873,4221.538574,4232.820313,4284.615234,4225.641113,4225.641113
115,4196.922852,4197.94873,4200.512695,4211.794922,4200.512695,4197.94873,4189.230957,4210.256348,4222.563965,4223.077148,4226.153809,4272.307617,4222.05127,4225.128418
116,4196.922852,4187.179688,4198.461426,4210.256348,4201.025879,4199.487305,4195.384766,4209.230957,4220.0,4226.153809,4217.436035,4263.077148,4218.461426,4212.820313
117,4197.94873,4190.256348,4205.128418,4213.846191,4203.077148,4206.153809,4200.512695,4209.230957,4223.077148,4227.179688,4223.077148,4275.384766,4220.512695,4216.410156
118,4198.461426,4186.666504,4203.077148,4210.256348,4201.538574,4208.717773,4200.0,4205.641113,4218.461426,4215.897461,4221.538574,4284.615234,4216.922852,4218.974121
119,4198.461426,4181.025879,4202.05127,4210.256348,4201.025879,4204.102539,4200.512695,4205.641113,4211.794922,4210.256348,4211.794922,4275.897461,4211.282227,4215.384766
120,4200.0,4187.692383,4203.077148,4215.897461,4207.692383,4208.717773,4204.102539,4207.692383,4214.358887,4214.358887,4214.358887,4267.692383,4212.820313,4217.436035
121,4198.974121,4191.794922,4202.563965,4216.410156,4214.871582,4215.897461,4202.05127,4207.179688,4215.897461,4210.256348,4217.436035,4266.153809,4213.333496,4211.794922
122,4193.333496,4187.692383,4196.410156,4211.794922,4212.307617,4207.692383,4189.743652,4204.102539,4206.666504,4202.05127,4209.743652,4262.563965,4208.717773,4201.025879
123,4183.589844,4181.025879,4185.641113,4204.615234,4208.205078,4196.410156,4181.538574,4206.666504,4192.307617,4197.436035,4203.077148,4252.820313,4200.0,4194.358887
124,4180.0,4176.410156,4185.641113,4205.128418,4212.307617,4202.563965,4189.230957,4208.717773,4200.512695,4202.05127,4206.153809,4250.769043,4197.94873,4198.461426
125,4193.333496,4182.563965,4200.512695,4217.94873,4219.487305,4217.436035,4200.512695,4209.230957,4224.102539,4226.153809,4221.538574,4264.102539,4209.230957,4212.307617
126,4204.615234,4191.794922,4206.666504,4224.102539,4218.974121,4216.922852,4198.461426,4207.692383,4226.666504,4236.410156,4231.282227,4269.230957,4220.0,4219.487305
127,4198.461426,4187.179688,4199.487305,4216.410156,4216.410156,4204.615234,4192.307617,4208.717773,4214.871582,4218.974121,4222.05127,4258.461426,4217.436035,4216.410156
