,AF3,F7,F3,FC5,T7,P7,O1,O2,P8,T8,FC6,F4,F8,AF4
0,4052.820557,4082.564209,4201.538574,4072.307617,4191.794922,4134.358887,4109.230957,4073.846191,4096.410156,4151.282227,4133.846191,4118.974121,4094.871826,4102.05127
1,4070.769287,4090.256348,4203.077148,4072.820557,4197.436035,4137.436035,4119.487305,4083.076904,4102.563965,4153.333496,4138.461426,4123.077148,4105.641113,4106.153809
2,4063.589844,4092.820557,4205.128418,4071.794922,4192.307617,4137.436035,4127.692383,4096.410156,4103.589844,4153.846191,4151.794922,4131.794922,4113.846191,4109.230957
3,4051.794922,4089.743652,4204.615234,4073.333252,4193.846191,4138.974121,4133.333496,4105.641113,4105.128418,4156.922852,4154.871582,4136.410156,4109.230957,4107.179688
4,4056.410156,4092.307617,4201.538574,4074.871826,4199.487305,4146.666504,4139.487305,4112.307617,4117.436035,4169.230957,4154.358887,4138.974121,4112.820313,4114.871582
5,4067.179443,4091.794922,4202.563965,4070.769287,4192.307617,4147.692383,4140.0,4112.820313,4123.077148,4174.358887,4158.461426,4142.05127,4122.05127,4126.153809
6,4071.794922,4088.718018,4205.128418,4069.230713,4185.128418,4141.538574,4133.333496,4108.205078,4120.0,4170.256348,4156.410156,4140.0,4123.589844,4122.563965
7,4072.307617,4094.871826,4203.589844,4071.794922,4187.692383,4141.025879,4127.179688,4109.230957,4123.589844,4171.282227,4154.871582,4135.897461,4121.025879,4118.461426
8,4068.205078,4097.94873,4200.512695,4068.205078,4187.179688,4141.538574,4124.615234,4106.153809,4126.666504,4174.871582,4156.922852,4139.487305,4115.897461,4123.077148
9,4053.846191,4092.820557,4201.025879,4061.538574,4184.615234,4138.974121,4124.615234,4092.307617,4116.410156,4168.205078,4149.743652,4137.94873,4105.641113,4117.94873
10,4044.615479,4089.743652,4202.05127,4058.974365,4186.666504,4143.077148,4129.743652,4081.538574,4104.615234,4157.436035,4137.436035,4123.589844,4096.410156,4106.666504
11,4055.897461,4089.743652,4202.05127,4063.589844,4189.743652,4150.769043,4134.871582,4078.974365,4104.102539,4152.307617,4134.358887,4117.94873,4091.794922,4106.153809
12,4063.589844,4090.769287,4202.563965,4069.743652,4189.743652,4152.307617,4137.94873,4079.487061,4106.153809,4153.846191,4136.922852,4125.128418,4091.281982,4109.743652
13,4055.384521,4090.769287,4202.05127,4068.205078,4188.205078,4152.307617,4143.077148,4082.05127,4103.077148,4156.922852,4136.410156,4125.641113,4090.769287,4108.717773
14,4049.230713,4089.743652,4202.05127,4060.512939,4186.666504,4152.820313,4153.333496,4089.230713,4104.102539,4156.922852,4136.922852,4120.512695,4087.179443,4106.666504
15,4043.589844,4090.256348,4203.589844,4063.076904,4187.179688,4153.333496,4158.974121,4100.0,4112.820313,4161.538574,4144.615234,4122.563965,4093.846191,4107.692383
16,4046.153809,4089.230713,4203.589844,4068.718018,4188.717773,4154.871582,4157.436035,4110.769043,4122.05127,4171.794922,4152.820313,4132.307617,4109.230957,4115.384766
17,4061.538574,4085.641113,4201.538574,4062.564209,4186.666504,4153.846191,4156.922852,4114.358887,4127.692383,4176.410156,4155.897461,4134.358887,4107.692383,4122.05127
18,4062.564209,4086.153809,4203.077148,4060.512939,4181.025879,4148.717773,4155.384766,4111.794922,4125.641113,4171.794922,4152.820313,4129.230957,4095.384521,4121.025879
19,4064.102539,4096.922852,4202.563965,4071.281982,4181.538574,4144.615234,4151.282227,4108.205078,4124.615234,4171.282227,4153.333496,4133.333496,4099.487305,4121.025879
20,4068.205078,4102.563965,4200.0,4076.410156,4186.666504,4145.128418,4144.615234,4103.589844,4125.128418,4176.922852,4155.897461,4136.922852,4109.743652,4125.128418
21,4051.281982,4093.846191,4200.0,4066.666748,4187.179688,4145.128418,4137.436035,4090.769287,4118.461426,4170.769043,4147.692383,4125.641113,4103.077148,4120.0
22,4041.025635,4089.743652,4201.025879,4063.589844,4185.128418,4142.05127,4134.871582,4077.94873,4107.179688,4158.461426,4133.846191,4119.487305,4088.205078,4109.230957
23,4052.820557,4091.281982,4200.512695,4065.641113,4185.641113,4140.512695,4136.410156,4069.743652,4098.974121,4149.743652,4124.102539,4122.563965,4075.384521,4104.615234
24,4056.923096,4091.281982,4201.538574,4064.102539,4186.666504,4146.666504,4138.461426,4066.153809,4092.820557,4143.077148,4120.0,4115.897461,4067.179443,4103.077148
25,4049.743652,4094.871826,4201.538574,4063.076904,4187.179688,4153.846191,4138.974121,4070.256348,4091.794922,4144.615234,4125.128418,4113.846191,4068.205078,4102.563965
26,4056.923096,4104.102539,4201.538574,4065.641113,4186.666504,4150.256348,4144.615234,4076.410156,4097.94873,4149.743652,4135.897461,4122.05127,4079.487061,4108.205078
27,4063.076904,4105.128418,4200.512695,4070.769287,4186.666504,4146.153809,4153.846191,4081.538574,4104.102539,4152.820313,4141.025879,4127.692383,4087.179443,4117.436035
28,4050.769287,4097.94873,4201.538574,4073.333252,4186.666504,4151.282227,4156.410156,4092.820557,4110.256348,4160.0,4146.153809,4132.820313,4085.641113,4121.538574
29,4045.128174,4096.922852,4204.102539,4071.794922,4186.153809,4152.307617,4154.358887,4106.666504,4121.538574,4169.743652,4154.358887,4138.461426,4089.230713,4119.487305
30,4068.205078,4103.077148,4206.666504,4071.794922,4186.666504,4151.282227,4156.410156,4112.307617,4129.230957,4178.461426,4162.563965,4142.563965,4102.563965,4124.102539
31,4083.076904,4111.282227,4204.615234,4076.410156,4188.205078,4150.769043,4155.384766,4106.153809,4129.743652,4183.077148,4168.205078,4144.615234,4112.307617,4134.871582
32,4061.025635,4113.333496,4202.05127,4078.974365,4186.153809,4145.128418,4144.615234,4094.358887,4124.615234,4178.461426,4165.128418,4143.589844,4107.179688,4131.794922
33,4051.281982,4100.512695,4202.563965,4073.333252,4185.641113,4137.94873,4132.820313,4083.589844,4115.384766,4166.666504,4148.717773,4136.410156,4094.358887,4113.846191
34,4060.512939,4091.794922,4201.025879,4068.718018,4187.692383,4140.0,4126.153809,4073.846191,4105.641113,4158.974121,4137.436035,4129.743652,4088.718018,4105.641113
35,4051.281982,4103.589844,4200.512695,4073.846191,4186.666504,4146.153809,4122.05127,4063.589844,4101.025879,4156.922852,4139.487305,4128.717773,4091.281982,4110.256348
36,4043.076904,4108.717773,4201.538574,4077.435791,4188.717773,4148.717773,4122.05127,4056.410156,4093.333252,4150.769043,4133.333496,4126.666504,4083.076904,4109.743652
37,4054.358887,4093.333252,4201.025879,4070.256348,4193.333496,4150.256348,4128.717773,4058.974365,4086.153809,4143.589844,4118.974121,4120.512695,4068.205078,4101.025879
38,4060.512939,4094.871826,4200.512695,4070.256348,4192.307617,4153.333496,4136.922852,4067.179443,4096.410156,4144.615234,4123.077148,4125.128418,4076.410156,4105.128418
39,4058.461426,4106.666504,4202.05127,4077.435791,4188.205078,4154.871582,4139.487305,4077.94873,4108.205078,4157.436035,4146.666504,4137.436035,4092.820557,4120.512695
40,4067.179443,4100.0,4200.512695,4075.897461,4188.205078,4152.307617,4142.563965,4087.179443,4107.179688,4166.153809,4153.846191,4140.512695,4091.281982,4124.615234
41,4067.692383,4098.461426,4201.025879,4074.358887,4187.692383,4151.794922,4150.256348,4092.307617,4112.820313,4168.205078,4150.256348,4144.615234,4089.743652,4123.077148
42,4059.487061,4109.743652,4202.563965,4080.0,4187.179688,4156.410156,4154.871582,4097.436035,4125.128418,4177.436035,4163.077148,4156.410156,4104.615234,4133.846191
43,4075.384521,4118.461426,4201.538574,4087.179443,4188.205078,4155.384766,4150.256348,4097.94873,4126.153809,4186.153809,4176.922852,4163.589844,4121.025879,4149.743652
44,4096.922852,4123.077148,4198.974121,4090.256348,4187.179688,4149.743652,4144.102539,4094.871826,4125.128418,4188.205078,4175.897461,4162.05127,4125.641113,4150.769043
45,4093.333252,4118.461426,4201.538574,4089.743652,4188.717773,4153.333496,4142.563965,4095.897461,4130.256348,4189.743652,4174.358887,4162.05127,4122.05127,4146.153809
46,4076.923096,4109.230957,4203.077148,4085.128174,4190.256348,4155.897461,4140.512695,4090.769287,4124.615234,4185.128418,4171.282227,4156.922852,4110.256348,4142.563965
47,4066.153809,4107.179688,4200.512695,4078.461426,4185.128418,4146.666504,4131.282227,4067.692383,4107.179688,4163.589844,4151.282227,4140.0,4092.307617,4126.666504
48,4053.846191,4104.615234,4200.512695,4068.718018,4181.538574,4144.102539,4119.487305,4050.256348,4095.384521,4148.205078,4134.358887,4124.615234,4078.974365,4106.153809
49,4036.923096,4090.256348,4201.538574,4060.0,4181.538574,4150.256348,4121.538574,4054.358887,4094.358887,4150.256348,4135.384766,4121.025879,4072.820557,4101.538574
50,4032.820557,4077.435791,4199.487305,4055.384521,4175.897461,4149.230957,4132.307617,4058.974365,4100.0,4152.820313,4136.410156,4120.0,4075.384521,4106.666504
51,4043.589844,4079.487061,4198.461426,4057.435791,4169.230957,4149.230957,4136.922852,4062.564209,4106.153809,4160.0,4141.025879,4122.05127,4083.076904,4105.128418
52,4048.205078,4092.820557,4200.512695,4061.025635,4174.871582,4154.358887,4136.922852,4074.358887,4114.358887,4170.769043,4152.307617,4132.820313,4088.718018,4104.615234
53,4050.769287,4098.974121,4199.487305,4064.102539,4181.538574,4153.333496,4140.0,4081.025635,4119.487305,4170.769043,4154.358887,4137.94873,4086.153809,4112.820313
54,4056.923096,4094.871826,4198.974121,4068.718018,4181.538574,4151.794922,4142.05127,4077.435791,4120.0,4167.179688,4154.358887,4140.512695,4087.692383,4126.666504
55,4061.025635,4095.897461,4202.563965,4074.358887,4181.538574,4153.846191,4140.0,4080.0,4121.025879,4174.358887,4167.692383,4150.769043,4101.538574,4139.487305
56,4076.923096,4107.692383,4203.077148,4082.05127,4185.128418,4152.820313,4138.974121,4088.718018,4127.692383,4185.128418,4177.436035,4160.512695,4110.256348,4143.077148
57,4095.384521,4122.563965,4200.512695,4090.769287,4187.692383,4152.820313,4138.974121,4087.179443,4135.384766,4191.282227,4177.436035,4164.102539,4109.230957,4145.128418
58,4082.05127,4125.641113,4199.487305,4094.358887,4186.153809,4152.820313,4139.487305,4081.025635,4135.384766,4190.769043,4176.410156,4163.077148,4108.205078,4145.641113
59,4067.179443,4114.358887,4200.0,4086.666748,4185.128418,4152.307617,4136.410156,4073.333252,4124.102539,4177.94873,4166.153809,4155.384766,4096.922852,4132.820313
60,4060.512939,4102.05127,4202.05127,4071.794922,4182.05127,4153.846191,4127.692383,4061.538574,4110.769043,4160.0,4147.692383,4138.974121,4075.897461,4114.358887
61,4029.743652,4089.230713,4202.563965,4061.538574,4175.897461,4154.871582,4121.538574,4046.666748,4103.077148,4144.615234,4131.794922,4124.102539,4062.564209,4100.512695
62,4014.871826,4076.923096,4201.538574,4055.897461,4169.743652,4153.846191,4120.512695,4041.025635,4098.974121,4140.0,4122.563965,4113.333496,4059.487061,4090.769287
63,4038.461426,4078.974365,4200.512695,4055.897461,4168.717773,4153.333496,4121.025879,4044.102539,4098.461426,4142.563965,4122.05127,4112.820313,4055.384521,4087.179443
64,4052.307617,4090.256348,4201.025879,4063.076904,4173.846191,4154.871582,4122.05127,4051.281982,4104.102539,4147.179688,4131.282227,4121.025879,4058.461426,4093.846191
65,4051.794922,4098.461426,4199.487305,4072.307617,4180.512695,4157.436035,4125.641113,4066.153809,4116.410156,4158.974121,4147.692383,4134.871582,4075.384521,4110.256348
66,4063.076904,4113.846191,4199.487305,4083.589844,4184.102539,4157.436035,4125.128418,4075.897461,4124.102539,4171.282227,4164.102539,4150.769043,4092.820557,4129.230957
67,4075.384521,4128.205078,4201.538574,4093.846191,4184.615234,4152.820313,4123.077148,4072.820557,4122.05127,4173.333496,4171.794922,4157.436035,4097.94873,4140.512695
68,4076.923096,4124.615234,4200.512695,4096.922852,4184.102539,4146.153809,4125.128418,4068.718018,4118.974121,4171.282227,4170.256348,4156.410156,4092.820557,4141.025879
69,4081.538574,4124.102539,4198.974121,4097.436035,4183.589844,4147.692383,4127.692383,4067.692383,4122.05127,4174.358887,4171.282227,4157.436035,4092.820557,4142.563965
70,4090.769287,4130.256348,4199.487305,4100.0,4184.102539,4148.717773,4127.179688,4066.666748,4120.0,4171.794922,4171.794922,4157.436035,4093.846191,4146.153809
71,4083.076904,4120.0,4201.025879,4090.769287,4178.974121,4146.153809,4124.102539,4056.923096,4108.205078,4157.436035,4158.461426,4145.641113,4080.0,4133.333496
72,4057.435791,4105.128418,4200.0,4076.410156,4175.897461,4149.743652,4123.589844,4049.230713,4102.563965,4149.743652,4142.563965,4132.307617,4067.692383,4112.820313
73,4049.230713,4104.615234,4201.025879,4073.846191,4181.538574,4158.461426,4129.230957,4051.794922,4106.666504,4151.282227,4137.94873,4128.205078,4070.769287,4106.153809
74,4060.512939,4106.666504,4203.589844,4079.487061,4185.128418,4166.153809,4136.410156,4059.487061,4114.871582,4154.358887,4140.512695,4125.641113,4074.358887,4110.769043
75,4062.05127,4103.077148,4204.102539,4080.0,4183.077148,4169.743652,4138.461426,4063.589844,4121.025879,4155.384766,4141.025879,4124.102539,4071.281982,4107.692383
76,4062.564209,4102.563965,4200.0,4080.0,4183.589844,4170.769043,4137.94873,4066.666748,4123.077148,4158.461426,4141.025879,4129.230957,4072.307617,4105.128418
77,4060.512939,4105.641113,4199.487305,4084.615479,4185.128418,4169.743652,4138.974121,4069.743652,4123.077148,4163.589844,4145.128418,4136.410156,4075.897461,4114.871582
78,4049.743652,4107.179688,4203.077148,4090.256348,4184.102539,4166.666504,4138.461426,4065.641113,4121.025879,4166.153809,4152.820313,4139.487305,4080.512939,4121.025879
79,4062.564209,4112.307617,4205.128418,4092.820557,4184.615234,4158.461426,4135.384766,4064.102539,4120.512695,4167.692383,4160.0,4148.205078,4091.281982,4125.128418
80,4098.974121,4126.153809,4201.025879,4100.0,4186.153809,4155.384766,4134.871582,4071.794922,4122.05127,4172.820313,4169.230957,4162.05127,4102.05127,4142.563965
81,4112.307617,4141.025879,4199.487305,4117.436035,4192.307617,4162.05127,4138.461426,4077.94873,4126.153809,4180.512695,4182.563965,4174.871582,4113.846191,4166.666504
82,4108.717773,4144.615234,4201.025879,4124.615234,4199.487305,4167.179688,4138.974121,4078.461426,4131.794922,4186.153809,4192.307617,4181.538574,4124.615234,4172.307617
83,4113.333496,4138.974121,4200.0,4114.871582,4197.94873,4166.666504,4138.461426,4080.512939,4137.94873,4187.692383,4189.743652,4178.461426,4122.05127,4162.563965
84,4094.358887,4129.743652,4200.0,4106.666504,4191.282227,4168.205078,4140.512695,4082.564209,4142.05127,4183.589844,4178.974121,4167.179688,4106.153809,4150.769043
85,4057.435791,4120.0,4198.974121,4100.0,4186.666504,4171.282227,4140.0,4076.923096,4140.512695,4174.871582,4164.102539,4152.820313,4091.281982,4134.358887
86,4060.0,4112.820313,4198.461426,4086.153809,4185.128418,4170.256348,4138.461426,4070.769287,4131.282227,4162.05127,4149.230957,4141.025879,4083.076904,4117.436035
87,4071.794922,4101.025879,4200.512695,4071.281982,4182.05127,4168.205078,4134.871582,4066.153809,4120.512695,4151.282227,4136.922852,4128.717773,4071.281982,4105.641113
88,4051.281982,4093.333252,4202.563965,4068.205078,4174.358887,4165.641113,4129.230957,4060.0,4120.0,4148.717773,4130.769043,4118.461426,4063.076904,4100.512695
89,4048.205078,4102.563965,4200.512695,4073.846191,4169.743652,4164.615234,4126.153809,4060.0,4124.102539,4149.230957,4135.897461,4124.102539,4073.333252,4108.717773
90,4074.871826,4116.410156,4199.487305,4081.025635,4176.410156,4167.179688,4127.692383,4066.153809,4123.077148,4152.307617,4147.692383,4140.512695,4090.769287,4121.538574
91,4075.384521,4128.205078,4201.025879,4089.230713,4183.589844,4165.128418,4126.666504,4068.205078,4129.230957,4160.512695,4154.871582,4152.307617,4106.153809,4127.692383
92,4072.820557,4135.897461,4201.538574,4098.461426,4185.128418,4160.0,4123.589844,4065.128174,4132.820313,4168.717773,4159.487305,4160.0,4122.05127,4136.922852
93,4100.0,4140.512695,4199.487305,4107.692383,4190.256348,4163.589844,4126.666504,4068.205078,4124.615234,4169.230957,4169.230957,4172.820313,4140.512695,4154.358887
94,4115.384766,4149.230957,4200.512695,4116.410156,4199.487305,4170.256348,4134.871582,4076.410156,4127.692383,4170.256348,4177.94873,4184.102539,4152.820313,4161.538574
95,4115.384766,4157.436035,4201.538574,4124.102539,4202.563965,4169.230957,4143.077148,4078.461426,4134.358887,4172.307617,4176.922852,4187.692383,4157.94873,4160.512695
96,4113.846191,4151.794922,4201.025879,4123.077148,4199.487305,4166.666504,4142.05127,4076.923096,4128.205078,4169.743652,4172.307617,4188.205078,4157.94873,4160.0
97,4096.410156,4138.974121,4198.974121,4114.871582,4198.461426,4167.179688,4141.025879,4083.076904,4130.256348,4168.717773,4168.717773,4184.102539,4153.846191,4155.897461
98,4085.128174,4130.256348,4198.974121,4105.641113,4197.94873,4170.256348,4147.692383,4092.307617,4140.512695,4167.692383,4162.05127,4175.897461,4146.666504,4149.743652
99,4091.281982,4121.025879,4200.512695,4094.871826,4192.820313,4173.333496,4153.846191,4089.230713,4140.0,4162.563965,4150.769043,4166.153809,4137.94873,4137.94873
100,4083.076904,4115.897461,4202.05127,4087.179443,4185.128418,4172.307617,4150.256348,4081.538574,4136.410156,4156.922852,4137.94873,4156.410156,4125.641113,4122.05127
101,4074.871826,4121.025879,4201.538574,4089.230713,4184.615234,4171.282227,4146.666504,4081.025635,4136.410156,4153.846191,4134.871582,4154.871582,4120.512695,4120.0
102,4085.641113,4129.230957,4200.512695,4095.897461,4189.230957,4173.333496,4146.666504,4085.128174,4137.436035,4157.94873,4145.641113,4163.077148,4130.256348,4131.794922
103,4090.256348,4135.897461,4201.025879,4102.05127,4189.230957,4171.794922,4141.538574,4082.05127,4138.974121,4166.153809,4154.358887,4173.846191,4142.05127,4142.563965
104,4094.871826,4146.666504,4201.538574,4113.333496,4190.769043,4169.743652,4137.94873,4080.0,4136.922852,4169.230957,4158.461426,4182.05127,4146.153809,4150.256348
105,4116.410156,4158.461426,4202.05127,4124.615234,4198.974121,4170.256348,4140.512695,4087.179443,4137.94873,4169.743652,4165.641113,4191.794922,4149.743652,4156.410156
106,4127.692383,4161.538574,4201.538574,4127.179688,4197.94873,4169.743652,4143.589844,4093.846191,4141.538574,4172.307617,4172.820313,4198.974121,4151.794922,4160.0
107,4111.282227,4153.846191,4200.0,4122.563965,4189.743652,4168.717773,4146.666504,4089.743652,4140.512695,4172.820313,4171.794922,4197.94873,4150.256348,4158.461426
108,4100.512695,4149.743652,4198.974121,4121.025879,4192.307617,4170.769043,4151.282227,4089.743652,4144.102539,4172.820313,4168.717773,4195.897461,4151.794922,4154.871582
109,4115.384766,4155.384766,4201.025879,4124.102539,4202.05127,4178.461426,4157.436035,4100.512695,4153.846191,4178.974121,4172.820313,4198.974121,4152.307617,4158.974121
110,4121.025879,4154.871582,4201.538574,4121.538574,4202.05127,4184.102539,4160.0,4108.205078,4154.871582,4183.077148,4175.897461,4197.94873,4150.769043,4164.615234
111,4111.282227,4152.820313,4199.487305,4122.05127,4199.487305,4185.641113,4160.512695,4108.717773,4155.897461,4185.641113,4175.897461,4190.769043,4153.846191,4164.102539
112,4110.769043,4152.307617,4198.461426,4122.05127,4201.025879,4185.128418,4152.307617,4100.512695,4156.410156,4182.05127,4172.307617,4183.077148,4149.743652,4158.974121
113,4103.077148,4142.05127,4200.512695,4110.256348,4196.922852,4183.589844,4138.974121,4087.179443,4145.128418,4168.205078,4161.538574,4173.333496,4135.384766,4151.794922
114,4093.333252,4140.0,4200.0,4107.179688,4188.205078,4181.025879,4132.820313,4083.076904,4138.461426,4163.077148,4158.974121,4171.282227,4135.897461,4154.358887
115,4117.94873,4161.538574,4199.487305,4126.666504,4190.256348,4180.512695,4133.333496,4089.743652,4149.230957,4178.461426,4174.871582,4187.692383,4155.897461,4174.358887
116,4152.307617,4178.974121,4201.538574,4142.563965,4200.512695,4182.05127,4128.717773,4094.358887,4158.461426,4189.743652,4189.743652,4202.563965,4165.641113,4189.743652
117,4144.102539,4174.871582,4201.538574,4139.487305,4204.102539,4177.94873,4123.589844,4092.820557,4153.846191,4186.666504,4186.666504,4200.512695,4158.974121,4186.666504
118,4116.922852,4169.743652,4198.974121,4135.897461,4201.025879,4174.358887,4130.256348,4089.743652,4150.769043,4183.589844,4182.563965,4196.410156,4155.384766,4180.0
119,4122.563965,4168.717773,4200.512695,4137.94873,4201.025879,4177.94873,4137.94873,4087.692383,4152.307617,4184.615234,4184.615234,4200.0,4156.410156,4176.922852
120,4141.538574,4169.743652,4201.025879,4136.922852,4202.563965,4184.102539,4141.025879,4095.897461,4151.282227,4185.128418,4184.102539,4203.589844,4154.871582,4175.384766
121,4141.025879,4172.307617,4197.436035,4137.94873,4204.102539,4186.153809,4148.717773,4108.205078,4156.922852,4186.666504,4182.563965,4202.563965,4151.794922,4175.384766
122,4126.666504,4164.615234,4196.922852,4139.487305,4203.077148,4188.205078,4156.922852,4112.307617,4168.205078,4188.717773,4183.077148,4201.538574,4151.282227,4173.333496
123,4115.897461,4154.358887,4198.461426,4135.384766,4202.05127,4193.846191,4154.871582,4112.307617,4172.307617,4189.230957,4185.641113,4202.563965,4150.769043,4171.794922
124,4110.256348,4155.384766,4201.025879,4130.769043,4202.563965,4191.282227,4143.589844,4110.769043,4167.179688,4188.717773,4182.563965,4201.538574,4144.102539,4167.692383
125,4117.94873,4164.615234,4202.05127,4132.820313,4200.0,4186.153809,4136.410156,4107.179688,4165.128418,4191.794922,4180.0,4202.563965,4141.538574,4167.179688
126,4133.333496,4169.743652,4200.512695,4138.461426,4199.487305,4191.282227,4137.436035,4107.179688,4169.230957,4198.974121,4193.333496,4213.846191,4160.0,4178.974121
127,4137.94873,4168.717773,4198.974121,4140.0,4202.05127,4192.307617,4132.820313,4106.666504,4171.794922,4203.077148,4201.538574,4222.05127,4175.897461,4189.230957
