,AF3,F7,F3,FC5,T7,P7,O1,O2,P8,T8,FC6,F4,F8,AF4
0,4215.897461,4236.410156,4202.563965,4202.05127,4201.538574,4232.820313,4200.512695,4198.974121,4185.641113,4195.897461,4196.922852,4197.94873,4196.410156,4210.256348
1,4216.410156,4238.974121,4204.615234,4202.05127,4204.102539,4227.692383,4199.487305,4198.461426,4188.717773,4202.563965,4197.436035,4203.077148,4194.871582,4202.05127
2,4224.615234,4250.769043,4216.410156,4214.358887,4209.230957,4229.230957,4210.256348,4209.743652,4207.692383,4217.436035,4219.487305,4214.871582,4211.282227,4223.077148
3,4230.769043,4247.179688,4218.461426,4214.871582,4207.179688,4225.128418,4215.384766,4219.487305,4220.512695,4223.077148,4225.128418,4222.563965,4222.05127,4233.846191
4,4220.0,4231.794922,4206.153809,4200.512695,4200.512695,4223.077148,4211.282227,4215.384766,4225.641113,4214.358887,4206.666504,4215.897461,4213.333496,4211.282227
5,4210.256348,4228.205078,4200.0,4196.922852,4200.0,4231.794922,4210.769043,4213.846191,4229.743652,4207.179688,4199.487305,4206.666504,4206.153809,4205.128418
6,4205.641113,4228.205078,4200.512695,4197.436035,4202.563965,4232.820313,4207.692383,4213.333496,4221.025879,4203.589844,4200.512695,4201.538574,4200.0,4213.333496
7,4199.487305,4222.563965,4197.94873,4195.384766,4200.0,4224.615234,4200.0,4202.05127,4201.538574,4197.436035,4194.358887,4202.05127,4191.794922,4205.128418
8,4202.563965,4224.102539,4200.0,4197.94873,4198.461426,4225.128418,4203.589844,4196.922852,4192.307617,4196.410156,4191.794922,4205.641113,4193.333496,4201.538574
9,4218.461426,4234.871582,4212.820313,4205.128418,4206.666504,4225.128418,4214.358887,4208.205078,4201.025879,4210.256348,4202.563965,4215.384766,4203.077148,4218.974121
10,4225.641113,4240.0,4219.487305,4209.743652,4214.358887,4211.794922,4213.846191,4217.436035,4216.922852,4225.641113,4216.410156,4225.641113,4210.769043,4232.820313
11,4220.512695,4240.512695,4217.436035,4212.307617,4209.230957,4196.922852,4205.641113,4219.487305,4216.410156,4221.538574,4221.025879,4225.641113,4216.922852,4232.307617
12,4222.563965,4243.589844,4220.512695,4213.846191,4203.077148,4193.846191,4203.589844,4220.512695,4209.743652,4213.846191,4219.487305,4223.589844,4220.0,4231.794922
13,4230.256348,4244.102539,4226.153809,4213.333496,4212.307617,4206.666504,4214.871582,4223.077148,4223.077148,4221.025879,4220.0,4225.641113,4217.94873,4232.307617
14,4218.974121,4232.820313,4215.384766,4207.179688,4211.794922,4217.94873,4220.0,4222.05127,4230.256348,4220.0,4214.871582,4215.384766,4208.205078,4220.0
15,4201.025879,4216.922852,4197.94873,4197.436035,4200.0,4218.974121,4212.307617,4216.922852,4215.897461,4205.641113,4199.487305,4197.94873,4196.922852,4202.563965
16,4206.666504,4222.563965,4199.487305,4198.461426,4208.205078,4221.025879,4213.846191,4216.922852,4210.769043,4204.615234,4193.846191,4196.922852,4194.358887,4207.179688
17,4216.922852,4233.846191,4205.128418,4202.05127,4216.922852,4216.410156,4215.897461,4211.282227,4210.256348,4208.205078,4199.487305,4205.128418,4196.410156,4218.461426
18,4213.846191,4228.717773,4202.05127,4200.512695,4206.153809,4202.563965,4206.666504,4202.563965,4197.94873,4194.871582,4198.974121,4202.563965,4196.410156,4214.358887
19,4216.410156,4228.717773,4209.230957,4206.153809,4208.205078,4201.025879,4209.230957,4206.666504,4195.384766,4189.230957,4202.563965,4204.102539,4202.05127,4214.871582
20,4219.487305,4236.922852,4215.384766,4208.205078,4220.0,4206.153809,4215.384766,4216.922852,4207.692383,4206.666504,4205.641113,4209.230957,4206.666504,4221.025879
21,4213.333496,4230.256348,4205.128418,4201.538574,4210.256348,4203.077148,4206.666504,4216.922852,4215.897461,4214.358887,4201.538574,4207.179688,4202.563965,4217.94873
22,4208.717773,4217.94873,4201.025879,4198.461426,4198.461426,4200.0,4199.487305,4214.358887,4216.410156,4206.153809,4202.563965,4202.563965,4198.461426,4210.769043
23,4207.692383,4219.487305,4203.589844,4197.94873,4201.025879,4201.025879,4202.563965,4212.820313,4208.205078,4202.563965,4200.0,4204.102539,4197.436035,4206.153809
24,4198.974121,4212.307617,4192.820313,4188.205078,4199.487305,4200.0,4196.410156,4203.589844,4190.769043,4191.282227,4187.179688,4200.0,4189.230957,4197.436035
25,4194.358887,4200.512695,4187.179688,4182.05127,4197.94873,4201.025879,4190.256348,4198.461426,4186.666504,4182.05127,4188.205078,4195.384766,4182.05127,4195.897461
26,4203.077148,4208.205078,4197.436035,4190.769043,4202.05127,4202.05127,4196.922852,4207.692383,4201.025879,4192.307617,4202.563965,4205.128418,4190.769043,4211.282227
27,4211.794922,4220.0,4203.077148,4197.436035,4202.05127,4200.0,4203.589844,4213.846191,4216.922852,4206.153809,4205.128418,4215.384766,4202.563965,4220.0
28,4208.205078,4214.871582,4201.025879,4196.922852,4198.974121,4198.974121,4202.563965,4214.871582,4221.025879,4209.743652,4201.025879,4214.871582,4202.563965,4214.358887
29,4200.0,4210.256348,4199.487305,4196.922852,4199.487305,4197.94873,4198.974121,4210.769043,4208.717773,4210.769043,4198.974121,4212.820313,4196.410156,4210.256348
30,4205.128418,4216.410156,4200.512695,4200.512695,4200.512695,4198.461426,4198.974121,4205.128418,4187.179688,4208.717773,4202.563965,4219.487305,4201.025879,4217.436035
31,4214.871582,4220.512695,4202.563965,4203.077148,4201.025879,4198.461426,4202.563965,4208.205078,4187.179688,4204.615234,4217.436035,4224.615234,4216.410156,4229.743652
32,4208.717773,4215.384766,4203.077148,4196.410156,4201.025879,4198.461426,4202.563965,4217.436035,4202.05127,4207.179688,4218.974121,4220.512695,4216.410156,4229.743652
33,4198.461426,4204.615234,4197.94873,4189.230957,4199.487305,4197.94873,4198.461426,4217.436035,4202.563965,4211.794922,4203.589844,4213.846191,4202.05127,4219.487305
34,4201.025879,4202.563965,4193.333496,4192.820313,4200.0,4201.538574,4204.102539,4216.410156,4206.666504,4211.794922,4198.461426,4210.769043,4198.461426,4211.794922
35,4200.0,4205.128418,4195.384766,4194.871582,4203.589844,4210.769043,4216.410156,4221.538574,4222.563965,4205.128418,4204.615234,4210.256348,4202.05127,4205.128418
36,4188.717773,4200.0,4196.922852,4186.153809,4203.077148,4211.794922,4215.384766,4218.974121,4218.461426,4198.461426,4201.025879,4206.153809,4193.333496,4196.922852
37,4189.743652,4195.897461,4193.333496,4183.589844,4198.461426,4203.077148,4203.589844,4211.794922,4199.487305,4198.974121,4195.897461,4201.538574,4189.743652,4199.487305
38,4201.025879,4198.974121,4192.820313,4187.179688,4198.461426,4198.974121,4200.512695,4212.307617,4195.897461,4200.0,4199.487305,4201.538574,4197.94873,4207.179688
39,4203.589844,4196.922852,4196.410156,4184.615234,4197.436035,4198.974121,4199.487305,4213.333496,4200.512695,4198.974121,4203.077148,4202.05127,4199.487305,4205.641113
40,4202.05127,4193.846191,4195.897461,4184.102539,4193.333496,4196.922852,4191.282227,4210.256348,4200.512695,4200.0,4202.05127,4203.077148,4196.410156,4204.615234
41,4202.05127,4197.436035,4193.333496,4187.179688,4188.717773,4194.871582,4185.641113,4210.256348,4198.461426,4200.0,4198.461426,4205.128418,4198.974121,4204.615234
42,4201.025879,4201.025879,4196.922852,4186.153809,4186.153809,4191.794922,4186.666504,4211.794922,4198.461426,4199.487305,4196.410156,4208.717773,4203.077148,4204.102539
43,4207.692383,4198.974121,4201.538574,4187.692383,4191.282227,4184.615234,4192.820313,4212.820313,4200.512695,4200.512695,4201.538574,4212.307617,4202.563965,4209.230957
44,4217.94873,4200.0,4204.615234,4192.820313,4195.384766,4184.615234,4200.512695,4215.897461,4198.974121,4196.410156,4210.256348,4216.410156,4203.077148,4210.769043
45,4215.897461,4202.563965,4204.102539,4191.794922,4188.717773,4188.717773,4198.974121,4217.436035,4187.179688,4187.692383,4209.743652,4217.436035,4201.538574,4201.538574
46,4211.282227,4201.025879,4203.077148,4187.179688,4183.077148,4186.153809,4193.846191,4213.333496,4180.0,4182.563965,4195.897461,4209.230957,4194.871582,4196.410156
47,4213.846191,4203.077148,4205.128418,4189.743652,4186.153809,4186.666504,4197.94873,4213.333496,4190.769043,4183.077148,4190.769043,4208.717773,4191.282227,4204.615234
48,4209.230957,4198.974121,4204.102539,4189.743652,4185.641113,4194.358887,4200.512695,4215.897461,4197.94873,4184.615234,4193.333496,4210.769043,4187.179688,4200.0
49,4196.922852,4188.205078,4200.0,4182.563965,4183.589844,4203.589844,4198.974121,4213.846191,4194.871582,4184.615234,4188.205078,4202.05127,4183.589844,4183.589844
50,4200.0,4190.769043,4204.102539,4184.102539,4190.256348,4201.025879,4202.05127,4214.871582,4197.436035,4185.641113,4188.205078,4202.563965,4191.794922,4186.666504
51,4212.307617,4203.589844,4211.282227,4190.769043,4197.94873,4190.769043,4203.077148,4217.94873,4196.922852,4192.820313,4201.025879,4216.410156,4204.102539,4200.0
52,4212.307617,4204.102539,4213.333496,4190.769043,4198.974121,4182.563965,4200.0,4217.436035,4191.794922,4199.487305,4211.794922,4220.0,4209.743652,4200.512695
53,4203.077148,4198.974121,4210.769043,4190.256348,4191.794922,4183.077148,4203.589844,4223.589844,4196.410156,4202.05127,4216.922852,4214.871582,4213.333496,4198.974121
54,4202.05127,4200.512695,4204.615234,4190.256348,4187.179688,4191.794922,4211.282227,4231.282227,4204.615234,4210.256348,4215.897461,4216.922852,4212.820313,4203.589844
55,4197.436035,4193.846191,4197.94873,4184.102539,4191.282227,4200.512695,4209.230957,4225.128418,4202.563965,4210.256348,4205.128418,4213.333496,4199.487305,4193.333496
56,4186.153809,4187.179688,4196.410156,4181.538574,4192.820313,4198.974121,4201.538574,4214.871582,4200.512695,4199.487305,4196.922852,4206.153809,4192.307617,4178.461426
57,4189.230957,4192.307617,4197.94873,4182.563965,4189.230957,4188.717773,4198.974121,4215.897461,4202.563965,4205.128418,4201.025879,4213.333496,4200.0,4187.179688
58,4201.538574,4198.974121,4200.512695,4184.615234,4192.307617,4185.128418,4201.538574,4217.436035,4204.102539,4215.897461,4201.538574,4222.05127,4203.589844,4202.563965
59,4203.589844,4205.641113,4205.128418,4192.820313,4200.0,4186.666504,4201.025879,4215.897461,4202.563965,4206.666504,4200.512695,4219.487305,4205.641113,4202.563965
60,4205.128418,4215.384766,4209.743652,4201.538574,4201.538574,4185.128418,4202.563965,4217.94873,4198.461426,4202.05127,4208.205078,4220.512695,4212.820313,4197.94873
61,4214.871582,4220.0,4213.846191,4201.538574,4201.538574,4190.769043,4208.205078,4217.94873,4197.94873,4213.846191,4219.487305,4230.256348,4217.94873,4201.538574
62,4218.461426,4215.897461,4214.871582,4197.94873,4203.077148,4201.025879,4207.692383,4215.897461,4197.436035,4215.897461,4219.487305,4232.820313,4216.922852,4205.128418
63,4215.897461,4213.846191,4211.794922,4196.922852,4200.512695,4203.589844,4203.589844,4217.94873,4200.512695,4210.256348,4204.615234,4226.666504,4213.846191,4200.512695
64,4217.94873,4216.410156,4215.897461,4198.461426,4198.461426,4201.538574,4205.128418,4221.538574,4212.307617,4216.410156,4201.538574,4228.205078,4216.922852,4198.461426
65,4215.897461,4215.384766,4215.897461,4197.436035,4199.487305,4199.487305,4206.153809,4222.05127,4219.487305,4215.897461,4215.897461,4229.230957,4217.94873,4205.128418
66,4209.230957,4206.666504,4207.692383,4190.256348,4198.461426,4192.307617,4203.077148,4219.487305,4216.410156,4202.563965,4217.94873,4221.538574,4207.179688,4200.512695
67,4204.102539,4201.025879,4201.538574,4183.589844,4192.307617,4184.615234,4200.512695,4218.461426,4212.820313,4203.077148,4207.179688,4217.94873,4202.563965,4187.179688
68,4204.615234,4207.179688,4202.05127,4185.128418,4188.717773,4182.05127,4198.974121,4218.974121,4203.589844,4213.846191,4209.230957,4222.05127,4212.307617,4191.282227
69,4206.666504,4205.128418,4204.615234,4187.179688,4191.794922,4181.025879,4198.974121,4217.94873,4187.179688,4209.230957,4217.94873,4223.077148,4219.487305,4196.922852
70,4205.641113,4197.436035,4208.717773,4186.666504,4193.846191,4183.077148,4202.05127,4215.897461,4177.94873,4196.922852,4214.358887,4223.077148,4218.461426,4187.692383
71,4206.666504,4204.615234,4211.282227,4188.717773,4191.794922,4186.153809,4202.563965,4215.384766,4180.512695,4200.0,4213.333496,4224.102539,4212.307617,4186.666504
72,4207.179688,4211.282227,4205.641113,4190.256348,4191.282227,4188.205078,4202.05127,4217.436035,4190.256348,4206.153809,4217.94873,4222.05127,4204.102539,4192.307617
73,4203.077148,4201.538574,4200.512695,4186.153809,4190.769043,4188.717773,4203.077148,4217.94873,4199.487305,4196.922852,4209.230957,4217.436035,4205.641113,4187.179688
74,4202.05127,4198.461426,4201.538574,4182.05127,4189.230957,4186.666504,4197.436035,4216.922852,4202.05127,4190.769043,4200.0,4216.410156,4214.358887,4182.05127
75,4204.615234,4206.666504,4202.563965,4186.153809,4187.692383,4184.102539,4191.282227,4216.922852,4202.05127,4197.436035,4206.666504,4217.94873,4213.333496,4183.077148
76,4201.538574,4202.563965,4199.487305,4186.666504,4189.230957,4186.153809,4194.358887,4215.384766,4199.487305,4201.025879,4207.179688,4216.922852,4203.589844,4181.538574
77,4202.05127,4197.94873,4200.512695,4183.589844,4193.846191,4185.641113,4200.0,4212.820313,4197.436035,4196.922852,4196.410156,4212.820313,4198.974121,4182.563965
78,4215.384766,4209.230957,4208.205078,4193.333496,4198.974121,4186.153809,4203.077148,4217.94873,4201.538574,4200.512695,4205.128418,4216.922852,4205.128418,4188.205078
79,4219.487305,4215.897461,4208.717773,4199.487305,4200.0,4192.820313,4205.128418,4222.563965,4204.615234,4207.692383,4221.025879,4220.0,4213.846191,4187.179688
80,4214.358887,4211.282227,4204.102539,4188.205078,4198.974121,4196.410156,4205.128418,4218.461426,4198.974121,4210.769043,4213.333496,4216.410156,4216.922852,4185.128418
81,4223.077148,4214.871582,4209.743652,4190.256348,4198.974121,4194.871582,4208.205078,4218.974121,4200.0,4216.922852,4211.282227,4222.563965,4218.974121,4195.384766
82,4229.743652,4215.897461,4214.871582,4202.563965,4200.0,4192.307617,4208.205078,4222.05127,4205.128418,4222.05127,4224.615234,4231.794922,4221.025879,4199.487305
83,4216.922852,4202.05127,4204.615234,4190.769043,4195.897461,4188.717773,4191.794922,4211.794922,4197.436035,4218.461426,4220.512695,4224.615234,4218.461426,4187.692383
84,4210.769043,4200.0,4197.436035,4180.0,4194.358887,4192.307617,4185.128418,4203.077148,4192.820313,4215.384766,4208.717773,4216.410156,4210.769043,4182.05127
85,4219.487305,4214.358887,4205.128418,4193.333496,4198.461426,4201.538574,4196.410156,4203.077148,4200.0,4216.922852,4208.717773,4220.0,4203.077148,4187.179688
86,4220.512695,4218.461426,4207.179688,4199.487305,4200.0,4200.512695,4193.333496,4202.563965,4205.128418,4214.358887,4211.282227,4220.512695,4208.717773,4192.307617
87,4216.922852,4214.358887,4203.077148,4192.307617,4200.512695,4190.256348,4185.128418,4206.666504,4207.179688,4207.179688,4215.897461,4220.512695,4220.512695,4198.974121
88,4224.615234,4214.871582,4207.692383,4191.794922,4197.436035,4185.641113,4192.307617,4214.358887,4206.666504,4200.0,4212.820313,4220.0,4217.94873,4196.922852
89,4230.256348,4214.871582,4215.384766,4196.922852,4189.230957,4183.077148,4198.461426,4216.410156,4201.025879,4196.410156,4204.102539,4216.410156,4210.769043,4188.717773
90,4232.820313,4217.94873,4217.94873,4201.025879,4190.769043,4186.153809,4205.641113,4217.436035,4200.512695,4208.717773,4216.922852,4225.641113,4215.897461,4197.436035
91,4235.384766,4217.436035,4220.0,4201.025879,4200.512695,4194.358887,4215.897461,4221.025879,4204.102539,4220.0,4232.307617,4236.922852,4222.05127,4208.205078
92,4226.666504,4205.641113,4216.410156,4192.820313,4193.846191,4192.820313,4212.307617,4218.974121,4200.0,4209.743652,4213.333496,4227.179688,4210.769043,4200.0
93,4214.871582,4196.922852,4203.077148,4184.615234,4182.05127,4189.743652,4202.05127,4215.897461,4198.461426,4196.922852,4199.487305,4214.358887,4198.461426,4186.666504
94,4215.897461,4200.512695,4198.974121,4187.692383,4189.743652,4196.922852,4202.563965,4215.897461,4203.077148,4201.025879,4208.205078,4216.922852,4205.128418,4184.102539
95,4223.077148,4204.615234,4209.743652,4195.897461,4195.897461,4200.512695,4201.538574,4216.410156,4206.153809,4210.769043,4214.358887,4224.102539,4213.333496,4192.307617
96,4224.615234,4201.025879,4216.410156,4198.461426,4188.717773,4192.307617,4191.794922,4215.384766,4204.102539,4211.282227,4221.538574,4226.153809,4211.282227,4199.487305
97,4226.153809,4202.563965,4212.820313,4197.94873,4191.282227,4185.128418,4191.282227,4212.307617,4200.512695,4209.230957,4225.641113,4226.666504,4216.410156,4194.871582
98,4232.307617,4214.358887,4213.846191,4201.025879,4202.563965,4187.179688,4200.0,4216.922852,4211.794922,4220.0,4224.615234,4231.282227,4227.179688,4194.358887
99,4236.410156,4219.487305,4218.461426,4205.641113,4199.487305,4189.743652,4203.589844,4227.179688,4221.538574,4229.230957,4229.743652,4232.820313,4220.512695,4201.538574
100,4234.358887,4209.230957,4215.897461,4203.077148,4191.794922,4190.256348,4200.0,4223.077148,4206.666504,4211.282227,4223.077148,4221.538574,4206.153809,4191.282227
101,4229.743652,4202.05127,4213.333496,4198.974121,4194.358887,4193.333496,4202.05127,4214.358887,4194.871582,4194.871582,4208.205078,4215.384766,4208.717773,4180.512695
102,4229.743652,4208.205078,4217.94873,4202.05127,4195.384766,4200.512695,4207.692383,4218.461426,4204.615234,4201.025879,4215.384766,4223.589844,4215.384766,4190.256348
103,4221.025879,4205.128418,4214.358887,4198.461426,4188.717773,4200.512695,4203.077148,4220.512695,4205.128418,4203.589844,4219.487305,4217.94873,4203.077148,4188.205078
104,4204.615234,4190.769043,4198.974121,4186.153809,4183.589844,4196.410156,4197.436035,4214.871582,4198.461426,4194.871582,4202.05127,4200.0,4189.230957,4164.102539
105,4202.563965,4190.769043,4194.358887,4187.692383,4188.717773,4203.589844,4204.102539,4219.487305,4211.794922,4194.871582,4202.563965,4199.487305,4192.307617,4158.461426
106,4216.922852,4203.589844,4208.717773,4200.0,4200.0,4213.333496,4217.436035,4232.307617,4232.820313,4214.358887,4218.974121,4215.897461,4201.025879,4174.358887
107,4227.692383,4207.179688,4217.94873,4202.563965,4202.563965,4209.743652,4221.538574,4232.307617,4237.94873,4230.769043,4227.179688,4226.666504,4208.205078,4183.589844
108,4225.641113,4201.538574,4213.846191,4200.512695,4196.922852,4200.512695,4210.256348,4221.025879,4225.641113,4224.102539,4229.743652,4224.615234,4212.820313,4182.563965
109,4224.102539,4206.666504,4212.307617,4203.077148,4198.974121,4196.922852,4202.563965,4216.410156,4215.384766,4221.538574,4234.358887,4224.102539,4215.384766,4183.077148
110,4227.692383,4213.333496,4216.922852,4203.589844,4201.538574,4200.0,4208.717773,4220.512695,4217.436035,4230.769043,4236.410156,4229.743652,4218.461426,4186.153809
111,4228.205078,4203.589844,4216.410156,4200.0,4192.307617,4201.538574,4209.743652,4219.487305,4214.871582,4222.05127,4231.794922,4229.743652,4215.384766,4187.692383
112,4227.692383,4196.922852,4214.871582,4198.974121,4188.717773,4198.974121,4201.538574,4216.922852,4205.641113,4211.282227,4230.769043,4227.692383,4204.615234,4189.743652
113,4229.230957,4202.563965,4216.922852,4201.538574,4197.94873,4200.0,4204.102539,4215.897461,4202.563965,4213.333496,4229.743652,4228.717773,4199.487305,4193.333496
114,4230.769043,4204.615234,4217.94873,4202.05127,4201.538574,4208.717773,4213.333496,4216.922852,4202.563965,4208.205078,4223.589844,4227.692383,4205.128418,4193.846191
115,4228.205078,4201.025879,4217.436035,4199.487305,4197.436035,4209.743652,4211.282227,4215.897461,4205.128418,4204.102539,4223.077148,4225.641113,4205.128418,4187.692383
116,4228.205078,4200.512695,4216.922852,4200.0,4196.922852,4202.563965,4211.282227,4217.436035,4211.794922,4211.794922,4231.282227,4227.692383,4204.102539,4185.128418
117,4229.743652,4201.538574,4218.974121,4203.077148,4200.0,4202.05127,4216.410156,4227.692383,4220.0,4220.512695,4235.384766,4229.743652,4210.769043,4191.794922
118,4225.641113,4201.025879,4216.922852,4199.487305,4200.512695,4202.563965,4208.205078,4229.230957,4224.102539,4223.589844,4232.820313,4227.179688,4206.666504,4191.794922
119,4218.461426,4197.94873,4209.230957,4194.358887,4199.487305,4200.512695,4198.974121,4220.512695,4222.05127,4224.102539,4232.820313,4222.563965,4195.897461,4183.589844
120,4217.436035,4197.94873,4205.128418,4197.436035,4200.0,4203.077148,4203.077148,4222.563965,4220.0,4226.153809,4234.871582,4224.102539,4207.179688,4189.230957
121,4219.487305,4201.025879,4205.641113,4198.974121,4201.538574,4204.615234,4207.179688,4227.179688,4220.512695,4235.384766,4237.436035,4230.769043,4221.538574,4198.974121
122,4214.358887,4193.846191,4203.589844,4189.743652,4200.0,4201.538574,4201.025879,4219.487305,4218.974121,4234.871582,4236.410156,4226.153809,4209.230957,4192.820313
123,4211.794922,4183.589844,4199.487305,4184.615234,4199.487305,4206.666504,4201.025879,4213.846191,4215.384766,4221.025879,4229.230957,4216.410156,4196.922852,4184.615234
124,4213.846191,4187.179688,4200.0,4188.717773,4201.538574,4214.358887,4206.153809,4216.922852,4213.333496,4215.897461,4229.743652,4216.922852,4202.563965,4184.102539
125,4207.692383,4188.205078,4198.974121,4186.666504,4201.025879,4210.769043,4203.589844,4214.358887,4209.743652,4218.461426,4229.230957,4216.410156,4202.563965,4183.589844
126,4205.641113,4181.025879,4199.487305,4182.563965,4197.94873,4203.589844,4200.0,4211.794922,4202.05127,4212.307617,4218.461426,4213.846191,4199.487305,4185.641113
127,4215.384766,4189.743652,4206.153809,4191.794922,4197.94873,4203.589844,4198.461426,4214.358887,4190.769043,4198.461426,4215.384766,4216.922852,4198.974121,4185.128418
