,AF3,F7,F3,FC5,T7,P7,O1,O2,P8,T8,FC6,F4,F8,AF4
0,4379.487305,4344.102539,4205.641113,4344.615234,4232.820313,4234.358887,4293.846191,4297.436035,4244.102539,4258.974121,4287.179688,4274.358887,4323.589844,4329.743652
1,4374.871582,4341.025879,4206.666504,4344.102539,4229.230957,4233.846191,4288.205078,4283.589844,4227.692383,4243.077148,4274.871582,4264.615234,4308.717773,4316.922852
2,4369.743652,4342.563965,4207.179688,4351.794922,4231.282227,4232.820313,4284.615234,4276.410156,4216.922852,4231.282227,4268.717773,4262.05127,4310.256348,4310.769043
3,4361.538574,4335.897461,4206.666504,4351.282227,4228.717773,4231.794922,4282.563965,4273.846191,4212.307617,4225.641113,4263.589844,4259.487305,4311.794922,4312.307617
4,4361.538574,4327.692383,4207.179688,4343.077148,4220.0,4230.769043,4278.461426,4270.256348,4209.743652,4224.102539,4259.487305,4249.743652,4303.589844,4308.717773
5,4378.974121,4336.410156,4208.717773,4348.717773,4222.05127,4230.256348,4278.974121,4274.871582,4215.897461,4231.282227,4262.05127,4250.256348,4306.666504,4311.282227
6,4394.358887,4350.769043,4210.769043,4361.538574,4229.743652,4231.282227,4280.512695,4284.102539,4226.153809,4239.487305,4271.282227,4263.077148,4320.512695,4325.641113
7,4397.94873,4358.974121,4209.743652,4372.820313,4230.769043,4232.820313,4282.05127,4294.358887,4237.94873,4250.256348,4284.615234,4272.307617,4327.692383,4338.461426
8,4404.615234,4364.615234,4206.666504,4379.487305,4231.282227,4232.820313,4287.692383,4307.692383,4247.179688,4262.563965,4292.307617,4277.436035,4331.794922,4343.589844
9,4404.102539,4367.692383,4206.153809,4377.436035,4231.282227,4232.820313,4292.307617,4311.794922,4249.743652,4260.0,4287.179688,4276.410156,4336.922852,4343.589844
10,4400.512695,4367.179688,4209.743652,4374.358887,4229.230957,4235.384766,4295.384766,4308.205078,4246.153809,4248.205078,4281.538574,4271.282227,4335.897461,4341.025879
11,4414.871582,4369.743652,4208.717773,4381.538574,4229.230957,4235.897461,4298.461426,4309.743652,4242.563965,4246.666504,4281.538574,4275.384766,4331.794922,4345.641113
12,4429.743652,4370.256348,4205.128418,4386.666504,4225.641113,4233.333496,4295.897461,4306.666504,4232.820313,4243.077148,4281.538574,4275.384766,4333.333496,4352.307617
13,4427.179688,4367.692383,4206.666504,4383.589844,4222.05127,4230.256348,4293.333496,4296.922852,4220.0,4233.333496,4277.94873,4265.641113,4334.871582,4350.256348
14,4425.128418,4373.333496,4208.205078,4387.179688,4227.179688,4234.358887,4302.05127,4292.820313,4217.94873,4229.230957,4275.384766,4267.692383,4334.358887,4351.282227
15,4432.307617,4382.563965,4206.153809,4394.358887,4231.282227,4241.538574,4304.615234,4298.974121,4220.0,4230.769043,4281.025879,4277.94873,4340.0,4358.461426
16,4433.333496,4378.974121,4206.666504,4396.922852,4229.743652,4239.487305,4294.358887,4303.589844,4221.538574,4233.846191,4289.743652,4278.974121,4345.641113,4360.0
17,4431.282227,4371.282227,4208.205078,4397.436035,4228.717773,4233.333496,4292.820313,4306.666504,4228.717773,4243.077148,4293.846191,4276.410156,4347.692383,4360.0
18,4434.871582,4372.307617,4207.179688,4397.436035,4227.692383,4233.333496,4305.128418,4314.358887,4237.436035,4250.769043,4293.846191,4278.461426,4348.717773,4363.589844
19,4434.871582,4373.846191,4206.153809,4397.94873,4222.05127,4235.897461,4305.128418,4320.0,4244.615234,4249.743652,4294.871582,4280.0,4345.128418,4359.487305
20,4428.205078,4374.358887,4206.153809,4398.461426,4220.0,4233.846191,4295.384766,4323.589844,4249.743652,4252.307617,4296.410156,4280.512695,4344.102539,4355.384766
21,4430.769043,4374.358887,4207.692383,4399.487305,4217.436035,4230.769043,4300.512695,4333.333496,4251.282227,4259.487305,4298.461426,4282.05127,4347.179688,4357.94873
22,4441.025879,4372.307617,4208.717773,4398.974121,4218.461426,4232.307617,4312.307617,4338.461426,4249.743652,4255.897461,4297.436035,4281.538574,4345.641113,4359.487305
23,4440.0,4372.307617,4208.717773,4402.05127,4224.615234,4234.871582,4312.307617,4330.769043,4244.102539,4244.102539,4289.743652,4282.05127,4339.487305,4357.436035
24,4428.717773,4370.256348,4209.230957,4405.641113,4224.102539,4234.871582,4308.717773,4323.077148,4233.333496,4233.846191,4281.025879,4277.94873,4331.282227,4350.769043
25,4416.410156,4363.077148,4209.743652,4401.025879,4217.436035,4233.846191,4310.256348,4317.94873,4225.128418,4224.102539,4271.282227,4267.692383,4317.436035,4337.436035
26,4408.717773,4354.358887,4209.230957,4392.820313,4214.871582,4234.358887,4310.256348,4310.769043,4223.589844,4218.974121,4261.538574,4258.461426,4309.743652,4328.205078
27,4414.358887,4351.794922,4210.256348,4395.897461,4217.94873,4237.94873,4310.256348,4309.230957,4224.615234,4225.128418,4264.615234,4261.538574,4318.974121,4329.230957
28,4424.615234,4362.563965,4210.256348,4411.282227,4224.615234,4243.077148,4312.307617,4321.025879,4229.230957,4236.922852,4278.461426,4271.794922,4334.871582,4337.436035
29,4430.769043,4380.0,4208.205078,4418.461426,4229.230957,4243.077148,4312.307617,4335.897461,4239.487305,4249.230957,4290.769043,4278.974121,4345.641113,4349.743652
30,4438.974121,4382.563965,4205.641113,4418.974121,4228.717773,4239.487305,4313.333496,4342.563965,4252.307617,4259.487305,4300.0,4285.641113,4352.307617,4360.0
31,4452.820313,4377.94873,4207.179688,4424.615234,4229.230957,4243.589844,4322.05127,4347.692383,4260.0,4266.666504,4310.769043,4297.94873,4360.512695,4365.128418
32,4463.077148,4385.128418,4209.743652,4431.282227,4233.846191,4248.717773,4329.230957,4363.077148,4267.692383,4277.436035,4317.94873,4309.743652,4369.230957,4372.820313
33,4462.05127,4390.769043,4207.692383,4431.794922,4233.333496,4244.102539,4327.692383,4376.922852,4276.410156,4285.128418,4319.487305,4312.820313,4374.871582,4376.922852
34,4450.256348,4380.512695,4207.692383,4429.230957,4230.769043,4242.05127,4324.615234,4371.282227,4273.846191,4273.846191,4312.307617,4306.666504,4367.179688,4366.666504
35,4438.974121,4364.615234,4209.743652,4421.538574,4229.230957,4244.615234,4325.641113,4357.436035,4261.538574,4256.922852,4294.871582,4295.384766,4349.230957,4351.282227
36,4435.897461,4358.461426,4207.179688,4414.871582,4227.692383,4244.615234,4324.102539,4346.666504,4246.666504,4245.641113,4280.512695,4286.666504,4334.358887,4342.05127
37,4430.769043,4359.487305,4206.153809,4411.794922,4229.230957,4242.05127,4317.436035,4340.0,4235.384766,4234.871582,4272.307617,4278.974121,4327.692383,4335.384766
38,4421.538574,4351.282227,4208.717773,4407.179688,4224.615234,4244.102539,4312.307617,4337.436035,4236.922852,4233.846191,4264.102539,4268.205078,4322.563965,4325.641113
39,4417.94873,4343.077148,4206.153809,4405.128418,4218.974121,4247.692383,4310.256348,4339.487305,4244.102539,4242.563965,4263.589844,4267.692383,4323.589844,4323.589844
40,4430.256348,4356.410156,4205.128418,4414.358887,4223.589844,4247.692383,4312.820313,4345.128418,4250.769043,4249.743652,4274.871582,4276.410156,4334.871582,4333.333496
41,4446.153809,4372.820313,4207.692383,4422.563965,4232.307617,4249.230957,4317.94873,4353.333496,4260.512695,4257.94873,4284.615234,4285.128418,4343.589844,4343.589844
42,4439.487305,4367.692383,4208.205078,4418.461426,4232.307617,4250.769043,4316.922852,4357.94873,4263.589844,4260.512695,4283.589844,4287.692383,4343.589844,4344.615234
43,4424.102539,4357.94873,4207.692383,4411.794922,4227.692383,4248.205078,4312.820313,4355.897461,4251.794922,4252.820313,4278.974121,4282.05127,4337.94873,4337.436035
44,4431.282227,4361.538574,4209.743652,4409.743652,4227.179688,4246.153809,4317.94873,4357.436035,4250.769043,4253.333496,4280.0,4282.563965,4343.589844,4338.461426
45,4447.692383,4369.743652,4209.230957,4415.384766,4229.743652,4249.230957,4327.692383,4370.769043,4270.256348,4268.717773,4291.794922,4297.436035,4362.05127,4350.256348
46,4449.743652,4373.846191,4208.717773,4426.153809,4229.743652,4251.282227,4333.846191,4382.05127,4285.128418,4276.410156,4300.0,4305.128418,4366.153809,4357.436035
47,4443.077148,4368.205078,4210.256348,4428.205078,4231.282227,4250.256348,4334.871582,4378.974121,4278.974121,4270.256348,4293.333496,4297.94873,4352.820313,4350.256348
48,4434.358887,4355.897461,4209.743652,4417.94873,4229.743652,4250.256348,4331.794922,4372.820313,4266.153809,4259.487305,4281.025879,4291.282227,4343.589844,4338.461426
49,4422.563965,4347.179688,4207.179688,4405.128418,4221.538574,4250.769043,4323.589844,4365.641113,4262.563965,4249.230957,4267.692383,4283.077148,4335.897461,4326.666504
50,4413.333496,4343.589844,4207.179688,4397.436035,4216.922852,4250.769043,4314.871582,4357.94873,4263.589844,4245.641113,4257.94873,4274.358887,4323.077148,4316.922852
51,4413.846191,4341.538574,4208.717773,4395.897461,4218.461426,4250.256348,4314.871582,4360.0,4263.589844,4251.794922,4260.512695,4273.333496,4325.641113,4318.974121
52,4421.538574,4344.615234,4207.692383,4398.974121,4217.436035,4250.769043,4318.461426,4365.641113,4265.128418,4261.025879,4272.307617,4277.436035,4341.025879,4326.666504
53,4427.179688,4351.794922,4207.692383,4404.615234,4215.384766,4250.769043,4319.487305,4366.153809,4267.179688,4265.641113,4280.0,4288.205078,4344.615234,4331.794922
54,4428.205078,4351.794922,4208.717773,4406.666504,4217.94873,4249.743652,4320.0,4364.102539,4264.615234,4264.615234,4280.0,4294.871582,4343.589844,4333.846191
55,4428.717773,4349.743652,4208.205078,4406.153809,4222.563965,4251.282227,4324.615234,4365.128418,4262.563965,4264.102539,4281.538574,4294.358887,4349.743652,4336.922852
56,4430.256348,4353.333496,4207.692383,4410.256348,4225.641113,4250.256348,4326.153809,4365.641113,4264.102539,4264.615234,4286.153809,4298.461426,4353.333496,4339.487305
57,4436.922852,4358.974121,4207.692383,4419.487305,4226.153809,4246.153809,4325.128418,4368.205078,4263.589844,4264.102539,4285.641113,4304.615234,4351.794922,4334.871582
58,4442.05127,4361.025879,4206.666504,4422.05127,4227.179688,4245.641113,4325.641113,4371.794922,4262.05127,4260.512695,4281.025879,4304.615234,4350.256348,4328.205078
59,4438.974121,4358.974121,4206.666504,4416.922852,4229.230957,4248.717773,4328.717773,4375.384766,4265.128418,4260.0,4280.512695,4303.589844,4348.717773,4326.666504
60,4430.256348,4355.384766,4207.692383,4416.922852,4232.307617,4250.769043,4330.256348,4376.410156,4268.717773,4262.05127,4279.487305,4300.512695,4344.102539,4324.615234
61,4413.333496,4346.153809,4209.743652,4410.256348,4231.282227,4250.769043,4326.666504,4370.256348,4266.153809,4254.358887,4266.666504,4288.205078,4332.820313,4310.256348
62,4398.974121,4329.230957,4209.743652,4397.436035,4222.563965,4250.769043,4326.153809,4365.641113,4263.077148,4244.615234,4249.230957,4274.871582,4323.077148,4294.871582
63,4403.589844,4326.153809,4209.230957,4393.846191,4216.922852,4250.769043,4327.692383,4365.128418,4263.077148,4247.692383,4246.153809,4270.769043,4325.128418,4289.230957
64,4412.820313,4337.94873,4209.230957,4397.94873,4218.974121,4251.794922,4320.512695,4365.641113,4269.230957,4260.0,4256.410156,4274.871582,4335.384766,4294.358887
65,4409.743652,4342.05127,4209.230957,4395.897461,4219.487305,4251.794922,4311.282227,4364.102539,4276.410156,4265.128418,4264.615234,4278.461426,4348.717773,4303.589844
66,4406.666504,4336.922852,4207.179688,4389.743652,4220.512695,4249.743652,4308.205078,4357.436035,4271.794922,4261.025879,4267.692383,4280.0,4361.025879,4309.230957
67,4415.384766,4344.102539,4207.179688,4395.897461,4230.256348,4249.743652,4309.230957,4354.871582,4261.538574,4260.512695,4273.333496,4288.205078,4373.333496,4316.922852
68,4427.692383,4358.974121,4210.256348,4410.256348,4237.94873,4251.282227,4310.256348,4360.512695,4262.05127,4263.077148,4279.487305,4298.461426,4381.538574,4328.205078
69,4429.230957,4358.974121,4210.769043,4414.871582,4234.871582,4253.333496,4311.282227,4362.05127,4263.589844,4257.436035,4279.487305,4297.436035,4380.0,4328.717773
70,4423.589844,4350.769043,4208.717773,4410.256348,4233.333496,4256.922852,4315.384766,4358.974121,4257.94873,4249.743652,4273.846191,4295.384766,4374.871582,4323.077148
71,4434.871582,4355.384766,4208.717773,4410.769043,4243.589844,4262.05127,4327.179688,4369.230957,4263.589844,4257.94873,4276.410156,4306.153809,4380.0,4331.794922
72,4450.256348,4369.230957,4209.230957,4417.94873,4253.333496,4266.153809,4341.025879,4386.153809,4279.487305,4273.846191,4289.230957,4317.94873,4392.307617,4348.717773
73,4442.05127,4365.128418,4207.692383,4413.333496,4245.641113,4266.666504,4343.589844,4391.794922,4287.179688,4281.025879,4290.769043,4313.333496,4391.794922,4344.615234
74,4426.153809,4345.128418,4207.692383,4399.487305,4231.794922,4262.05127,4336.922852,4389.230957,4287.179688,4279.487305,4280.0,4299.487305,4382.563965,4329.743652
75,4421.538574,4338.974121,4207.179688,4393.333496,4229.230957,4257.94873,4328.717773,4384.615234,4286.153809,4277.94873,4274.358887,4294.871582,4377.436035,4325.128418
76,4420.512695,4342.563965,4206.153809,4393.333496,4229.743652,4259.487305,4326.666504,4376.410156,4284.615234,4278.461426,4275.897461,4296.410156,4376.410156,4326.666504
77,4416.410156,4336.410156,4207.179688,4390.256348,4228.717773,4260.512695,4325.128418,4368.205078,4280.0,4274.871582,4275.897461,4293.846191,4374.358887,4326.153809
78,4415.384766,4334.358887,4211.794922,4386.666504,4231.794922,4256.922852,4320.512695,4358.974121,4270.769043,4265.641113,4271.794922,4288.717773,4373.333496,4324.615234
79,4412.820313,4340.0,4210.769043,4387.179688,4232.820313,4249.230957,4315.897461,4348.717773,4262.563965,4258.974121,4263.077148,4288.205078,4369.230957,4319.487305
80,4412.820313,4342.563965,4207.692383,4392.820313,4230.256348,4249.743652,4312.820313,4338.974121,4260.512695,4258.974121,4261.025879,4292.820313,4369.230957,4318.974121
81,4426.153809,4349.230957,4209.230957,4401.025879,4237.436035,4255.897461,4313.846191,4338.461426,4260.0,4263.077148,4273.333496,4296.410156,4377.436035,4330.256348
82,4430.769043,4355.897461,4209.230957,4404.102539,4247.179688,4252.820313,4318.461426,4345.128418,4260.0,4263.589844,4273.333496,4296.410156,4374.871582,4329.230957
83,4415.897461,4347.692383,4206.153809,4397.94873,4247.692383,4251.282227,4324.102539,4350.256348,4260.512695,4258.974121,4264.615234,4292.820313,4362.563965,4313.333496
84,4411.282227,4339.487305,4208.205078,4392.820313,4243.589844,4261.025879,4331.282227,4360.512695,4268.717773,4265.128418,4270.256348,4293.846191,4363.077148,4313.846191
85,4412.307617,4338.974121,4210.256348,4392.307617,4238.974121,4266.666504,4340.512695,4376.922852,4281.025879,4276.410156,4273.333496,4295.897461,4365.641113,4317.436035
86,4395.897461,4324.102539,4208.717773,4386.153809,4233.846191,4261.538574,4343.077148,4380.512695,4282.563965,4272.307617,4262.563965,4289.230957,4353.846191,4302.05127
87,4384.102539,4308.717773,4208.205078,4376.410156,4230.769043,4259.487305,4337.94873,4372.820313,4276.410156,4263.077148,4256.922852,4279.487305,4342.05127,4290.256348
88,4387.692383,4312.307617,4208.717773,4370.769043,4230.769043,4261.538574,4333.333496,4371.282227,4279.487305,4266.153809,4258.461426,4276.410156,4340.0,4292.820313
89,4386.153809,4318.974121,4208.717773,4370.256348,4230.769043,4262.05127,4328.205078,4368.717773,4281.025879,4268.717773,4256.922852,4280.512695,4341.025879,4292.820313
90,4383.589844,4317.436035,4210.769043,4376.410156,4231.794922,4257.94873,4320.0,4358.974121,4272.820313,4266.153809,4262.05127,4285.641113,4342.05127,4293.333496
91,4383.077148,4310.256348,4209.743652,4381.025879,4232.820313,4250.769043,4311.282227,4347.179688,4264.102539,4263.589844,4264.102539,4284.102539,4336.922852,4295.897461
92,4381.025879,4311.794922,4207.692383,4381.025879,4235.897461,4249.230957,4307.179688,4332.820313,4252.820313,4254.358887,4251.282227,4278.974121,4328.717773,4292.307617
93,4386.153809,4326.666504,4208.717773,4381.538574,4243.077148,4249.230957,4302.563965,4323.589844,4245.641113,4248.717773,4248.717773,4281.538574,4332.307617,4295.897461
94,4387.179688,4329.230957,4207.692383,4382.563965,4245.128418,4247.692383,4296.410156,4324.615234,4247.179688,4250.256348,4259.487305,4285.128418,4333.846191,4299.487305
95,4374.358887,4314.871582,4206.666504,4376.922852,4238.974121,4247.179688,4295.897461,4324.615234,4248.717773,4249.230957,4254.871582,4278.974121,4322.05127,4286.153809
96,4366.666504,4305.641113,4208.717773,4365.128418,4230.769043,4247.179688,4303.589844,4327.179688,4252.307617,4252.820313,4245.641113,4277.436035,4319.487305,4278.461426
97,4366.153809,4303.589844,4211.282227,4356.922852,4230.769043,4247.692383,4313.333496,4342.563965,4262.563965,4264.102539,4249.743652,4276.922852,4324.102539,4279.487305
98,4353.846191,4292.307617,4209.743652,4352.307617,4233.333496,4252.307617,4320.512695,4355.897461,4269.230957,4265.128418,4250.769043,4267.179688,4312.307617,4267.692383
99,4341.025879,4282.563965,4209.230957,4347.692383,4230.256348,4255.897461,4325.128418,4358.974121,4267.692383,4261.538574,4242.05127,4261.538574,4303.077148,4255.897461
100,4338.974121,4281.538574,4210.256348,4343.589844,4229.230957,4253.846191,4323.077148,4357.436035,4267.179688,4262.05127,4236.922852,4264.615234,4307.692383,4260.512695
101,4340.0,4278.461426,4210.256348,4344.102539,4233.846191,4249.743652,4315.384766,4351.282227,4263.589844,4253.333496,4233.846191,4263.589844,4301.538574,4262.563965
102,4340.512695,4284.615234,4210.256348,4348.717773,4234.358887,4250.256348,4311.794922,4345.128418,4260.0,4247.179688,4232.820313,4261.538574,4293.333496,4258.461426
103,4343.077148,4296.922852,4210.769043,4355.384766,4235.897461,4249.230957,4311.282227,4342.563965,4257.436035,4251.282227,4235.384766,4267.692383,4297.436035,4260.512695
104,4343.077148,4292.820313,4210.256348,4357.436035,4240.0,4239.487305,4302.05127,4327.179688,4243.589844,4244.102539,4231.282227,4267.692383,4294.871582,4263.077148
105,4340.512695,4283.077148,4211.282227,4352.307617,4238.974121,4231.282227,4291.794922,4308.205078,4233.333496,4235.897461,4229.743652,4263.589844,4291.794922,4262.05127
106,4343.589844,4289.230957,4211.794922,4350.769043,4236.922852,4230.769043,4291.794922,4313.333496,4243.077148,4245.641113,4239.487305,4271.794922,4304.615234,4266.666504
107,4342.563965,4289.230957,4209.230957,4353.333496,4237.436035,4231.794922,4293.333496,4318.461426,4248.717773,4251.794922,4244.102539,4277.94873,4308.205078,4268.205078
108,4329.230957,4272.820313,4207.179688,4342.563965,4232.820313,4232.307617,4290.769043,4310.769043,4243.077148,4244.102539,4230.769043,4263.077148,4286.666504,4250.769043
109,4315.384766,4260.0,4209.230957,4326.153809,4229.743652,4231.794922,4292.820313,4315.384766,4248.717773,4243.589844,4216.922852,4246.666504,4271.794922,4232.307617
110,4310.256348,4249.743652,4210.769043,4321.538574,4231.794922,4235.897461,4301.538574,4332.307617,4262.05127,4251.282227,4218.974121,4247.179688,4279.487305,4233.333496
111,4311.794922,4243.077148,4209.230957,4320.0,4230.769043,4241.025879,4311.282227,4338.461426,4265.128418,4251.794922,4222.05127,4252.307617,4278.461426,4236.922852
112,4306.666504,4246.666504,4208.205078,4313.333496,4228.205078,4239.487305,4312.820313,4333.846191,4265.128418,4250.256348,4216.410156,4248.205078,4261.538574,4229.230957
113,4294.358887,4248.717773,4207.692383,4310.769043,4229.230957,4234.358887,4303.589844,4329.230957,4261.025879,4246.153809,4211.794922,4247.179688,4257.94873,4226.153809
114,4295.897461,4245.641113,4208.205078,4310.769043,4229.743652,4234.358887,4296.410156,4322.563965,4250.769043,4238.461426,4215.897461,4255.897461,4264.615234,4229.230957
115,4309.743652,4249.230957,4207.179688,4312.307617,4230.769043,4235.384766,4295.897461,4314.871582,4245.128418,4231.794922,4217.94873,4264.102539,4264.102539,4233.333496
116,4315.384766,4258.461426,4208.205078,4320.512695,4232.307617,4232.820313,4292.820313,4310.769043,4245.128418,4231.282227,4216.410156,4264.615234,4265.128418,4238.974121
117,4319.487305,4268.205078,4210.769043,4330.769043,4233.333496,4231.282227,4285.128418,4312.307617,4245.641113,4239.487305,4225.128418,4265.128418,4276.410156,4248.205078
118,4319.487305,4268.205078,4209.743652,4328.717773,4235.384766,4231.794922,4279.487305,4310.769043,4246.153809,4247.692383,4237.436035,4269.230957,4285.641113,4254.871582
119,4304.615234,4254.358887,4206.666504,4318.461426,4235.897461,4231.794922,4280.512695,4300.512695,4245.641113,4243.589844,4233.846191,4266.153809,4280.512695,4249.743652
120,4294.358887,4247.692383,4206.666504,4313.846191,4233.846191,4233.333496,4278.974121,4295.897461,4245.641113,4236.922852,4221.025879,4255.384766,4266.666504,4234.871582
121,4296.922852,4249.743652,4209.743652,4309.230957,4231.282227,4233.846191,4278.461426,4303.077148,4246.666504,4241.025879,4216.410156,4248.205078,4258.461426,4227.179688
122,4294.358887,4244.102539,4212.307617,4299.487305,4231.282227,4234.358887,4287.179688,4310.769043,4249.230957,4247.179688,4218.974121,4247.179688,4263.589844,4229.230957
123,4286.153809,4233.333496,4210.769043,4294.358887,4231.282227,4237.94873,4296.922852,4314.358887,4257.94873,4246.666504,4218.974121,4246.153809,4264.615234,4229.743652
124,4279.487305,4229.743652,4208.205078,4295.384766,4229.743652,4246.153809,4296.410156,4318.974121,4260.0,4245.128418,4215.384766,4245.128418,4251.282227,4226.153809
125,4277.94873,4232.307617,4209.743652,4293.333496,4231.282227,4247.179688,4294.871582,4320.0,4251.282227,4242.05127,4214.358887,4247.179688,4243.077148,4226.666504
126,4287.179688,4239.487305,4211.282227,4293.846191,4233.846191,4238.461426,4296.410156,4313.333496,4247.179688,4234.871582,4214.358887,4254.871582,4251.794922,4231.282227
127,4297.436035,4245.641113,4208.205078,4303.589844,4232.307617,4231.794922,4289.743652,4304.102539,4248.205078,4230.256348,4216.922852,4262.563965,4262.05127,4240.0
