,AF3,F7,F3,FC5,T7,P7,O1,O2,P8,T8,FC6,F4,F8,AF4
0,4198.974121,4230.769043,4201.538574,4217.94873,4218.974121,4231.282227,4203.077148,4221.538574,4235.897461,4234.871582,4209.743652,4227.692383,4195.384766,4166.153809
1,4205.128418,4236.922852,4204.102539,4218.974121,4217.436035,4227.692383,4203.077148,4216.410156,4235.897461,4234.358887,4214.871582,4234.871582,4204.102539,4173.846191
2,4200.0,4237.436035,4205.128418,4218.461426,4216.922852,4220.512695,4202.05127,4206.153809,4232.307617,4234.358887,4207.692383,4231.282227,4200.0,4166.153809
3,4199.487305,4235.897461,4204.615234,4217.436035,4217.94873,4220.0,4199.487305,4197.94873,4222.05127,4235.384766,4198.974121,4220.0,4194.871582,4157.436035
4,4200.0,4234.871582,4207.179688,4215.897461,4217.94873,4227.692383,4201.538574,4193.846191,4215.897461,4233.846191,4197.436035,4213.846191,4190.769043,4156.410156
5,4189.743652,4230.256348,4206.153809,4214.871582,4217.436035,4232.307617,4211.794922,4193.333496,4217.436035,4231.282227,4192.820313,4213.333496,4184.102539,4153.333496
6,4183.589844,4232.307617,4205.641113,4209.743652,4219.487305,4232.307617,4217.436035,4195.384766,4217.436035,4230.256348,4187.179688,4209.743652,4185.641113,4148.205078
7,4181.538574,4231.282227,4206.666504,4202.563965,4221.538574,4232.307617,4213.333496,4198.461426,4216.410156,4230.769043,4185.641113,4202.05127,4184.102539,4144.102539
8,4168.717773,4216.410156,4206.666504,4193.846191,4216.922852,4233.333496,4212.820313,4202.563965,4217.94873,4226.153809,4181.025879,4194.871582,4168.205078,4133.333496
9,4168.205078,4217.94873,4204.615234,4196.410156,4215.384766,4235.897461,4217.436035,4207.179688,4219.487305,4218.461426,4178.974121,4197.436035,4166.153809,4133.846191
10,4188.205078,4241.025879,4205.128418,4212.307617,4225.641113,4236.922852,4215.897461,4206.666504,4218.461426,4218.974121,4185.641113,4211.282227,4177.94873,4148.205078
11,4188.717773,4241.025879,4205.641113,4215.384766,4229.743652,4234.871582,4211.282227,4203.589844,4217.94873,4229.743652,4187.179688,4217.94873,4174.358887,4150.256348
12,4180.512695,4231.794922,4207.179688,4208.205078,4225.128418,4235.384766,4207.179688,4200.512695,4218.974121,4231.794922,4183.077148,4208.717773,4173.333496,4145.641113
13,4199.487305,4249.743652,4205.641113,4213.846191,4227.692383,4236.922852,4203.589844,4187.692383,4211.794922,4222.05127,4184.615234,4202.05127,4189.743652,4155.897461
14,4207.692383,4258.974121,4204.615234,4221.025879,4230.256348,4233.333496,4201.025879,4171.282227,4198.974121,4214.358887,4182.563965,4202.563965,4186.666504,4160.0
15,4185.641113,4242.05127,4206.153809,4212.820313,4220.512695,4227.692383,4201.538574,4175.897461,4202.05127,4215.897461,4176.410156,4200.512695,4169.743652,4145.128418
16,4188.205078,4243.589844,4207.179688,4209.743652,4214.871582,4226.153809,4209.230957,4193.846191,4215.384766,4226.153809,4184.102539,4201.538574,4180.0,4148.205078
17,4205.641113,4256.410156,4206.666504,4212.820313,4223.589844,4229.743652,4216.922852,4204.615234,4221.538574,4234.358887,4193.846191,4204.615234,4194.871582,4161.538574
18,4187.179688,4244.102539,4206.153809,4203.077148,4228.205078,4233.846191,4220.0,4206.666504,4221.538574,4229.230957,4186.153809,4199.487305,4182.05127,4148.717773
19,4164.102539,4230.256348,4205.641113,4196.922852,4221.538574,4237.436035,4220.0,4207.692383,4220.0,4217.94873,4174.358887,4189.743652,4168.717773,4134.358887
20,4169.230957,4230.769043,4204.102539,4195.384766,4215.897461,4235.897461,4219.487305,4202.563965,4216.410156,4214.871582,4171.282227,4185.128418,4169.230957,4137.436035
21,4172.820313,4230.769043,4204.615234,4189.230957,4217.436035,4230.256348,4214.871582,4190.769043,4208.717773,4213.846191,4168.717773,4188.717773,4169.230957,4140.0
22,4168.717773,4231.794922,4205.128418,4191.282227,4216.410156,4228.717773,4207.692383,4183.077148,4201.538574,4209.743652,4168.717773,4194.358887,4169.743652,4138.461426
23,4166.153809,4233.846191,4206.153809,4196.410156,4213.846191,4230.769043,4206.153809,4186.666504,4204.615234,4213.333496,4175.384766,4196.922852,4170.769043,4137.94873
24,4162.05127,4232.307617,4204.615234,4194.358887,4219.487305,4231.794922,4209.743652,4190.769043,4216.410156,4225.128418,4182.05127,4200.512695,4169.230957,4138.974121
25,4168.205078,4233.333496,4203.077148,4195.384766,4224.102539,4231.794922,4211.794922,4188.205078,4217.436035,4230.256348,4183.589844,4202.563965,4174.871582,4142.563965
26,4171.282227,4235.897461,4203.589844,4196.410156,4220.0,4230.769043,4212.820313,4190.769043,4211.282227,4228.205078,4182.563965,4201.025879,4180.512695,4143.589844
27,4159.487305,4233.333496,4208.205078,4193.846191,4216.922852,4229.743652,4215.897461,4200.0,4214.358887,4227.692383,4184.615234,4202.563965,4178.974121,4145.641113
28,4161.538574,4238.461426,4207.692383,4198.461426,4223.589844,4232.307617,4220.0,4204.102539,4219.487305,4230.256348,4187.692383,4205.641113,4183.077148,4150.769043
29,4175.384766,4249.743652,4204.615234,4206.153809,4228.717773,4234.358887,4221.538574,4205.128418,4217.94873,4231.794922,4189.230957,4204.615234,4188.205078,4149.230957
30,4168.205078,4246.153809,4202.05127,4200.512695,4222.563965,4232.820313,4220.512695,4203.077148,4215.897461,4228.205078,4182.05127,4201.538574,4176.410156,4140.512695
31,4151.282227,4234.358887,4204.615234,4190.256348,4214.358887,4232.307617,4216.410156,4201.538574,4214.871582,4225.641113,4172.307617,4197.436035,4165.641113,4131.282227
32,4149.743652,4230.256348,4205.641113,4187.692383,4215.384766,4234.358887,4217.436035,4200.0,4208.717773,4225.641113,4170.769043,4190.769043,4167.692383,4125.641113
33,4154.871582,4229.230957,4204.615234,4188.205078,4220.512695,4235.384766,4215.384766,4194.358887,4201.538574,4221.025879,4172.820313,4186.666504,4168.205078,4123.077148
34,4151.282227,4231.282227,4204.102539,4187.179688,4217.94873,4233.846191,4206.666504,4184.615234,4198.461426,4211.794922,4169.230957,4185.641113,4167.179688,4125.128418
35,4138.461426,4231.282227,4205.128418,4182.563965,4209.743652,4232.820313,4206.666504,4182.563965,4199.487305,4210.769043,4165.128418,4183.077148,4165.641113,4122.05127
36,4135.897461,4227.179688,4205.128418,4180.0,4208.205078,4234.358887,4215.897461,4189.743652,4204.615234,4221.025879,4167.692383,4183.589844,4166.666504,4119.487305
37,4149.743652,4229.230957,4203.077148,4182.563965,4209.743652,4235.384766,4214.871582,4201.025879,4215.897461,4230.256348,4172.307617,4193.333496,4172.307617,4126.153809
38,4152.307617,4232.307617,4202.563965,4183.589844,4206.153809,4227.692383,4204.615234,4204.615234,4218.974121,4227.692383,4174.358887,4198.974121,4174.358887,4129.230957
39,4141.025879,4225.128418,4202.563965,4179.487305,4202.05127,4216.922852,4202.05127,4199.487305,4206.666504,4218.974121,4171.794922,4192.820313,4170.769043,4124.102539
40,4132.820313,4211.794922,4205.128418,4170.256348,4201.025879,4216.410156,4204.615234,4197.436035,4197.94873,4215.897461,4167.692383,4186.153809,4167.179688,4120.0
41,4134.358887,4213.846191,4205.128418,4169.230957,4198.974121,4219.487305,4201.538574,4194.871582,4200.0,4212.307617,4166.666504,4185.641113,4168.717773,4121.538574
42,4140.512695,4227.692383,4204.615234,4177.436035,4202.563965,4220.0,4199.487305,4193.333496,4202.563965,4213.846191,4171.282227,4188.717773,4177.94873,4124.615234
43,4139.487305,4225.641113,4205.641113,4178.974121,4214.358887,4223.077148,4204.615234,4198.461426,4204.102539,4226.153809,4174.358887,4189.743652,4185.128418,4125.128418
44,4129.230957,4211.794922,4206.153809,4171.282227,4214.871582,4224.615234,4202.563965,4196.922852,4204.102539,4226.666504,4169.743652,4187.692383,4175.897461,4116.922852
45,4125.128418,4212.307617,4203.077148,4169.230957,4203.589844,4217.94873,4188.205078,4184.615234,4202.05127,4215.384766,4164.615234,4183.589844,4168.205078,4109.230957
46,4125.128418,4220.0,4204.102539,4172.820313,4200.512695,4216.410156,4183.077148,4181.025879,4198.461426,4213.846191,4168.205078,4177.94873,4180.0,4114.358887
47,4124.615234,4217.94873,4205.128418,4171.794922,4206.153809,4225.128418,4187.692383,4188.205078,4202.563965,4221.025879,4170.769043,4176.922852,4188.717773,4120.512695
48,4129.230957,4216.410156,4203.077148,4169.230957,4204.615234,4228.205078,4187.179688,4189.230957,4207.179688,4220.0,4170.256348,4177.94873,4187.692383,4121.538574
49,4131.794922,4217.436035,4202.563965,4170.256348,4200.512695,4226.153809,4185.128418,4187.692383,4205.128418,4217.436035,4172.307617,4175.384766,4189.230957,4118.461426
50,4122.05127,4214.871582,4203.589844,4170.769043,4202.05127,4224.615234,4182.563965,4186.666504,4201.025879,4216.922852,4165.641113,4169.230957,4182.05127,4108.717773
51,4112.307617,4210.769043,4204.102539,4165.641113,4202.563965,4225.128418,4178.974121,4184.615234,4198.974121,4213.846191,4155.384766,4165.641113,4172.307617,4100.0
52,4120.512695,4212.820313,4205.641113,4165.128418,4204.102539,4227.692383,4178.974121,4190.769043,4202.563965,4217.436035,4167.692383,4170.769043,4184.102539,4110.769043
53,4137.94873,4226.153809,4205.128418,4178.461426,4209.230957,4228.205078,4182.563965,4199.487305,4211.282227,4223.077148,4185.128418,4182.05127,4202.563965,4129.743652
54,4144.615234,4234.871582,4205.128418,4189.230957,4211.282227,4228.717773,4182.563965,4200.512695,4214.871582,4220.512695,4179.487305,4189.230957,4200.0,4130.256348
55,4136.410156,4228.717773,4206.666504,4181.538574,4212.820313,4230.769043,4180.512695,4194.358887,4210.256348,4215.384766,4168.717773,4180.0,4189.743652,4120.512695
56,4132.820313,4217.94873,4205.641113,4171.282227,4212.307617,4232.820313,4182.05127,4188.717773,4205.641113,4214.358887,4169.230957,4167.692383,4186.153809,4119.487305
57,4137.94873,4217.436035,4205.128418,4172.307617,4207.179688,4234.358887,4180.0,4185.641113,4202.563965,4213.333496,4169.230957,4173.333496,4187.179688,4122.05127
58,4134.358887,4223.589844,4205.128418,4174.358887,4205.641113,4233.333496,4174.358887,4183.589844,4199.487305,4210.256348,4168.717773,4185.128418,4190.256348,4124.102539
59,4133.846191,4227.179688,4206.153809,4175.384766,4211.282227,4230.769043,4173.846191,4187.692383,4203.589844,4214.871582,4171.794922,4186.153809,4189.230957,4130.256348
60,4145.128418,4231.282227,4206.153809,4184.102539,4214.871582,4230.769043,4184.102539,4205.641113,4218.461426,4228.717773,4179.487305,4189.230957,4192.307617,4138.974121
61,4155.384766,4238.974121,4207.179688,4191.282227,4215.384766,4234.358887,4191.282227,4218.461426,4228.205078,4235.897461,4188.205078,4202.563965,4202.05127,4143.589844
62,4154.871582,4239.487305,4203.589844,4186.666504,4216.410156,4233.846191,4191.282227,4210.256348,4223.589844,4233.333496,4187.179688,4204.615234,4202.563965,4143.589844
63,4150.769043,4235.384766,4203.077148,4187.179688,4215.384766,4234.871582,4195.384766,4201.025879,4214.871582,4229.743652,4183.589844,4198.974121,4198.461426,4144.615234
64,4155.384766,4246.153809,4204.102539,4195.897461,4218.974121,4240.512695,4196.922852,4203.589844,4215.897461,4232.307617,4190.769043,4202.05127,4207.179688,4154.871582
65,4157.94873,4250.256348,4205.641113,4194.358887,4224.102539,4245.128418,4194.871582,4207.692383,4220.0,4233.846191,4192.307617,4204.615234,4205.128418,4157.436035
66,4146.666504,4233.846191,4206.666504,4186.153809,4221.538574,4247.692383,4198.461426,4211.282227,4219.487305,4231.282227,4183.589844,4200.512695,4188.717773,4138.974121
67,4142.05127,4225.128418,4206.153809,4184.615234,4217.436035,4248.717773,4202.563965,4214.358887,4219.487305,4229.743652,4189.230957,4200.512695,4195.897461,4138.461426
68,4153.333496,4233.333496,4203.589844,4186.153809,4217.436035,4248.205078,4196.410156,4212.820313,4221.025879,4234.358887,4204.102539,4205.128418,4220.512695,4167.692383
69,4158.461426,4233.333496,4205.128418,4180.0,4216.410156,4245.641113,4187.692383,4208.205078,4220.512695,4237.94873,4201.538574,4205.128418,4224.615234,4173.333496
70,4148.717773,4221.538574,4206.153809,4176.922852,4213.846191,4243.589844,4186.153809,4202.563965,4217.436035,4231.794922,4192.307617,4199.487305,4213.333496,4154.871582
71,4151.794922,4219.487305,4204.102539,4182.563965,4212.820313,4241.025879,4184.615234,4203.589844,4215.897461,4229.230957,4197.436035,4202.05127,4212.820313,4160.512695
72,4164.102539,4231.794922,4204.102539,4188.205078,4214.871582,4236.410156,4184.615234,4210.769043,4218.974121,4234.358887,4207.179688,4214.358887,4221.025879,4178.461426
73,4162.563965,4238.461426,4204.615234,4188.717773,4213.846191,4235.384766,4185.128418,4211.282227,4218.974121,4234.358887,4206.153809,4217.94873,4220.0,4170.256348
74,4152.307617,4228.717773,4204.102539,4182.05127,4209.230957,4234.871582,4178.461426,4200.0,4207.179688,4224.102539,4194.358887,4202.563965,4207.179688,4154.871582
75,4148.717773,4220.0,4204.102539,4176.922852,4204.102539,4231.794922,4167.692383,4187.179688,4195.897461,4213.846191,4179.487305,4186.153809,4196.922852,4152.307617
76,4152.307617,4225.641113,4204.615234,4180.512695,4203.077148,4230.256348,4165.128418,4186.153809,4195.897461,4210.256348,4176.410156,4189.230957,4196.922852,4151.282227
77,4153.846191,4231.282227,4203.077148,4186.153809,4208.205078,4233.846191,4174.871582,4196.922852,4202.563965,4215.897461,4185.641113,4201.538574,4204.102539,4157.94873
78,4155.897461,4232.307617,4204.615234,4185.641113,4211.282227,4236.410156,4181.538574,4203.077148,4209.230957,4227.692383,4189.230957,4204.102539,4209.743652,4169.743652
79,4156.922852,4230.769043,4205.128418,4183.589844,4208.205078,4234.358887,4177.436035,4202.05127,4214.871582,4228.717773,4184.102539,4196.410156,4206.666504,4164.102539
80,4151.282227,4226.666504,4207.179688,4180.0,4201.538574,4232.307617,4170.769043,4201.025879,4212.820313,4218.974121,4180.512695,4187.692383,4200.0,4150.769043
81,4150.256348,4224.615234,4207.179688,4177.436035,4200.512695,4232.820313,4170.769043,4201.538574,4206.153809,4216.410156,4181.025879,4186.666504,4200.512695,4155.384766
82,4160.0,4231.794922,4206.666504,4182.563965,4209.743652,4235.897461,4171.794922,4200.512695,4207.692383,4220.0,4183.589844,4193.333496,4205.128418,4168.205078
83,4170.256348,4237.94873,4205.128418,4189.230957,4216.922852,4233.846191,4168.205078,4198.461426,4209.230957,4218.974121,4188.717773,4198.461426,4208.205078,4170.769043
84,4173.333496,4234.358887,4205.641113,4188.717773,4212.307617,4230.256348,4165.641113,4192.820313,4203.589844,4220.0,4190.256348,4192.820313,4209.230957,4169.230957
85,4169.230957,4230.769043,4205.128418,4182.05127,4204.102539,4230.769043,4167.692383,4187.692383,4199.487305,4214.358887,4185.641113,4187.179688,4206.666504,4168.717773
86,4160.0,4228.205078,4205.128418,4171.794922,4202.05127,4229.230957,4169.230957,4183.589844,4195.897461,4204.615234,4180.512695,4185.641113,4201.025879,4166.666504
87,4158.974121,4228.717773,4205.128418,4173.333496,4203.589844,4226.666504,4166.666504,4182.563965,4192.820313,4208.205078,4180.512695,4184.102539,4201.538574,4166.666504
88,4168.205078,4232.820313,4205.128418,4183.077148,4204.102539,4229.743652,4169.743652,4189.743652,4198.461426,4216.922852,4184.615234,4184.615234,4208.717773,4167.692383
89,4168.717773,4232.307617,4205.128418,4177.436035,4202.563965,4232.820313,4173.333496,4197.436035,4203.589844,4216.410156,4184.615234,4187.692383,4214.358887,4169.230957
90,4163.589844,4230.256348,4205.128418,4171.282227,4206.153809,4230.769043,4170.256348,4199.487305,4201.025879,4215.897461,4183.589844,4189.743652,4213.846191,4174.871582
91,4174.358887,4239.487305,4203.589844,4185.641113,4214.871582,4232.307617,4173.846191,4201.025879,4207.179688,4225.641113,4193.333496,4198.461426,4216.410156,4186.666504
92,4190.256348,4250.256348,4205.128418,4197.436035,4215.897461,4235.384766,4179.487305,4203.077148,4216.922852,4235.384766,4204.615234,4214.871582,4229.743652,4198.974121
93,4189.230957,4249.743652,4207.692383,4191.794922,4213.333496,4232.307617,4175.384766,4205.128418,4214.358887,4233.846191,4207.179688,4218.461426,4234.358887,4203.077148
94,4185.641113,4243.589844,4206.666504,4186.153809,4214.358887,4229.743652,4168.717773,4198.461426,4203.077148,4219.487305,4198.461426,4205.641113,4222.563965,4197.94873
95,4185.128418,4236.410156,4206.666504,4185.128418,4213.333496,4231.794922,4171.282227,4189.230957,4200.0,4214.358887,4188.205078,4198.974121,4213.333496,4191.794922
96,4174.358887,4227.692383,4206.666504,4181.538574,4211.282227,4232.820313,4177.94873,4193.846191,4204.102539,4225.128418,4188.717773,4202.563965,4214.871582,4187.692383
97,4169.230957,4231.794922,4207.179688,4183.077148,4214.358887,4232.820313,4182.05127,4200.0,4204.615234,4226.153809,4199.487305,4205.128418,4217.94873,4187.692383
98,4184.102539,4248.717773,4206.153809,4188.205078,4215.384766,4233.333496,4183.589844,4190.769043,4197.436035,4214.358887,4200.0,4202.563965,4213.333496,4191.282227
99,4198.974121,4262.563965,4205.641113,4193.333496,4211.282227,4232.820313,4181.025879,4185.128418,4194.871582,4211.282227,4191.282227,4197.436035,4207.179688,4193.333496
100,4203.589844,4266.153809,4202.05127,4200.512695,4207.692383,4229.743652,4174.871582,4194.871582,4201.025879,4216.922852,4182.05127,4189.230957,4199.487305,4189.230957
101,4200.0,4263.589844,4204.102539,4200.0,4208.717773,4228.205078,4171.794922,4201.025879,4204.102539,4216.410156,4173.846191,4183.077148,4190.256348,4183.077148
102,4191.794922,4263.589844,4206.153809,4189.230957,4212.307617,4230.256348,4178.461426,4201.538574,4208.717773,4216.922852,4177.94873,4184.102539,4189.743652,4182.05127
103,4186.666504,4262.563965,4206.153809,4184.615234,4215.384766,4233.333496,4186.153809,4202.563965,4212.307617,4222.563965,4190.256348,4191.794922,4196.922852,4186.666504
104,4187.692383,4252.307617,4204.615234,4187.179688,4212.820313,4233.846191,4183.077148,4198.974121,4206.666504,4221.538574,4189.743652,4193.333496,4195.384766,4186.666504
105,4183.589844,4244.102539,4205.641113,4184.615234,4205.128418,4232.307617,4183.077148,4198.974121,4204.615234,4218.461426,4184.102539,4188.717773,4188.205078,4181.538574
106,4183.589844,4253.846191,4205.128418,4185.641113,4204.102539,4232.307617,4188.205078,4202.05127,4210.256348,4218.461426,4185.641113,4193.846191,4192.820313,4187.692383
107,4192.307617,4262.563965,4203.589844,4188.717773,4208.205078,4232.820313,4187.692383,4197.436035,4205.641113,4217.436035,4189.230957,4203.077148,4198.974121,4197.436035
108,4203.077148,4254.871582,4204.615234,4191.794922,4210.769043,4232.307617,4189.230957,4193.846191,4200.0,4224.102539,4195.384766,4206.153809,4201.025879,4202.05127
109,4202.05127,4249.230957,4206.153809,4195.897461,4212.307617,4232.307617,4197.94873,4199.487305,4206.153809,4231.282227,4197.94873,4205.641113,4205.128418,4205.128418
110,4188.205078,4250.256348,4205.641113,4191.282227,4209.743652,4231.282227,4197.94873,4201.025879,4205.641113,4222.05127,4188.205078,4198.461426,4198.974121,4198.461426
111,4183.077148,4248.717773,4205.128418,4182.05127,4202.563965,4227.179688,4192.307617,4196.410156,4201.025879,4212.307617,4179.487305,4187.692383,4189.743652,4184.615234
112,4182.05127,4245.641113,4204.615234,4182.05127,4200.0,4228.205078,4196.410156,4200.0,4203.077148,4218.974121,4182.05127,4185.641113,4188.205078,4180.512695
113,4174.871582,4246.153809,4204.102539,4184.615234,4202.563965,4230.256348,4203.589844,4203.589844,4205.128418,4221.025879,4185.128418,4186.666504,4187.692383,4184.615234
114,4177.94873,4248.205078,4207.692383,4186.153809,4205.641113,4226.666504,4202.563965,4200.512695,4207.692383,4216.410156,4184.615234,4189.230957,4190.256348,4185.128418
115,4186.666504,4249.230957,4208.717773,4189.743652,4208.205078,4221.538574,4199.487305,4205.128418,4215.384766,4222.05127,4188.205078,4198.461426,4198.974121,4185.128418
116,4187.692383,4250.769043,4206.666504,4190.769043,4210.769043,4225.128418,4204.102539,4213.333496,4216.922852,4231.282227,4194.871582,4204.615234,4203.077148,4190.769043
117,4192.307617,4251.794922,4205.128418,4190.769043,4214.871582,4229.743652,4213.846191,4215.897461,4216.410156,4232.307617,4200.512695,4204.615234,4203.077148,4202.05127
118,4194.358887,4249.230957,4205.641113,4190.256348,4212.820313,4226.666504,4212.307617,4213.846191,4215.384766,4223.589844,4198.461426,4204.615234,4202.563965,4202.05127
119,4185.128418,4245.641113,4203.077148,4186.666504,4208.205078,4225.128418,4202.563965,4207.179688,4209.743652,4213.846191,4187.692383,4202.05127,4198.974121,4191.794922
120,4184.102539,4245.128418,4204.102539,4183.589844,4210.256348,4227.179688,4199.487305,4200.0,4202.563965,4212.307617,4180.512695,4198.461426,4197.436035,4192.307617
121,4189.230957,4246.153809,4204.102539,4185.641113,4212.307617,4228.717773,4201.538574,4196.922852,4198.974121,4212.820313,4184.615234,4198.974121,4199.487305,4202.05127
122,4187.692383,4248.205078,4204.615234,4187.692383,4211.794922,4229.743652,4205.641113,4201.538574,4206.153809,4214.871582,4196.922852,4202.05127,4207.692383,4205.128418
123,4193.333496,4247.692383,4206.153809,4188.717773,4212.307617,4231.282227,4212.820313,4210.256348,4216.410156,4226.153809,4202.563965,4206.153809,4216.922852,4204.102539
124,4199.487305,4246.666504,4207.179688,4192.307617,4212.820313,4232.820313,4215.897461,4216.410156,4217.94873,4229.743652,4197.436035,4206.153809,4211.794922,4202.05127
125,4191.794922,4248.205078,4204.615234,4192.820313,4216.410156,4232.307617,4215.897461,4216.922852,4216.410156,4220.512695,4196.410156,4203.589844,4206.153809,4198.461426
126,4183.589844,4247.692383,4203.589844,4188.717773,4215.384766,4231.794922,4219.487305,4212.820313,4215.384766,4216.410156,4196.922852,4197.436035,4209.743652,4196.410156
127,4184.615234,4245.128418,4204.615234,4186.153809,4206.153809,4231.282227,4214.871582,4203.589844,4205.128418,4217.436035,4190.769043,4192.307617,4207.692383,4196.922852
