,AF3,F7,F3,FC5,T7,P7,O1,O2,P8,T8,FC6,F4,F8,AF4
0,4208.205078,4260.512695,4206.153809,4214.871582,4201.538574,4228.717773,4245.128418,4227.692383,4231.282227,4214.358887,4229.743652,4230.256348,4230.769043,4237.436035
1,4216.410156,4263.077148,4208.205078,4216.922852,4199.487305,4228.205078,4238.461426,4224.102539,4230.256348,4218.461426,4234.358887,4230.256348,4236.410156,4245.128418
2,4220.512695,4268.205078,4209.230957,4221.025879,4200.512695,4225.641113,4237.436035,4220.512695,4229.743652,4220.0,4232.307617,4228.205078,4229.743652,4241.025879
3,4214.358887,4267.179688,4207.692383,4221.025879,4202.563965,4221.025879,4237.94873,4217.94873,4226.666504,4217.436035,4227.692383,4227.692383,4214.358887,4229.230957
4,4213.846191,4262.05127,4206.153809,4217.436035,4199.487305,4216.922852,4233.333496,4217.94873,4223.077148,4213.846191,4229.743652,4228.205078,4213.846191,4227.692383
5,4216.410156,4258.974121,4205.641113,4215.384766,4193.333496,4218.461426,4233.333496,4217.94873,4223.077148,4213.333496,4230.769043,4228.717773,4220.0,4231.282227
6,4216.922852,4263.589844,4205.128418,4219.487305,4197.94873,4219.487305,4236.922852,4218.974121,4228.717773,4217.94873,4233.333496,4228.717773,4230.256348,4237.94873
7,4219.487305,4264.102539,4204.615234,4220.512695,4203.077148,4216.922852,4234.871582,4220.512695,4231.794922,4219.487305,4236.922852,4223.589844,4235.384766,4241.538574
8,4214.871582,4254.871582,4204.102539,4217.436035,4192.820313,4214.358887,4232.307617,4223.077148,4231.282227,4215.897461,4231.794922,4216.410156,4222.05127,4230.769043
9,4205.128418,4246.666504,4205.641113,4212.820313,4183.589844,4214.871582,4232.820313,4221.538574,4228.205078,4212.820313,4227.179688,4215.897461,4211.282227,4219.487305
10,4199.487305,4241.538574,4205.128418,4206.666504,4185.641113,4212.307617,4229.743652,4217.436035,4222.05127,4209.230957,4229.743652,4215.384766,4217.94873,4221.025879
11,4194.871582,4234.871582,4206.153809,4201.025879,4185.641113,4206.153809,4222.05127,4216.410156,4218.461426,4202.563965,4224.102539,4206.153809,4214.871582,4218.461426
12,4187.692383,4231.794922,4207.179688,4198.974121,4181.025879,4200.512695,4216.922852,4210.769043,4212.820313,4190.769043,4207.692383,4198.974121,4196.410156,4204.615234
13,4183.077148,4233.333496,4207.692383,4198.974121,4179.487305,4199.487305,4217.436035,4201.538574,4203.077148,4180.0,4200.512695,4197.94873,4186.666504,4197.436035
14,4185.641113,4232.820313,4204.615234,4202.563965,4181.025879,4201.025879,4218.461426,4201.025879,4198.461426,4182.05127,4204.102539,4199.487305,4188.205078,4203.589844
15,4192.307617,4232.820313,4205.128418,4205.128418,4182.563965,4202.563965,4218.974121,4200.512695,4201.025879,4184.615234,4205.641113,4202.563965,4189.743652,4204.615234
16,4194.871582,4234.358887,4206.153809,4203.589844,4182.563965,4202.05127,4217.436035,4189.230957,4199.487305,4175.897461,4204.615234,4203.077148,4186.666504,4198.461426
17,4193.333496,4232.820313,4207.692383,4205.641113,4182.05127,4200.0,4215.384766,4187.179688,4196.410156,4176.922852,4210.769043,4204.615234,4187.179688,4207.179688
18,4197.94873,4234.358887,4206.153809,4215.897461,4184.102539,4200.0,4217.436035,4200.0,4203.589844,4193.333496,4218.461426,4214.871582,4193.846191,4216.922852
19,4202.563965,4235.384766,4205.128418,4214.871582,4185.641113,4201.538574,4220.0,4204.102539,4212.307617,4197.94873,4217.94873,4218.461426,4191.282227,4207.179688
20,4194.358887,4229.230957,4205.641113,4203.077148,4182.563965,4200.512695,4218.461426,4198.974121,4213.846191,4187.179688,4212.820313,4206.153809,4182.563965,4196.410156
21,4184.615234,4223.589844,4206.153809,4200.0,4175.897461,4198.974121,4216.922852,4200.512695,4212.820313,4181.538574,4210.256348,4200.0,4180.0,4201.025879
22,4185.128418,4221.025879,4205.128418,4202.563965,4171.282227,4199.487305,4217.436035,4204.102539,4212.307617,4184.615234,4207.179688,4202.563965,4178.974121,4198.974121
23,4185.128418,4215.897461,4203.589844,4200.0,4176.922852,4201.538574,4217.94873,4205.128418,4213.333496,4182.05127,4201.538574,4199.487305,4170.256348,4187.179688
24,4182.563965,4214.358887,4203.589844,4196.922852,4184.615234,4198.974121,4218.974121,4204.102539,4214.871582,4176.922852,4204.102539,4204.102539,4167.692383,4191.794922
25,4185.128418,4221.538574,4205.128418,4200.512695,4182.563965,4190.256348,4215.384766,4200.512695,4211.794922,4180.0,4215.897461,4216.410156,4178.974121,4202.563965
26,4195.384766,4227.692383,4206.153809,4207.179688,4177.94873,4184.615234,4213.846191,4198.974121,4207.179688,4183.077148,4219.487305,4217.94873,4184.102539,4201.025879
27,4200.0,4229.230957,4206.153809,4213.846191,4183.077148,4187.179688,4214.358887,4200.0,4210.256348,4183.589844,4213.846191,4213.846191,4174.871582,4198.974121
28,4198.461426,4226.666504,4206.666504,4215.897461,4187.692383,4189.230957,4208.717773,4201.025879,4214.358887,4184.615234,4214.871582,4217.94873,4173.846191,4203.077148
29,4198.461426,4221.538574,4205.128418,4213.333496,4183.077148,4186.666504,4206.666504,4206.153809,4213.333496,4187.692383,4224.615234,4224.102539,4184.615234,4204.615234
30,4198.974121,4217.94873,4205.641113,4214.358887,4180.0,4187.692383,4215.384766,4215.384766,4221.538574,4197.436035,4231.282227,4230.256348,4187.692383,4203.589844
31,4202.05127,4218.461426,4207.179688,4214.358887,4185.128418,4191.794922,4216.410156,4220.0,4234.871582,4202.563965,4234.871582,4232.307617,4186.666504,4206.666504
32,4202.563965,4216.410156,4206.666504,4209.743652,4183.589844,4191.794922,4207.179688,4216.922852,4232.307617,4194.358887,4232.307617,4225.128418,4186.153809,4205.641113
33,4184.102539,4206.153809,4202.563965,4198.974121,4173.333496,4186.153809,4202.05127,4209.743652,4217.94873,4182.05127,4217.94873,4212.307617,4171.282227,4188.717773
34,4165.128418,4198.461426,4204.102539,4189.743652,4171.794922,4184.615234,4205.641113,4203.589844,4215.384766,4175.897461,4201.538574,4202.05127,4153.333496,4170.769043
35,4167.179688,4196.410156,4204.615234,4187.692383,4176.922852,4189.743652,4209.743652,4202.05127,4216.410156,4170.769043,4197.94873,4197.436035,4151.794922,4165.641113
36,4171.282227,4193.846191,4205.641113,4187.179688,4171.282227,4189.230957,4206.666504,4203.077148,4205.641113,4164.615234,4195.384766,4195.384766,4151.794922,4161.025879
37,4166.666504,4189.743652,4206.666504,4188.717773,4166.153809,4183.077148,4199.487305,4196.410156,4197.436035,4158.461426,4187.179688,4193.846191,4142.05127,4154.871582
38,4166.666504,4188.205078,4207.692383,4195.384766,4170.256348,4179.487305,4198.461426,4188.205078,4196.410156,4152.820313,4183.589844,4195.897461,4138.974121,4155.384766
39,4171.794922,4189.743652,4206.153809,4200.0,4171.794922,4177.94873,4198.974121,4183.589844,4190.769043,4149.743652,4185.641113,4196.410156,4140.512695,4155.384766
40,4177.94873,4194.871582,4205.128418,4201.025879,4170.256348,4170.769043,4196.410156,4180.512695,4189.230957,4149.230957,4189.743652,4198.461426,4141.538574,4156.410156
41,4185.128418,4200.0,4205.641113,4209.743652,4172.820313,4167.179688,4193.333496,4191.282227,4202.05127,4158.974121,4200.0,4214.871582,4148.205078,4165.128418
42,4192.820313,4204.615234,4205.128418,4219.487305,4174.358887,4175.384766,4198.974121,4213.333496,4217.436035,4171.794922,4214.358887,4232.820313,4160.0,4174.871582
43,4191.794922,4203.589844,4205.641113,4216.410156,4173.846191,4186.666504,4211.794922,4223.077148,4223.589844,4169.743652,4212.307617,4230.256348,4158.974121,4172.820313
44,4166.666504,4178.461426,4205.128418,4199.487305,4172.820313,4190.256348,4217.436035,4218.461426,4220.512695,4160.0,4189.743652,4211.282227,4130.769043,4147.692383
45,4145.128418,4154.358887,4206.666504,4178.974121,4169.743652,4187.692383,4214.358887,4213.333496,4216.410156,4156.410156,4178.461426,4195.384766,4116.922852,4125.641113
46,4147.179688,4156.922852,4207.692383,4173.846191,4163.077148,4184.102539,4213.846191,4207.692383,4215.384766,4157.94873,4189.743652,4187.692383,4137.94873,4132.820313
47,4151.794922,4166.666504,4204.615234,4179.487305,4161.025879,4182.563965,4214.358887,4204.615234,4214.358887,4162.05127,4200.0,4189.230957,4156.410156,4148.717773
48,4157.94873,4173.333496,4201.025879,4185.641113,4165.641113,4185.128418,4216.410156,4213.333496,4220.512695,4170.256348,4209.230957,4205.641113,4161.025879,4160.0
49,4173.846191,4181.538574,4204.102539,4192.820313,4169.230957,4183.077148,4215.384766,4216.410156,4228.717773,4174.358887,4218.974121,4217.436035,4165.128418,4166.153809
50,4170.769043,4177.436035,4208.205078,4193.333496,4165.128418,4172.307617,4206.153809,4204.615234,4221.025879,4168.205078,4212.307617,4208.717773,4160.512695,4160.0
51,4156.410156,4168.205078,4207.179688,4185.641113,4160.512695,4167.692383,4197.436035,4196.410156,4209.743652,4164.102539,4201.025879,4202.05127,4151.794922,4152.820313
52,4163.077148,4172.307617,4202.563965,4189.743652,4164.102539,4169.743652,4198.461426,4198.461426,4211.282227,4168.205078,4204.615234,4212.820313,4157.94873,4158.974121
53,4172.307617,4175.897461,4204.615234,4200.0,4166.666504,4170.256348,4203.077148,4205.128418,4215.384766,4165.128418,4206.666504,4215.384766,4157.94873,4160.0
54,4168.717773,4170.769043,4206.153809,4199.487305,4166.666504,4171.794922,4211.794922,4217.94873,4221.538574,4160.512695,4202.05127,4208.717773,4152.820313,4156.410156
55,4163.589844,4168.205078,4206.153809,4194.358887,4163.077148,4177.436035,4223.077148,4228.205078,4234.358887,4167.692383,4203.589844,4213.333496,4153.333496,4151.282227
56,4157.94873,4167.692383,4205.128418,4188.717773,4157.94873,4182.563965,4223.589844,4224.615234,4233.846191,4170.256348,4201.025879,4210.256348,4143.077148,4138.461426
57,4150.256348,4168.205078,4205.641113,4184.102539,4154.358887,4180.0,4216.922852,4212.307617,4221.538574,4158.461426,4194.871582,4197.94873,4133.333496,4133.333496
58,4150.256348,4168.205078,4207.179688,4189.743652,4157.436035,4174.358887,4215.384766,4205.128418,4216.922852,4152.820313,4196.922852,4203.077148,4135.384766,4137.436035
59,4161.538574,4170.256348,4207.179688,4199.487305,4163.077148,4173.333496,4215.384766,4202.05127,4215.897461,4156.410156,4200.512695,4214.358887,4138.461426,4140.0
60,4172.820313,4179.487305,4206.153809,4204.615234,4166.666504,4175.897461,4216.410156,4200.512695,4212.307617,4161.025879,4201.538574,4217.436035,4144.615234,4146.666504
61,4173.846191,4185.641113,4206.666504,4208.717773,4168.205078,4176.922852,4218.974121,4199.487305,4212.820313,4168.205078,4210.769043,4224.615234,4154.358887,4155.897461
62,4169.743652,4182.563965,4207.692383,4208.205078,4168.717773,4176.922852,4218.461426,4201.025879,4212.820313,4167.692383,4215.384766,4226.666504,4152.307617,4153.333496
63,4171.282227,4182.05127,4205.128418,4207.179688,4169.743652,4174.871582,4217.436035,4200.512695,4206.666504,4160.512695,4208.717773,4218.461426,4147.179688,4149.743652
64,4174.358887,4183.589844,4205.128418,4210.256348,4173.333496,4172.820313,4222.563965,4196.922852,4202.05127,4161.538574,4207.692383,4222.05127,4153.333496,4155.384766
65,4173.846191,4183.589844,4205.641113,4213.333496,4180.512695,4178.461426,4230.769043,4200.512695,4207.179688,4171.282227,4213.333496,4233.333496,4152.820313,4152.820313
66,4170.256348,4181.025879,4205.641113,4213.333496,4182.05127,4183.589844,4238.974121,4217.436035,4222.05127,4177.436035,4213.846191,4232.820313,4146.666504,4145.128418
67,4160.512695,4177.94873,4205.641113,4205.128418,4173.333496,4184.102539,4249.230957,4230.769043,4236.922852,4178.461426,4206.153809,4220.0,4145.128418,4137.94873
68,4145.128418,4163.589844,4207.179688,4189.743652,4167.179688,4186.153809,4250.256348,4224.615234,4233.846191,4169.743652,4188.717773,4201.538574,4129.743652,4120.0
69,4132.820313,4151.794922,4204.615234,4180.512695,4167.692383,4185.641113,4238.461426,4206.153809,4216.922852,4154.871582,4173.846191,4189.230957,4114.358887,4102.05127
70,4137.94873,4158.974121,4205.128418,4186.666504,4167.692383,4180.0,4228.717773,4197.94873,4212.820313,4156.922852,4181.538574,4193.846191,4124.102539,4107.692383
71,4154.358887,4169.743652,4205.641113,4195.384766,4169.230957,4177.94873,4229.743652,4197.94873,4219.487305,4170.256348,4195.897461,4204.615234,4138.461426,4126.153809
72,4167.692383,4177.436035,4204.102539,4201.025879,4173.333496,4180.512695,4230.769043,4188.717773,4214.871582,4171.282227,4198.974121,4213.846191,4143.077148,4136.922852
73,4173.333496,4183.589844,4202.563965,4209.743652,4176.410156,4179.487305,4227.692383,4179.487305,4208.205078,4166.153809,4207.692383,4226.666504,4150.256348,4142.563965
74,4166.153809,4178.974121,4205.128418,4214.358887,4178.461426,4177.94873,4231.794922,4188.717773,4213.333496,4169.743652,4217.94873,4237.94873,4153.846191,4143.589844
75,4166.666504,4181.025879,4206.666504,4214.871582,4180.512695,4180.0,4241.538574,4201.025879,4213.846191,4174.358887,4213.846191,4236.922852,4148.717773,4139.487305
76,4184.615234,4201.025879,4205.128418,4223.589844,4183.589844,4182.05127,4243.589844,4198.974121,4208.717773,4173.333496,4208.205078,4232.307617,4149.743652,4141.538574
77,4193.333496,4204.102539,4203.077148,4230.769043,4185.641113,4185.641113,4242.563965,4197.436035,4210.769043,4173.333496,4214.358887,4238.974121,4152.820313,4148.717773
78,4189.743652,4199.487305,4205.641113,4230.256348,4186.153809,4189.743652,4248.717773,4211.282227,4218.461426,4178.461426,4217.94873,4248.717773,4150.769043,4154.358887
79,4192.820313,4213.846191,4208.717773,4230.769043,4186.666504,4188.717773,4248.205078,4218.461426,4225.128418,4186.666504,4214.871582,4244.102539,4148.717773,4154.358887
80,4191.794922,4211.282227,4206.153809,4229.230957,4186.666504,4186.153809,4236.922852,4207.179688,4231.794922,4189.743652,4211.794922,4233.846191,4145.641113,4145.128418
81,4176.410156,4188.205078,4204.615234,4215.384766,4185.128418,4184.615234,4233.333496,4200.0,4230.769043,4183.589844,4202.563965,4226.666504,4136.410156,4130.769043
82,4167.692383,4181.538574,4206.666504,4204.102539,4183.077148,4185.128418,4229.743652,4201.538574,4220.512695,4176.410156,4194.871582,4219.487305,4125.641113,4121.538574
83,4169.230957,4186.153809,4208.205078,4207.692383,4182.563965,4191.282227,4220.512695,4199.487305,4221.538574,4174.871582,4195.897461,4215.384766,4125.641113,4124.615234
84,4170.769043,4187.179688,4203.589844,4214.871582,4185.128418,4192.307617,4220.512695,4197.94873,4228.717773,4183.077148,4200.512695,4220.512695,4137.436035,4132.820313
85,4172.820313,4188.205078,4203.077148,4216.922852,4187.179688,4189.743652,4227.692383,4200.512695,4223.589844,4187.692383,4205.128418,4225.128418,4141.025879,4132.820313
86,4172.307617,4187.179688,4204.615234,4213.333496,4185.128418,4191.794922,4226.153809,4200.512695,4212.820313,4174.358887,4199.487305,4220.512695,4128.717773,4127.179688
87,4169.743652,4185.641113,4205.128418,4210.769043,4183.589844,4191.794922,4220.512695,4196.922852,4211.282227,4163.077148,4188.205078,4215.384766,4120.512695,4123.589844
88,4169.743652,4186.153809,4202.563965,4212.820313,4184.615234,4186.153809,4217.436035,4200.0,4216.410156,4173.333496,4188.717773,4218.974121,4126.153809,4124.102539
89,4175.897461,4186.666504,4203.589844,4215.384766,4187.179688,4183.077148,4215.384766,4209.743652,4225.641113,4192.307617,4201.538574,4228.205078,4137.94873,4130.256348
90,4181.025879,4189.743652,4205.128418,4216.922852,4188.717773,4187.692383,4216.922852,4217.94873,4238.974121,4197.94873,4208.717773,4230.256348,4142.563965,4135.384766
91,4168.717773,4190.256348,4206.153809,4214.358887,4186.666504,4192.820313,4217.436035,4215.897461,4236.410156,4188.205078,4196.922852,4222.563965,4128.205078,4120.0
92,4152.307617,4184.615234,4205.641113,4206.666504,4185.641113,4197.436035,4214.871582,4206.153809,4221.538574,4175.897461,4181.025879,4213.846191,4111.794922,4101.025879
93,4158.461426,4181.538574,4206.153809,4201.538574,4189.743652,4201.025879,4215.384766,4202.05127,4222.05127,4176.922852,4189.230957,4214.358887,4122.563965,4110.769043
94,4174.358887,4186.153809,4208.205078,4205.641113,4188.717773,4202.05127,4216.410156,4208.205078,4233.846191,4194.358887,4211.282227,4225.128418,4151.282227,4135.384766
95,4177.436035,4188.205078,4207.179688,4211.794922,4187.179688,4201.538574,4216.410156,4215.897461,4237.94873,4204.102539,4219.487305,4235.897461,4167.692383,4149.743652
96,4172.820313,4182.563965,4204.102539,4208.205078,4192.820313,4200.0,4216.410156,4214.358887,4232.820313,4200.512695,4217.436035,4240.512695,4168.717773,4152.307617
97,4175.384766,4178.974121,4204.615234,4204.102539,4195.897461,4201.025879,4218.974121,4211.794922,4232.307617,4198.974121,4219.487305,4243.077148,4168.717773,4152.820313
98,4184.102539,4182.05127,4205.641113,4210.769043,4192.820313,4201.025879,4223.077148,4217.436035,4240.0,4203.589844,4223.077148,4247.692383,4170.769043,4155.897461
99,4186.666504,4185.641113,4203.077148,4213.846191,4191.282227,4201.538574,4225.128418,4220.0,4244.615234,4202.563965,4224.102539,4250.769043,4173.846191,4159.487305
100,4181.025879,4186.666504,4202.563965,4206.153809,4188.205078,4201.538574,4219.487305,4216.922852,4241.025879,4198.461426,4220.512695,4247.692383,4172.820313,4157.94873
101,4180.0,4182.05127,4203.589844,4200.512695,4184.102539,4200.0,4214.358887,4215.384766,4238.974121,4204.615234,4218.974121,4247.179688,4170.769043,4155.384766
102,4182.05127,4173.846191,4205.128418,4200.512695,4191.282227,4199.487305,4215.897461,4218.461426,4245.128418,4216.410156,4223.077148,4245.641113,4172.820313,4157.436035
103,4174.871582,4168.205078,4206.666504,4199.487305,4197.94873,4200.512695,4211.282227,4219.487305,4249.230957,4217.94873,4223.077148,4239.487305,4172.307617,4153.333496
104,4163.589844,4169.743652,4207.692383,4195.897461,4192.820313,4201.538574,4203.077148,4213.333496,4244.102539,4210.256348,4216.410156,4231.794922,4167.179688,4143.077148
105,4154.871582,4169.743652,4205.128418,4188.205078,4186.153809,4200.512695,4196.922852,4201.538574,4234.358887,4201.538574,4203.589844,4222.563965,4154.871582,4131.282227
106,4152.820313,4164.102539,4207.179688,4181.025879,4185.641113,4203.077148,4196.410156,4195.897461,4227.692383,4190.769043,4189.230957,4212.307617,4141.538574,4123.589844
107,4146.153809,4154.871582,4207.692383,4181.538574,4186.666504,4213.333496,4209.743652,4202.563965,4230.769043,4187.179688,4185.128418,4212.307617,4137.94873,4116.922852
108,4132.820313,4149.743652,4205.641113,4180.512695,4186.666504,4220.0,4221.025879,4205.128418,4229.743652,4188.717773,4186.153809,4215.897461,4134.358887,4107.692383
109,4139.487305,4159.487305,4204.615234,4181.025879,4190.769043,4215.384766,4217.436035,4200.0,4217.94873,4184.615234,4184.102539,4211.794922,4130.256348,4109.230957
110,4160.512695,4175.384766,4206.153809,4190.256348,4191.794922,4209.230957,4214.871582,4196.922852,4213.333496,4182.563965,4182.563965,4212.307617,4132.820313,4118.461426
111,4165.641113,4182.05127,4204.102539,4193.846191,4189.743652,4208.717773,4215.384766,4196.922852,4215.897461,4184.102539,4186.666504,4217.436035,4136.410156,4121.538574
112,4163.589844,4184.102539,4203.589844,4188.205078,4192.820313,4208.205078,4207.692383,4200.0,4217.94873,4188.717773,4189.230957,4216.410156,4136.922852,4120.0
113,4169.743652,4184.615234,4205.641113,4185.641113,4195.897461,4206.666504,4201.025879,4198.974121,4220.512695,4198.461426,4188.205078,4214.871582,4137.94873,4123.077148
114,4169.230957,4181.538574,4206.153809,4186.153809,4192.307617,4201.538574,4194.871582,4189.230957,4221.538574,4201.025879,4188.205078,4216.410156,4141.025879,4127.692383
115,4168.205078,4182.05127,4204.102539,4186.153809,4191.794922,4198.974121,4187.692383,4178.974121,4214.871582,4192.820313,4190.769043,4218.461426,4145.128418,4132.307617
116,4178.974121,4191.282227,4202.563965,4194.871582,4199.487305,4209.230957,4192.820313,4183.077148,4217.436035,4195.384766,4195.897461,4229.230957,4155.384766,4144.615234
117,4188.205078,4195.897461,4203.589844,4205.128418,4202.563965,4218.461426,4205.641113,4197.436035,4231.794922,4205.128418,4205.128418,4243.589844,4163.077148,4156.922852
118,4186.666504,4187.179688,4204.102539,4200.0,4199.487305,4217.94873,4213.333496,4204.102539,4230.769043,4203.077148,4206.666504,4241.538574,4160.0,4152.820313
119,4183.589844,4182.05127,4205.128418,4193.333496,4200.0,4217.94873,4218.974121,4201.538574,4218.461426,4195.384766,4190.769043,4231.282227,4152.820313,4141.538574
120,4185.641113,4190.769043,4205.641113,4197.94873,4201.538574,4220.512695,4218.461426,4201.025879,4215.897461,4190.769043,4183.589844,4231.282227,4150.256348,4140.512695
121,4189.743652,4200.0,4205.128418,4204.615234,4201.538574,4217.94873,4215.384766,4198.461426,4217.94873,4188.205078,4194.358887,4235.384766,4153.333496,4142.563965
122,4196.410156,4199.487305,4204.102539,4206.666504,4202.05127,4216.410156,4214.871582,4189.230957,4214.871582,4193.846191,4200.512695,4234.871582,4162.05127,4144.102539
123,4202.05127,4199.487305,4206.666504,4205.128418,4203.589844,4217.436035,4206.153809,4184.615234,4214.358887,4197.94873,4198.974121,4232.307617,4172.307617,4153.846191
124,4194.871582,4204.102539,4206.153809,4202.05127,4202.05127,4212.820313,4196.410156,4192.820313,4223.589844,4195.897461,4196.922852,4228.205078,4172.820313,4155.897461
125,4186.153809,4198.461426,4204.615234,4194.358887,4198.974121,4211.794922,4197.436035,4201.538574,4231.282227,4198.974121,4192.307617,4223.077148,4167.692383,4143.589844
126,4184.615234,4186.666504,4204.102539,4188.717773,4200.512695,4216.922852,4198.461426,4200.0,4226.153809,4203.589844,4187.692383,4218.974121,4165.128418,4136.922852
127,4182.563965,4187.179688,4204.615234,4190.256348,4200.512695,4216.410156,4194.871582,4187.692383,4213.846191,4196.410156,4186.666504,4215.897461,4160.512695,4136.410156
