,AF3,F7,F3,FC5,T7,P7,O1,O2,P8,T8,FC6,F4,F8,AF4
0,0.026821016213093424,0.06147816058664059,-0.018468892320130933,-0.011017534554588761,-0.016335435528499278,-0.05331854747723504,-0.07978924985644233,-0.08658635153604302,-0.1262383301840559,-0.0520645519804773,-0.02140527000908808,-0.021123873528041938,0.019722909503968447,0.028744332028017218
1,-1.2118245190538717,-0.040963812668803744,3.958537242901812,-0.5073171806342462,1.6290996387299916,-2.051018002189801,-5.970710770980382,-2.882590772685171,-2.7959072197747057,-1.805969853184161,-3.1733196395048417,0.688018104904542,0.6778718041101361,4.097491356397943
2,-1.454137542251008,0.9078488082497337,2.752194712115714,-0.31321413801100056,3.1408017593277218,-1.2092378006041904,-6.661944502261632,-4.828661673123326,-2.9606832749876193,-1.9709119621132654,-2.3736385557168926,0.692029455281714,-0.0172996471858771,1.2321102816395002
3,-1.0536844935811822,1.593513775961795,-1.3092883854700732,0.04928015591852015,1.8587202381135963,1.311830944874546,-2.2163068073661947,-4.427434560751604,-2.2594204683193806,-1.1212246184472632,0.6883284139941942,0.022424167509128942,-1.7624468437116956,-5.004803506872244
4,-0.6852829018602541,0.18109380680193515,-2.4677884188841874,-0.17145151095998426,-2.4885097271537453,2.1548886554793274,2.851347365083248,-1.0917329881854314,-2.5098236991892224,-0.6167019263193191,1.4842776459099847,-0.7395069390114332,-2.7085201358540116,-5.928572310081405
5,-0.0740979381287139,-2.427878700037221,-0.2746290652465686,-0.547721043851824,-4.738273695370239,0.31598366176721715,4.451121073658159,3.2389954480349017,-1.3161867662934195,-0.2752683300333483,-0.5017383169437626,-1.1005939522263042,-1.4390093501862824,-0.1916450403071004
6,0.8764289607606217,-3.331295399305407,0.671453215058348,-0.2889258855307896,-1.5128984892203756,-2.0626498943048475,2.0742028246151833,5.310719342018233,3.4555767448409886,0.82008167872503,-1.4722099218355718,-1.0233105434743544,1.2057005912500607,5.097952867172344
7,1.0676839514349792,-1.3301090450507205,-1.3700422030131223,0.2630383972993611,2.6607159511567224,-2.639786103047105,-1.5340218128658762,3.5186016577342785,7.682517356514268,2.1043288254199095,0.3370977246460612,-0.8630364770969955,2.943123399151377,4.697448599220733
8,0.1997887384366165,1.8712924856669788,-2.5348941219331143,0.4050905576609059,2.306418602886737,-0.7866440226754904,-2.60517187056859,-0.4710120444658551,5.45981965325273,2.194554656230513,2.1896235179209933,-0.6864898949060699,2.7242303221351234,1.1720397033167322
9,0.2543112197439453,3.9943915826967675,0.5457266349398711,0.6213512949243355,-0.05873804486679217,2.5111552499517167,0.34898910643993597,-3.090729363160073,-1.776170474636558,1.180245581232778,1.7580557317534191,0.36929348553896957,1.5267341233288105,-0.6133916296484039
10,2.2921324837046435,4.004192568142394,5.339875505875278,1.517325018582576,1.05679151775908,4.707775193122608,4.172626579513907,-2.3331218238754743,-6.59547617460233,0.11881965410018115,0.4519192337247418,3.07660328332114,0.27554132132758197,-0.5873694210633145
11,3.1835741746196575,1.733144161727374,6.062578666428117,1.767648960913941,3.613658043360425,2.8655186469898424,3.6147285254927124,0.07457035529873815,-5.641761879245107,-1.1657653287037386,-0.06142996795292065,5.8749794941026865,-1.3795818747659125,-1.8519949029495086
12,-0.6778323840458761,-2.236398181058382,0.4794793780586427,-0.46881507960768976,0.9727047513967714,-2.7163739603759467,-2.2123445334802962,0.7630862589265369,-2.492016224874165,-3.2675776748304495,-0.9893066229824783,4.8918327195336335,-3.373018440689551,-4.178317309570916
13,-6.793149547434242,-5.691496008231865,-7.0772507958983235,-3.932917430534922,-5.95965194832281,-6.9783458192445,-7.548327679842054,-0.9450013956916463,-0.3376745592304603,-4.516464861098636,-3.329443178650863,-1.8954457907991937,-4.047139296223583,-3.525395684925129
14,-7.928070686154711,-5.636610321613985,-9.43824899730873,-4.621022864184746,-8.153826664022889,-5.026323721827683,-6.167797736711516,-2.1138987005837206,1.967925388743765,-2.168902017767582,-4.440806146073723,-10.3621089599183,-2.142185843856418,1.2871982505200912
15,-1.2216527935511148,-1.4252691065874514,-3.6641818550764427,-0.8628805281886269,-1.5026752617205505,1.7135095357897645,1.168272529008423,-0.23534662823960872,5.1036163864196835,3.0462032877752723,-1.1509660162501207,-12.317549700984365,1.2193527231790433,5.322770441724404
16,7.419734075106112,3.8359515989178274,5.3916496304877635,3.9964908765524125,6.721333202111485,6.730887620837786,7.452367462872875,3.097434381629483,6.184391317460671,6.388289522911824,4.79199622349444,-3.9899373188046847,3.8455949533266414,3.785459303396303
17,9.867164347058644,6.141805945079726,9.56095484737314,5.513887633467011,7.7496636511565296,5.764731745016537,7.192422555081626,3.9439614914114425,3.122345952305877,4.620001631587023,7.52424213276736,8.511506534899016,4.681876558598422,-0.9379986818105683
18,4.499539368670766,4.319802733821427,5.8056855731047605,3.120011640585609,2.3608008678540293,0.7567158832016574,1.629731255736031,0.9939193246813861,-1.86867223067524,-0.038801923269067874,3.8174864867358878,14.691440668186564,3.628011034366074,-2.5215548841366964
19,-3.2210420133828874,0.37395345995927026,-1.1338315198388407,-0.46954384752883327,-2.2533290400273627,-3.505634194174203,-3.747522947535849,-2.7309184411117755,-5.412458528279796,-3.1691254908372652,-2.921455853321787,10.288649319990682,0.6666200488804054,0.11503508371043716
20,-7.101193149664608,-2.8593839744193152,-4.898567208102703,-3.1579077842293395,-2.9643540813047338,-4.4684459066749875,-5.121828039908954,-3.599839944623513,-6.519667338615915,-3.533708228717829,-6.474423221375651,0.14049273627591868,-3.242664634977663,1.7532839501834414
21,-5.448894777877826,-3.711359031489292,-4.227093355878128,-4.512832087588136,-2.7116492845498996,-2.9019437874120513,-3.072342684129325,-1.5844444397053683,-5.283675522740925,-3.0203705477874343,-4.578615180053118,-8.453018382336232,-5.668234161065444,-0.5707345618804869
22,-1.169479272260213,-2.4789839547722035,-2.2870420277060712,-4.034146239305247,-3.443655660803521,-0.6612139275819797,-0.4862321624968539,0.4762215024560405,-1.1535078023372056,-2.53572020313826,-0.4699088322542003,-11.619753849459133,-4.865734827070323,-3.2875031258942866
23,1.7242294741639914,-0.9887482521951418,-1.364771325906521,-1.102589836321883,-2.6503785255259737,1.2913320984342178,0.9966415216703736,1.127923014128969,5.135724930230213,-0.7922292840839706,1.878322786500734,-8.810020700373846,-1.681258307987981,-2.6057191538748206
24,1.8770213077560673,-0.5117239871533792,-0.6256271546100878,3.1318919926783697,1.5689325766387419,2.8878370515767458,1.9313758685290938,1.6565481175874277,9.837097253997188,2.696859624283413,2.0551240652399247,-1.5740956992304267,1.8078829853448435,-0.05934304275457945
25,1.276776863856633,-0.047270886006139406,1.4070443122421032,5.671247073007551,5.903632722936438,3.7357082817085727,2.8482621445326406,2.672919050140985,8.742774061377768,5.682977878797664,2.0222042683503987,6.16692583137183,4.397825709571853,1.389251894256942
26,1.99276800558628,1.9899870718385255,4.195252258520092,4.364131805190526,5.421713076433863,2.642777694059328,2.6407473681249636,2.0312993252472067,1.354419230324569,5.311336299830799,2.4388326549005286,9.946225773486262,5.492605546061669,2.248235676415758
27,3.107970207733094,4.599388867048139,5.466645714698174,0.21226266662959495,0.25785557391469055,-0.9077344049205317,0.3710359711186439,-1.5775546710078434,-7.95155601770593,1.248599507093949,1.9923031974358678,8.348836766411777,4.262440977178869,3.6260688102008527
28,2.189334423280901,4.67150512312007,3.3428739776561884,-3.4514274939818503,-4.251537467213303,-4.932670935422577,-2.5308402291172625,-5.028448129151609,-12.63382053325972,-3.914422806121292,-0.1619883085288337,3.143849064719976,0.5836968087389384,3.3704111810523165
29,-1.037965961989501,0.8981571167508496,-1.7549168671558588,-4.130769983391073,-4.100481136837821,-5.770354956483349,-3.6770874904750883,-4.073246909285587,-8.65853036997789,-6.74142583900822,-2.8756429276150457,-3.4945366246452947,-3.9177502342546475,-0.43711059261675134
30,-4.236843421973474,-4.35845349635025,-6.681032714618522,-2.32998791723212,-0.9076466534516039,-1.6655554031408268,-2.5320009950068156,0.6974082776436201,1.7422557493743178,-5.277660757467599,-4.18976755548564,-9.155451343316377,-6.681171368911741,-4.8687044173508855
31,-5.169134956326872,-7.241459480990399,-7.559401534294646,-0.3439533592406522,1.1118047961936852,4.598587245758717,-0.24169788698063766,4.4093338334214565,10.77656016868437,-0.41745528381263364,-3.216246060817272,-10.046140887959568,-5.8529817762976615,-5.429874925634994
32,-3.32983883836535,-5.421025806895591,-3.305886050740493,0.6768365678115007,0.5905139866260727,7.470585028901888,2.1991091969580747,4.022283299632606,11.3043801819791,4.383690087524708,-0.5415457320191109,-4.148970002720938,-1.5225145924928496,-2.2457425521091863
33,0.49906481489449867,0.3204733094120446,3.0117937195268367,1.4872338320849985,-0.23761823279701447,3.8409426193413894,3.8776595221466437,1.104130264577753,3.5069388913274233,5.619719294269493,2.5577090018542217,4.6791003320590505,3.771627610747322,0.9388968699288555
34,4.610302774667116,6.0885523942891195,7.055823606018763,2.5991911187471777,0.5589399121358222,-3.4214902464945673,3.386323698580476,-1.2195609545996005,-5.239013699734915,2.90191734678061,4.669843525947409,9.729389034931273,6.4920776813202075,2.647034906127813
35,6.5266749835665445,7.3678301231774554,6.931903269291601,2.8256683466037527,1.9394557879394756,-7.841650111068424,0.4000865525899152,-1.6134276567641619,-7.773853163181575,-0.6706109062080885,4.508638890253844,8.393124892131235,5.293719624163808,4.322626471032977
36,4.457733007304677,3.2552976179968622,3.4462950066723064,0.9357438615536778,1.7326442210260122,-5.6001627467678885,-3.0085370269640004,-0.9506591651808148,-3.902108757478835,-1.9670745093711814,1.69721005203102,2.9447051661686205,1.9897031805437704,5.344033420417229
37,-0.7931383276435396,-2.3382194650929238,-1.8600005658526917,-2.0960152823593203,-0.20303314776739798,1.0555863586568457,-4.307706422178043,-1.123762105432038,0.7025292845769999,-1.3020514165092738,-2.4727607781276237,-3.85815976599139,-1.45535149098108,2.2483836831405863
38,-5.8444806403006,-4.89655865908515,-6.972868262587638,-3.718625423188072,-1.9457745525359964,6.571491979791557,-3.031294799465558,-2.857675902651181,1.5013885001912275,-1.3709858246143085,-5.581741557728656,-9.429729343700732,-4.833479146095496,-4.860046643678785
39,-6.982546463910669,-3.746723593826412,-8.575187690708004,-2.5493147008879973,-2.0287615324825032,7.152099757591678,-0.3228322431896175,-3.6319701470829076,-0.2379546279976622,-2.741690969454958,-5.565726727378424,-9.473507435182421,-7.064022283300629,-9.176108320425925
40,-3.014467409391468,-1.2969562616381392,-4.1062052109966904,0.2701700382779826,-0.7061488580981035,2.978608607926944,2.649836869438332,0.1527648224152283,-0.15281797506786077,-2.470246913770336,-1.9646000224881262,-1.7537961303422116,-4.861336863440314,-4.881284196580429
41,3.120284678276649,0.5887444538649192,4.115745605389466,2.4168892293708133,0.9164880080964208,-2.9302267026108404,4.494451082495054,7.028111464086231,2.7764165211595646,1.2335326190317335,3.3272843726424526,8.124921866732358,2.33924864971292,4.08542393559334
42,6.110558007182985,1.766137120579781,9.232903735419994,2.52991823614468,1.7001170693337864,-6.95160731968386,3.493119320453556,9.485315683076584,4.524888750190865,5.019144536574268,6.5779215252759755,10.730740135321676,8.558758151538813,8.06301758853692
43,3.4797930737100358,2.4263456591011607,6.685345056444646,0.9743847066957415,0.780384387176322,-6.87022450033894,-0.22367650718012308,2.9112343035740196,1.824942017719842,4.26669978877522,5.129129759806772,4.076707801695187,7.1946643593581525,3.908592837785288
44,-1.2359264794360063,2.2694045842683925,-0.4870671468426496,-0.9413048843106877,-1.3745383204538235,-2.9387715237500895,-3.5244843783844857,-6.874544755597633,-2.609339299519461,-0.18441802125171725,0.3168547747681822,-4.053823173284538,-0.21397225189632296,-2.0775606473834602
45,-2.754613774258804,0.922472112890935,-5.384560579267183,-1.9692779412536758,-2.370140715342564,2.6773309171530406,-3.5183028687636035,-9.949671210698316,-3.787045302924284,-3.1411966625472005,-3.8762341682362593,-6.521616041793814,-5.7386210234529935,-3.7769807652146636
46,-0.9000069701067452,-1.3696994325548784,-5.103462781296228,-1.4211847597517377,-0.21332896451465813,7.24126316459822,-1.2134705501625753,-4.797133394588043,-1.8265491770175064,-2.511842445766883,-5.046077979802229,-4.4345786030902765,-5.110362634240448,-2.0730751916112684
47,0.150667019097768,-3.1706860472706797,-2.2558233436841837,0.3739061783350947,3.394043436162277,8.248400238886145,0.2846270733933008,1.1399100370229376,-1.0504815351655739,-1.174310756127522,-3.60671821756103,-2.049309163994489,-1.4117867790918102,-0.44579562035695064
48,-0.9595803720358342,-2.532448583637481,0.16353866046391524,1.8594513097800465,4.041953200196844,4.333049636802498,0.43641151301357933,2.925865140561258,-2.1933137908744293,-1.08404192934082,-0.6161058463067135,0.4191526600288576,1.177577376633398,0.5530185403559531
49,-1.0531600629793902,0.4738607239098831,1.8354439505554625,1.5021169471913824,0.06195168560953252,-2.9657743421288574,1.2453073664656864,3.403010529357214,-1.1258474136431882,-0.41744975513263677,2.907497282933058,4.315151779217314,2.257765164864441,1.4333989976332508
50,1.2827445014114058,2.8121794998913,3.05165073072839,-0.24663755802744214,-4.563315366703796,-8.843321278059713,2.885571797303407,5.442317641646263,3.600752684103218,2.003504829458625,4.919250660283926,6.833431079974183,2.6673414613408744,1.1883578256839649
51,2.7106302667828768,2.0630648597920143,2.989262566465304,-1.3008997030922564,-4.6113984919027535,-8.647626939882693,2.821411925901612,5.810252761776543,7.380829170041887,3.82409566292292,3.6025277831438007,3.8606218998974824,1.6806053894204855,-0.06252637542513792
52,0.6654486138839493,-0.19495776489903177,1.1277956936936262,-0.8249242976266509,-0.19956253819206957,-2.5146625277200565,0.014968734490928465,0.9526402462111889,5.761384720303595,2.68100454730179,-0.07586379920680911,-2.8099913232141724,-0.8869352482613211,-0.0666419420481937
53,-2.3451774452761294,-1.0961204882901987,-1.5842356234175397,-0.33553399716404314,3.3018621223485005,4.259848061013199,-3.1101808014249244,-5.975874531787315,-0.2827156279608981,-0.6220009479149436,-3.213259337304996,-6.677643353595008,-2.8770738846354837,0.9372938869407753
54,-2.6528630497229426,-0.9412789017624628,-3.6152317214143896,-0.9073790149702637,2.2367694843952166,6.378391578858211,-3.992608337334793,-8.779016170122835,-6.687658420399638,-3.801645224091251,-4.173679313561834,-5.014649526533971,-2.399946251554723,-0.5926763875998818
55,-0.4199382451812183,-1.5037608067167691,-3.6973929778357357,-0.979799132995937,-0.7629677970103788,3.82291343993054,-2.543688430075468,-5.989934952963484,-9.800464688002045,-5.048614327725773,-3.1414336990504155,-1.2905823711289626,-0.283304508861665,-4.304577978255575
56,1.7734739620914222,-1.5739288414233432,-1.1358259418884429,1.1172166462868125,-0.8237042569759657,0.9762618434195663,0.2850675256623155,-0.7755169475015234,-6.979431914426933,-2.7958136779663265,-0.3999763373397265,1.3300977945677066,1.6364676185454012,-3.681345722681453
57,2.68681175310358,1.2273875363151223,3.0720130985465794,3.6646378577860723,2.122877726292767,0.4896490121351148,3.548076163203691,4.362878748243962,1.3695118901716097,2.7893183027440633,3.3983567356572815,3.694005403210467,2.7803279945750066,3.833386733710909
58,2.382979087982823,4.879019280379083,5.707861676229045,3.152717326687737,3.1804097852301045,0.1330856591335255,5.103238549988882,8.291026217158633,9.399570554666722,7.331928928248389,5.709998248754733,6.116794316426243,2.928746649054048,9.738738887125814
59,0.5749787273684638,4.1534418851320645,3.8465660766061314,-0.7744101835168851,-0.4416060918088478,-2.6880311221938893,2.668208448795628,8.498172425911145,10.310000959851068,5.506339923692109,3.8029564032935737,5.293535196883445,1.0300932582033544,4.785731407236944
60,-2.493677942867056,-1.781025551034443,-1.6124059100114216,-4.33702092115166,-5.03802578328865,-5.663375526556399,-2.4864247552635823,2.8744485883304023,4.322816589084631,-1.6430189198307268,-1.3910971914795893,-0.5625711713045257,-2.9114957912297124,-6.8012199785291525
61,-4.731450949627124,-7.0433957825218085,-6.122617171198028,-4.1914326336860785,-5.062793653454887,-4.394163204339604,-5.6600515638787385,-5.602383362965433,-2.17725560802782,-6.73482826412393,-5.497869324565903,-7.026998472691732,-5.919703237692751,-11.61665614214376
62,-3.891542215341667,-6.077990542269876,-5.797806509561875,-1.125665586056532,-0.4561071909787337,0.6904555256457221,-3.9861262222700375,-10.160100044717352,-5.5785478402881115,-5.345935286852371,-5.598279788755263,-8.154348935751107,-4.519950566643501,-4.8420555657759365
63,-0.1418771604516965,-0.12169908050271741,-1.0383844068154735,1.779865323006431,3.6246248519971034,4.5236868876755745,0.5815779048085408,-7.359738541832957,-7.472353409842049,-0.9483678046102757,-2.6675481600319517,-3.7764501029105415,0.8981698188063716,4.543492367598546
64,4.168308369488159,5.2488251821131255,4.23642794502066,3.0506088504755864,3.9372297218203056,4.430568279247628,4.29265908896436,-0.3259841211252771,-7.681896051148701,1.7959041547340715,1.4058909005581397,1.6299446340300743,6.030697509220234,7.539289552937938
65,6.4741631924261,6.6221126379336,6.214815217746157,3.2180237904963507,2.4624466276639234,2.604937845756954,5.051784339429839,5.478991370637895,-2.405861962712264,3.4190669792686066,5.72057786051482,5.285234577863665,7.019712684034822,5.505986537502027
66,4.999792122829708,4.35942263931774,3.8310042922698146,2.365748364439458,1.6000659359946274,1.036658734080949,2.2659094104234683,7.041137196129731,7.253575297704321,5.236847487071094,7.7637096238488565,7.060156995526181,3.4279650755773075,3.0688988564392363
67,-0.36636670719954717,-0.21916764662754545,-1.0354391142594843,-0.27345785458591004,-0.028651216162378812,-1.2813066506336281,-3.2140562036533327,4.3114939996253705,11.938029107039057,3.952154343275174,3.667099727648995,5.882491613214562,-2.4400100018320163,-0.7018936122419943
68,-6.475461479641934,-5.4016349415201,-4.8558703045138945,-3.8271875600062777,-3.880598256452505,-4.3385056711784165,-7.32079435705456,-0.6652703853068506,5.467262734107622,-2.671389985110381,-5.107322622372133,0.5327594977401289,-6.903247979595636,-6.879096382941753
69,-8.038990213084567,-7.504252499358128,-4.722035415257538,-5.081627142790067,-6.573124715017452,-4.875610609019481,-4.815692836087885,-4.105825622628867,-4.98244771992154,-8.44426037758431,-9.761644265745668,-6.057726977905917,-6.359794737331605,-9.339017834856714
70,-3.145650467352142,-3.5018591999243167,-0.9831465677591525,-2.070351376240702,-3.5087932075486963,-1.3038608760477444,3.56586055387429,-3.0115637211163273,-7.429197000882231,-5.318751997200631,-4.552197941118346,-8.233639526751048,-0.7593577392534776,-2.6171560745062
71,3.4270091481080205,3.5166204543102664,2.5754270688089704,2.6368339390228708,3.459442371679383,2.6843007323084205,9.179245621619279,0.9544902465816854,-1.215877596185845,3.9032844615636977,4.116399823728846,-4.470435587093158,4.484194283272758,6.8245617907306935
72,5.507957325402946,6.150878190725959,2.7238110923421823,4.400129204438195,7.055005585318715,3.1550766661518828,5.197357086417377,2.433556583055968,3.3076367936869846,7.851255909236005,5.7512627232567315,0.8970645006918468,3.9257010081208383,7.748941469737533
73,3.1660147427901624,2.270303816440159,0.5851864234345058,2.1758829780448563,4.0225822994905505,1.703454935164517,-3.8479608851612555,-0.9375389846439964,0.40970524978119804,2.3084438823036337,0.5150134325787056,3.7219481318899175,-0.36412759358973557,0.768261601639399
74,1.2162750192357217,-1.8345150064936382,-0.38865701248576673,-0.5501546547433808,-1.0566954502186199,1.8498871689830199,-7.477693479167442,-4.830052937894388,-4.228260595607842,-4.459627655674416,-2.180770365266881,4.162066871911094,-1.348086059598809,-3.149910477472366
75,1.0301986792065918,-0.9699507058313072,0.44069823067596225,-0.9885730775354782,-2.907819734608202,2.2230672678975973,-2.992722375612086,-3.579260908609286,-3.848332465541756,-4.450542848595994,1.047647353847368,3.6146222137856303,2.2226696070423873,-0.4355457094993484
76,-0.711619518338838,1.4377893816349918,0.5522994342565295,-0.5046596052665351,-2.0283901178098023,-0.9458001193331763,2.2613464106347143,2.225543573975948,0.3244184148119049,-0.25749404301126444,3.0901746133120733,1.6344411336323548,3.574953809026569,0.9284522781916639
77,-4.548477655196071,0.023366321839845813,-1.0434015630413456,-1.2769609729922233,-1.5502099855448215,-5.7836921914744215,2.422232848857205,6.415258241420684,3.771938494104486,1.635265997349822,-0.7736277470891582,-1.635071769293608,-1.1469491253377129,-2.8985652323209417
78,-5.651279197187487,-3.179475806769065,-2.0355174189505467,-2.183126998083108,-1.6321884139805476,-5.897606938926398,0.19077933644682593,5.027360820242098,5.486346721961521,1.2111108854310038,-4.63429495701524,-3.3994978104646782,-5.971697388274741,-4.354607154335845
79,-1.3052328753895925,-2.512399551274546,-0.6697831844621677,-0.8688614382262773,-0.4492920369579345,-0.18062514198699137,0.2266222291366678,0.41895880873524477,5.568348574842686,2.24511158819204,-1.8290042617625994,-1.88253646682967,-3.84775468840217,1.530482610259902
80,4.111213008917596,1.5169000484269395,1.4503663208051183,1.8060999684253414,1.7515777357118487,4.912480297802174,1.5824126679499089,-2.8823665593369934,1.9165141866142112,3.6744277662658646,3.8257709187154045,0.35145000811692445,2.5722590312177886,6.944954784420883
81,5.1047580434656625,3.2327555998279474,1.8607349286847286,2.671956170780476,2.923195969795936,4.715289207456078,0.8251179230476734,-3.58404574369484,-5.207977149242314,1.0507453075536828,3.7854267799353356,0.08148690744229711,4.91657045187675,3.3606869428410073
82,2.142339529333866,0.9307719416482316,0.4115091328850839,0.9489718363346915,2.2716863922569153,1.9762841865940717,-1.3959168019549983,-3.2313830116181554,-9.6719834314547,-4.834251843434957,-2.1091956876605864,-1.5045401833972718,1.024316814575476,-4.509200043418694
83,-0.714344372454277,-1.5151007300308117,-1.3060668498065306,-0.8983327990133696,0.61271219829344,0.5697149078817795,-1.5633693748796242,-2.411836606002935,-6.241441067186752,-7.474698502634976,-5.6868075369023545,-0.9656079992752734,-3.222783176373661,-6.210149862954391
84,-1.9129001495722253,-1.5698036740038104,-1.8911968676312125,-1.001126876483419,-1.3214120215421876,-0.5745094809099454,0.7199997403311521,-0.07961436912048678,1.8092845420307302,-3.440342508525926,-2.4389215585777233,1.6157328237920483,-2.930246279343407,-1.2267878938676886
85,-2.4137516713129568,-0.7245044632263786,-0.6895259397554463,-0.2799069989245078,-2.921732421801955,-3.3954140613102166,1.856188687779973,3.3494465100290913,6.644302162602886,3.290697389736741,3.2218904363821617,2.8314525273651405,0.4486179873845374,2.5604306971748416
86,-2.157538962541544,-0.15952815379306293,1.593606366571103,-0.2769770641345624,-2.9255427329077044,-5.307872350575621,-0.5846173020888007,4.69411195300469,5.361521196044347,6.844186524491489,5.333004737919321,1.35102033116423,3.033667282841272,2.299698807398276
87,-0.42200453085346606,1.120125654523866,2.4332371666892256,-0.7529241290604941,-0.6539369092684449,-2.7491318173402948,-4.1122789178556465,1.745022023777632,1.4870719249325934,5.509991956874499,3.3306782977514198,-0.4911769456851496,3.2581770360040867,2.033102411297313
88,1.7059634159713524,2.8629811706257327,0.1941233991022292,-0.48121467251109634,2.253408373949198,2.52289636621564,-3.8073489405663885,-2.646273943687744,-1.0618534151585448,1.3385231300705465,-0.06710756422128185,-0.6747580315357243,1.5405085076767187,2.851373644121813
89,2.396434477626995,2.455635696314455,-2.467446348703873,0.6481244954540569,3.075492202242534,5.161161631633626,1.6405738874606253,-3.1020231730224506,-1.4584576171595047,-2.9247555488415857,-3.089715125897077,0.017430244175239168,-1.362660044416024,1.0569171022026715
90,1.6375582156249762,-1.0411969670641001,-1.406627287328041,1.4207893482166116,1.1759927251043933,3.2265253849734847,7.224161439630532,0.9414617592565662,-0.6423187901337711,-5.06393438189571,-4.568471578163147,-0.003799557764495004,-3.991267252315364,-3.3883055891752183
91,0.39642569830529817,-4.4889712146672265,2.2086495160530717,0.9188256744444104,-1.2016344942973014,-0.09887066797356121,6.408118117211122,3.5695277372801844,-0.10095636522224663,-3.998548750348214,-3.170414942800688,-1.064314066312708,-4.272411047149203,-5.274931813910163
92,-1.2882045958406483,-4.1842315462531126,2.505849622070127,-0.3548092720645016,-1.557830517148999,-1.5118478385669591,-0.9447514425043047,0.39290323983235154,-1.2697685782135084,-0.7385065556378708,0.3953234547499895,-2.4322052373913063,-1.5399428699883977,-2.502770763563469
93,-2.953480370203007,-0.2860026197142909,-1.8609435845122533,-1.0870210597758114,0.08481387115075223,-1.223183114957462,-7.4069771764539185,-4.671245686318056,-3.373679926936653,2.2805853552298685,3.0945402341231882,-2.6195507567086818,2.4196784168264074,1.2493752431156007
94,-2.3864826742085286,3.6509825834285756,-4.3931976544972695,-0.6549720890624078,1.2753438685201404,-1.060090230033049,-6.439229952040269,-4.596535938240524,-3.021198385535473,3.2511128222378165,3.2381000950529715,-0.054286222259733424,4.866226558575033,3.196403096508484
95,1.1369379862137465,4.524602483381888,-0.44290399994328183,0.1958512104780847,0.044388065024870235,-1.39973613913501,-0.17274082500141724,0.621537527905275,1.2009544307558282,1.8678100171935528,1.9306849442378762,4.198418037795258,4.025668969275663,3.789632388590687
96,3.964031305671916,2.1000344615685207,4.769824886845619,0.35507975308722123,-2.2912356476018623,-1.2393512977573333,4.03958738039739,4.252881954762905,5.313136149155746,-0.8294815306833399,0.16882168318140153,5.689567567247026,0.16296288308681206,2.3266071525376204
97,2.282955250935406,-1.3810033686060514,3.5961413006530005,-0.16399115208850265,-2.2461399268865105,-0.018235958524043472,3.2994336515203226,2.955131734730552,4.635857130997302,-2.4250972459626254,-2.1038552495053797,1.8242957185405368,-3.909844088121961,-1.9599140688249062
98,-1.882501429005939,-3.1763753523155502,-2.2709014672963117,-0.3669158283221794,0.9793089933103326,1.5918065043095455,1.1740613910399489,0.637390991839474,0.3824896818473935,-0.7833580608232505,-3.444138721294933,-3.571920051923952,-4.44439908705707,-4.752612210374318
99,-3.12841279861665,-2.430453285595594,-4.540474088208914,0.09337087995996529,3.4618927731683655,2.206468200365585,0.5053840964382806,0.6565768314878686,-2.4421925370962025,2.563405866325424,-1.5773000291402905,-4.786221347110132,-0.8567383309708252,-1.3508049012232854
100,-0.553458575692728,-0.8009302212100041,-0.9332068208562834,0.4363126220801043,1.7429893221504613,1.0156084040486575,-0.3599235635219252,0.38891936857774045,-2.275899352414378,3.0641895484051145,2.2144476661714583,-1.8831763373457286,2.8510155746540256,3.901658470376431
101,1.4240764842455522,0.09402400102412109,2.5077367330274423,0.23513453844376223,-1.6929697788231037,-0.9004852442933521,-2.547088528575623,-2.666013463088796,-1.5834575370184,-0.5747899174973873,3.4660487362088253,0.4173900773258838,2.854615488505334,2.5325943841115968
102,0.39464325995409266,0.9566706258246882,1.6479486555905656,0.16847934160348732,-1.9051984839804228,-1.2613061275095054,-3.103295910477938,-4.843312777499035,-1.4001805380556067,-3.7618590350312293,0.7174786614062787,0.20540487365953744,0.216600723343056,-3.9151781012806186
103,-0.7122390910488271,2.747655293064283,-0.44029368817974796,0.5760828753319855,0.8086524973446791,0.4036444491979112,0.08736961820391684,-1.9071310430295765,-0.3646877526553963,-2.643423680965974,-2.3954028990647873,0.1028401578191504,-1.4887586268659359,-5.138332726591043
104,0.7696570526494841,3.602458673793403,-0.045336912021158464,0.5092179526192587,1.613124554691113,1.5240259694053437,3.647910510298187,3.1356058314665822,1.180571478100425,0.17892412160841514,-2.514864008392885,1.9533270715874143,-1.2986687887549369,1.635880359351968
105,2.5228227829747856,0.8979251996468123,1.366091040356998,-0.6481466678528653,-0.7913124135954339,-0.11989177165578824,3.0298339113083115,3.9911216941871874,1.0899777812896645,0.5741154758809908,-0.5015329879005241,3.850601702900388,-0.699073211723676,7.056112197963882
106,1.020134237852565,-3.9064607024348836,0.6515111114342894,-1.6867439387860599,-2.309223750113167,-2.8258618805664906,-0.8168114243413193,0.6068449636495457,-0.22847568297966642,-0.1371577098756093,1.201220311198887,3.0545968975496787,-0.19597128899867186,3.8755923605505624
107,-2.674807793291643,-5.794507940245398,-1.827583491319517,-1.1759832276087705,-0.6444860718439543,-2.980929190900716,-2.9877050405962056,-1.3852807731235839,0.1499711627750529,1.5909867569738154,1.8193624366165018,-0.5678583173941595,0.7252908873529229,-3.2115285510597604
108,-4.138001878830088,-2.3654490361044025,-3.231739094980577,0.23806035906034506,1.066089113734835,-0.045498863684395846,-1.6221612503774108,0.21167995579965915,2.4452508990614006,4.20596911496287,1.529226853045901,-4.535430155415878,1.5455756581008728,-5.652850310587265
109,-1.4900089948812185,3.0383755381116817,-2.0053403609133182,0.8880445835802194,0.187101094845745,2.874233388552983,0.3459345663123404,1.541350611840993,3.047495791706883,3.047174222364327,0.3177419178551101,-5.852361983847665,1.4407981347059067,-2.211872378068944
110,2.57840870007977,5.462016048844743,1.0863998032525266,0.8455259840331155,-0.6062531258862786,3.273885368123067,0.3548735587478496,-0.295731362007411,-0.039397880930193516,-1.7011990810637332,-1.0914987729616856,-3.0921900380971525,0.8488186950875382,1.9680906570600405
111,4.297621626683264,3.595959458783539,3.892886199674523,1.3812191082060707,1.7011360587163653,1.6790532306204953,-0.275383728585404,-2.8358915828682614,-3.982371728951429,-4.829614917801896,-1.3690749107720195,2.2271080193518213,0.04984750017555041,2.9803183991545352
112,2.454647477842306,-0.23504918721705798,4.035971488634273,1.8786357670570588,4.146210926745208,-0.27345938186416524,0.7046262648879157,-2.6907175409765722,-4.8972601397484565,-3.685930097604581,-0.6118484210317527,6.0113039897041745,-1.9592194452249823,1.1207841802905258
113,-1.130258661521723,-3.357831950896907,0.9258703970451433,0.23051494915225942,1.6120892810627594,-1.7613865753455866,2.4701387564498405,-0.4268710877839496,-2.2914395131534335,-0.906192466534028,-0.321512199498674,4.9081943659078355,-4.575699583370287,-1.1879287049019525
114,-3.3873446383965997,-4.299635632928408,-2.878301526251201,-2.9812113234222632,-4.445152211122273,-2.2997541498224923,2.2866271377695133,1.4267149735483702,1.5017855685765358,0.7827693528126473,-0.7871269547914916,0.24650626155148536,-3.960436755652925,-1.706073342019201
115,-2.6529356785971028,-2.5816661829765324,-4.0077559821846895,-3.9315059642043644,-6.700094813892263,-1.521968296151388,-0.3981213366664586,2.2904326640491957,4.071893900023251,1.8049561649713015,-0.54370763130953,-2.998093855248102,1.791519003803215,-0.06176497125843203
116,-0.30147028180202184,0.8303119362327042,-2.164158827713072,-0.9151832377271822,-2.0460849423309817,-0.2015660349877385,-3.1544120234098387,2.684685278185409,4.0052278504661585,2.758792652490746,1.0034753688954192,-2.456776015887387,7.576101822612913,1.5452556038292735
117,1.0710454944558452,3.443328331202836,0.08417489192960519,2.670322240671285,4.0650975478320355,0.2653358640209572,-3.62018279289435,1.758453883649284,1.3696234576438227,2.5055083667084843,2.4351681676535684,-1.1259777402685578,6.363050205008568,0.8714264275948813
118,1.2067129231703906,3.4066015114430095,1.2351445728198585,3.0387179574207144,5.308117640177465,0.09837990598565258,-1.6550730569496515,-1.022730467970571,-1.507993289897252,0.9759780844582965,2.395526794781756,-1.7487653860622139,-0.9310653299703964,-0.8374875306634322
119,1.9326946951592932,1.4930933415703254,2.1468826216616126,1.0728721878060743,2.1725461212087915,1.0410017959367412,1.3901394268729743,-3.196044802359433,-1.7066030228995186,0.13186685312296464,1.0172017912572004,-1.8677698667506835,-5.893753296756839,-0.4394687344940912
120,2.877855023521802,-0.4453481368994829,2.9826655142696414,-0.15161059721963338,-0.8349656695479821,2.983408244252998,3.750326801902186,-2.11924244225715,0.148240457893191,-0.01816032948224989,-1.132714187922438,1.4613095110999132,-3.994823986368854,1.5823405535094404
121,0.7590487871849594,-2.1441908913707426,1.811698286510169,-0.48200203625003946,-1.9988926139451373,2.7888196925604753,3.600185463989829,0.2630653866224384,-0.35931090731408843,-2.516702537198341,-3.5945531225399012,5.075295318215497,-0.1679755144055467,0.9411837245054953
122,-4.653850260725068,-3.875180555769172,-1.8450909000511768,-1.6365041301868064,-2.5489783954095335,-1.1601316890429092,0.5251161238776181,-0.05624671365309401,-4.623748300002494,-7.2386480096605474,-4.860402553554475,3.562123904780951,-0.2646909791762594,-3.3176768190954764
123,-7.119656355675741,-3.665387211780359,-4.4027239575453745,-2.6400793612081395,-2.35409332671722,-4.897397772283739,-2.8620782793905164,-1.949462248463198,-6.3994465915752725,-7.40258645483415,-2.710215737318326,-1.801378752875663,-1.972283788222796,-5.423360013249279
124,-1.2840032887837256,0.6556925666858189,-2.2623032826779976,-0.7879656920395764,0.008134365493189147,-3.2005290832293474,-3.0793634968004966,-0.2234131432375417,0.5291045897304487,1.8897721504290474,2.7239000622070475,-4.2412539407481376,0.5559645715971151,-0.4337528450498564
125,7.902529600006582,6.222730285676964,2.46876762813356,2.9114333773857264,3.2632950084107333,2.339764200197792,-0.3828961356568535,4.859927470613692,10.915803702947969,13.436830676023304,7.3326682477706076,-1.6255336173697101,6.026473927422704,7.273109077466414
126,9.225653709216337,6.469788251136701,3.8168986399128713,3.7222861159816656,3.608845975694787,4.335720110184068,1.262338517262457,5.974906986940336,11.816473971661344,13.658340429445241,6.431593346392924,0.8923110001492915,6.70422616966928,8.11465298743721
127,-0.05568047419194391,-0.14479820119619757,-0.037663863106148845,0.005825031366288468,0.02291386672333138,0.017678906750067832,-0.06422486713792575,-0.025560400977663718,0.0038516946425638772,0.08021679381853662,0.060817518844518845,-0.15359133087463323,0.035629265245506705,-0.08082134344111763
