,AF3,F7,F3,FC5,T7,P7,O1,O2,P8,T8,FC6,F4,F8,AF4
0,-0.01970274364106614,-0.04475619264491074,-0.01511378519374483,-0.025690461406429513,-0.05661343846527996,-0.0374324111971903,-0.0707916614348847,-0.01918255726724625,-0.16922221823796674,-0.07614183955509628,-0.04076969156007082,0.02200520012370822,-0.038153855948579944,-0.03510691492663162
1,-2.3250267390324253,0.8652626819762849,1.2454791924475381,-0.9315656218144528,-0.9472117702693776,-3.955590420730319,-3.3346106311893626,-7.92955676449179,-8.66739898097059,-4.647307436752146,1.3353796000383285,-1.1990864098591003,0.5393060497542213,-3.553428511882681
2,-0.33216709578916104,3.073343343334812,2.2992462309999184,0.522705721190359,0.05908384514398317,-3.4062596546260497,-4.066802238893292,-5.322173763640143,-4.1387697395842835,-0.021181697869578714,4.183713558368556,-0.2881719697847063,2.4498416037965662,-1.1327602716614376
3,4.168959802839406,4.990769307322818,3.1023547654876786,2.839573744231699,1.8081578915107919,0.22132015618513312,-2.1720018729903416,4.130188325870723,7.6232507809344225,8.932412310878354,6.1975607291811565,2.442071477646702,4.831628411507216,4.7866849269512555
4,5.10165982854272,3.712118989058454,2.541379509866941,2.5742906404314305,1.8376902195092786,2.302460903971546,0.27089314575699464,8.119875286577969,11.192937138149631,9.86752672519014,3.797115945462966,3.8198586851241494,4.786725891345756,6.138491028939845
5,0.08723081074841539,-1.0433379936674143,-0.8504681174889644,-0.6760193226495576,-0.04601661233047444,1.4150529882999971,1.4639518884143443,2.5132855968092938,3.2216573527068926,0.26250129400369265,-2.3280172820451757,1.1979390461535215,0.5426829388692024,0.11143736912378624
6,-5.722280374667379,-5.870410447643428,-5.321612133049551,-3.421459057958153,-1.787774812817817,0.038227920590957386,1.5587229487692422,-4.295151544861536,-5.479554753557732,-9.369009722088832,-6.8729754020991045,-3.487372020343997,-5.359229270132366,-6.321850187559153
7,-5.651205202390147,-6.578444132811098,-5.692934095644067,-2.7421839238420285,-1.9017422317493307,-0.04920891546253567,1.6989417152040611,-4.175758208786293,-6.833288230536299,-9.507976151281177,-5.816454108312083,-5.011868404158513,-7.452608676922283,-5.2453480585964245
8,0.06856898403528673,-2.1170372419408117,0.09953269430215714,0.19500541216822043,-0.6519522327987505,0.228382235057446,2.0181565919506896,0.17095518854111735,-4.173301333997596,-2.4068937534385206,-0.9246552971918088,-1.333111682103859,-3.335334665133624,1.4758715151423747
9,4.599154138052892,3.765756627621774,6.159085756045089,1.9652105619446658,0.8546650481377875,-0.2564429239574161,1.3531054900445807,0.9185261966455952,-3.4507322448930475,3.0707216035557425,2.644775301954806,3.090289585426008,2.61514643364579,4.573699636539943
10,3.171271260155434,5.489501834304754,4.931503463383158,1.106596853910143,1.4283090142769088,-1.0285360639461658,-0.9097576476471252,-2.8392210150634005,-3.9257044532934255,2.7215699605743677,2.2641933731670725,2.704585391045731,3.9413797196566462,0.034449111585585265
11,-1.2894436983513053,1.829026878580873,-1.9874080075392055,-0.5229823713604135,0.5541251294209847,-1.135631597297227,-3.2869102483969383,-3.986540844083752,-0.5828620771978053,0.21613644036202007,0.3621348093048907,-1.31425645874273,0.6349620785967379,-5.14759421755073
12,-2.6743016526798056,-2.047737290208286,-5.020350316949084,-0.39772587514041113,-0.6525845575039888,-0.3428184440499035,-3.4049457457217924,1.9971511255413628,7.904300234330265,1.0434604583239222,0.9700315558384984,-2.211099517676961,-0.5928467116975791,-2.3250864176565194
13,0.11626403300221766,-1.2836511006688998,-0.2636681759471192,1.3239442008928322,-0.5301372299157311,0.9532548129663218,-0.9846198713179993,9.517057541813829,15.453006456654105,5.322256148594827,4.112276184050228,2.2566573030842565,3.435745451523187,6.352763836640367
14,2.412716597427361,1.7289025682176766,4.485203928346468,1.8551678708693193,0.5601257000130941,1.8303049349500622,1.5383770309593194,8.809770223055901,12.751337002088624,7.096708069968736,4.9048773310563645,5.332958920676587,6.217902118928199,9.483781886774784
15,1.004727054591437,1.3246571474759492,1.6857406177368301,-0.3558842423357676,0.6681233752938178,1.2565473223009849,2.2616296756013528,-1.5926894645247385,-2.506614755129854,1.5071594270109967,-0.2377700357935097,0.9357028574164364,0.7392772609508347,1.2893706194744219
16,-1.4847931964676704,-2.2113434320749086,-4.2343660660706375,-2.926896722487201,-0.4035381310974366,-0.48702081699982186,2.1505062869980227,-11.753852948254847,-19.185051832657685,-7.924551258129128,-7.601633346806591,-6.144133510111863,-8.52868180520758,-9.67971978511057
17,-1.3653175705102307,-3.3517083860732666,-4.150115900738521,-2.451616319136554,-0.7665634994016721,-1.5720092990965555,2.3480985837431616,-11.369425187112512,-21.50876696693763,-12.04648222377801,-9.47063270998241,-6.431209142212909,-10.25244775291247,-10.747265268394525
18,0.28197299564481837,-0.6775699731601992,1.4950134654563654,0.591767331350171,0.06558088257403763,-1.0401347809201669,1.1313861781514227,-1.5129813525979934,-6.76112262529983,-6.687763754884454,-3.493260749596364,0.17472198437438674,-1.95647042176777,-1.116263123799972
19,0.1911151352378025,1.3642088497973137,4.344189273246631,2.412657382004261,0.33506629606877425,-0.3527723521867005,-2.998570351641181,7.530099681013958,10.723456138128308,2.7882627591313955,4.591252311673576,4.75744577414649,6.774887844200585,7.849389983746197
20,-1.0399684538896548,0.7838723246343344,1.5503788921750958,1.3459072540667376,-0.5180959278516092,-0.8724985380838302,-6.510641665816132,8.623505954031502,16.24324353833605,8.540559903063969,8.206650469285549,3.253164583761191,7.777144521570182,7.453723230017356
21,-0.3405537980084143,0.8378121764352483,-1.4327998550472176,-0.2826439666034287,-0.7084005848263017,-1.085097216127729,-3.976308930165862,4.0922980118910655,10.098570387837468,8.18634885386095,6.349958049717202,0.837075038711348,3.3489808937753467,0.9405459228296545
22,1.5943007915140845,2.455798610387334,-1.0982924367625153,-0.41108958002326473,0.4250889021527388,1.145037004346522,3.558202399397777,-0.10825117984375385,2.3865837929796436,4.228531170618914,1.7694775870522423,1.0178971586396925,-0.5495081560564903,-3.2805420148474083
23,1.0798584130539455,1.4704759415177304,-0.38118778709346746,-0.14116927314111685,0.9866634781135084,4.324163125670713,8.192028146928983,-1.9727776149112504,-1.614332311570592,-0.4476463529778938,-3.0290072309739298,-0.015819683060871045,-2.7510583250612157,-2.489031782077012
24,-1.4192921531359,-2.8479457616747825,-1.34981713793468,-0.7592890252570677,0.16032224244591015,4.394377959480375,5.026838638463576,-3.0601753255382915,-4.142237989703993,-3.883687991341803,-5.716259134803605,-4.0764754459255945,-4.261204130612,-0.295254330001319
25,-1.0778526978258969,-4.010075651353382,-1.0282994723987184,-0.8958532986281312,-0.011193281331083011,0.15009719522212808,-1.8070866634918454,-3.9157477570528383,-6.765435522693112,-4.804432663797085,-4.146895663618269,-5.050288073642999,-3.3374125408568736,0.3619340205335902
26,2.6396999209405028,1.20433576700193,2.0977888244435845,0.7160837306942968,1.2686381525468464,-5.0749630188152235,-5.507419728988298,-3.3973557717766263,-7.368801768017333,-3.7660667074762997,0.19914745560309788,0.9342928129756413,0.9340675581331869,0.14413268784513034
27,3.498973405225805,5.315013518100273,3.6096062245115905,1.999946370864232,1.0741815468828169,-7.239808529941096,-4.8951446078953404,-1.2862991777241846,-4.878148375191928,-2.6770849459555763,2.094073853485587,6.582700558545321,4.124525641650294,-0.04228386580518453
28,-1.6152048912394532,0.9509022296062666,0.0072634589960340334,0.3981304316799772,-2.232735688600613,-4.7645092081977545,-2.7938187764320492,1.3221232808239232,-0.9326405946336582,-1.5951751841282642,-0.41248154012725124,3.3251074089418395,1.7917889804179317,-0.7906434133302479
29,-6.20426375347247,-6.296577815866214,-4.40842073418651,-2.4120695975016675,-4.5668776617658215,1.4385214322722406,0.02322986941227559,3.690801967991173,3.5116062220968183,1.5320713075314791,-2.0633388485901794,-4.599408876218644,-2.844900133347572,-1.6405955646629646
30,-3.2698384712121276,-5.306263235203778,-3.2056030452193656,-2.3551055559040583,-1.4168867546408643,7.951315530671441,4.068760835219256,5.287143896998884,8.350580389434867,6.270670262558029,1.9130304793813853,-5.646197897411505,-2.788681758376655,-0.5714092235462473
31,3.502753203894882,3.242926632897744,2.1810033828898256,0.8011647821870592,4.2768013338460955,9.509358879850785,6.6203338785010715,4.517026941007584,10.646306241519977,7.792820911261981,7.049229920944193,1.4646239469921334,1.9583093125465725,2.259998811338419
32,4.822045489580722,7.313075854828678,4.195784027436161,2.7358989509744354,5.106469004127317,3.5332154980050756,3.816059706632639,0.04306150805473997,5.792107203902501,2.484503724631002,4.791816909607924,5.857139366514223,4.003097028144406,3.417269933625937
33,-0.2095639822983686,1.5884163951307784,0.37262244930028393,0.959179619583257,-0.08158526130025419,-5.5871013036121475,-2.7711307219617045,-6.092269368348354,-5.230932154923044,-5.9922629106558265,-4.388745943641754,1.431156297504056,0.05219470144737165,1.0066644804448113
34,-2.983117884456364,-4.7460673596202145,-3.104169870210626,-1.4240561530372442,-4.065890034401685,-9.81463355086865,-6.363946435054157,-8.47180720215847,-13.21490865057298,-9.189232648354885,-9.708133042849438,-4.054734110442876,-3.649447746426196,-1.9011635131037046
35,1.1220576158356481,-2.256749950788473,-0.807583553413969,-0.49537670058280536,-1.5946686071032883,-5.796549252271402,-3.1000755779665607,-3.47719469842538,-9.529043643457833,-3.1487084373586365,-4.057499922416808,-1.8417156458573694,-1.0054551760952528,-1.4787527040343282
36,5.376907404697667,4.453707937746576,3.6887367998928955,2.2326435181372872,3.0180265197760052,1.9769383214960612,2.9038403144870135,5.228535463646265,2.703084953735808,6.023452662142642,5.84687298327181,3.7214874316687796,3.9563214443528056,0.8304998147528134
37,1.6889001879932417,3.9109933975692255,2.863082740581878,1.7097756435018292,2.3451763384133355,6.367205430238928,4.242643064177604,8.715536052023456,10.278307358362566,7.8419757843275315,7.7326772493297495,2.4187156643619394,2.7684257213407033,0.18221817842534543
38,-6.802286732822343,-4.635916372538737,-3.6350599586945127,-2.8466813108440845,-3.131878650413607,4.392814074780401,-1.0032897050932235,2.8094515277745136,5.108574621261341,-0.23512277731417613,-0.2176095248616161,-4.819913694992773,-4.248865469547227,-3.7274421337221573
39,-9.072537700643396,-9.411580629131647,-7.562821532919676,-5.657816886421253,-5.550359821786849,-0.8965888213418062,-6.509269067965242,-5.505304688599948,-5.400018739709734,-8.47990798231924,-7.112562294035507,-6.617744880398256,-7.425307200102835,-4.832296295483234
40,-1.115650186444463,-2.7015545376354666,-2.697247696859768,-1.9280530398942437,-0.947226037323314,-3.8869857310234264,-4.543044802811385,-5.895423603314446,-7.535936612024493,-6.272043385263746,-3.949076687119065,1.1633685772021642,-1.3114272516632928,0.7398460113318472
41,8.27990713728249,8.064788046155003,6.457376935411882,4.781075380834143,5.074132815084071,-1.7623473132872232,4.486843398464565,1.568574367809319,0.9578158000256896,3.9297509973101756,4.590322542703165,8.543696550349285,7.2225327200026905,7.6730257212855335
42,8.643184812437102,10.016949459278784,9.468853656497377,6.414629789714813,5.253544028662271,2.7581145474694653,11.1341064210774,6.133758029251605,8.536242204907587,9.43468216420815,6.919717679443639,5.7712381284085605,7.878328285675329,7.38981742674739
43,0.6025040287085389,1.4054548259762785,2.5783054507448018,1.1370562162880993,0.3346901302277107,4.3409977200297645,7.361103097939889,1.4672984526500297,5.966634801877941,4.098658216284995,0.28267713463565347,-3.2940527588782618,0.14724839493169664,-0.4243160967356403
44,-6.05254591955432,-7.03444613550077,-6.649712460142932,-4.126247171783254,-3.1135004216719513,1.0922576541987568,-3.601344260219039,-5.31406490556661,-2.0791500446276934,-4.289601512496015,-6.161268322102065,-7.506342710195527,-6.704677030233498,-7.037473955818358
45,-4.977550251324309,-6.328553502063868,-8.450140439442022,-3.3190821038013287,-2.173632564682686,-3.3867606951931943,-10.921547533357867,-4.37939303222651,-5.419981228822815,-5.756952840588081,-4.376298310648336,-3.1775558435700826,-5.472714214431949,-5.891525662799473
46,0.43739992735459815,0.4922218580605777,-2.0596588827332964,0.8369291734466783,-0.05974240996616913,-4.70859969605509,-8.89963562401583,2.332450864962362,-2.7023999621489714,-0.9775346021962651,2.3088352423125102,3.227334209964721,1.222555442284111,-0.07621169224544667
47,3.477938529542176,4.3972484602915465,4.853572978904478,1.9753003597987566,0.2339176197510193,-2.7579264582345657,-1.8624417696025346,4.777210033539907,-0.8204904419981464,2.348879743400617,5.290152124818743,4.895928637238246,5.544233867780587,3.432710966031378
48,2.3802699847497024,2.302000529936441,6.117888730260453,-0.4484413292837358,-0.2565472805188628,-0.34660049694788414,3.777354005069323,0.31994176395608553,-2.7347213422191743,1.1487725670312137,2.339712028657529,1.9138079232919454,3.661318388060771,2.8384110023825677
49,-0.21256692001736774,-1.4167772539894135,2.4690964796470585,-1.9093921950597825,-0.04689867709865538,1.499609332799735,6.747331106569889,-3.228943077381639,-3.316248257636679,-1.18966710682606,-1.989147082776584,-1.546942543641484,-1.6072847973916355,1.044715654718384
50,-2.5084366512933483,-2.8614243911886983,-2.2257215457097175,-0.7837872232290584,-0.07643849668515695,3.8605915686047916,7.790134944174109,-0.7270016786856716,1.7148351366321501,-1.9167610371513002,-4.346597032638689,-3.166799953789053,-5.44080480997958,-0.6252660361538214
51,-4.043688369814193,-2.303553884796768,-5.312109740656274,0.3740648706166544,-0.7654467808663853,5.933837772091035,5.015352379650982,2.7467006407335517,8.426302371413131,-1.4228676371262876,-4.64853521696964,-3.274722967912408,-5.384248161784237,-2.7984345104329122
52,-2.955294108235693,-0.5030967376439691,-5.038625621414731,0.6413132853993583,-0.046088035952862184,4.346357134286014,-2.413585330700547,1.0912420789111734,9.263831851008069,0.29435709976389846,-2.0342694971006976,-1.9370278036181825,-1.547568100137208,-3.668407426445822
53,2.063893052420537,2.713762461034745,-0.5363424906474188,1.7437059700943576,2.628090266839789,-1.880217768316417,-9.269394287168316,-2.9673715709114883,2.2387150341023863,3.63340523598246,4.098204238185974,1.378270370269215,4.272549525600341,-0.31746269061166077
54,7.398485639327776,5.304306053543531,5.607103954838947,3.0686149882124965,3.5910066148127093,-8.074483725869717,-8.722543185288686,-2.817129306265189,-7.000171568198812,5.8681613661769445,9.20994808609249,5.240973614433736,8.497130294152434,5.2288512909653315
55,7.031037554067336,3.7304516582625418,7.97875644015699,1.4772392433277752,0.13401902036312177,-8.225111152574708,-1.05550516392259,1.5887445339954285,-11.052641216994795,3.1233371679309943,6.856939157960381,6.170253316310518,7.341369190197741,6.730558955537184
56,0.33922770325882823,-1.53999327612582,3.935070969682796,-2.753227129222358,-4.188119043354753,-1.8918581910035004,6.266104530159812,4.206891427609732,-7.187332110691523,-3.327661184813743,-1.947004533673268,2.3668256018908407,0.6181717285171958,1.9190366295580943
57,-6.575402135557973,-5.5061070015274565,-3.280892029658651,-4.90508720506827,-3.9786323579437606,5.165220810145907,7.055317526139836,1.8509481621203332,1.0728977920970655,-7.463421536150035,-8.757128236697088,-3.86865360296885,-7.104714139673854,-4.466370312074114
58,-8.303640834557338,-5.101456815291372,-8.233218123017283,-2.4840395243976903,-0.09512376298212391,7.1839705174628925,1.9787936448613803,-2.4873134952859335,7.252473842202308,-6.215086626952429,-8.481850373793725,-8.225506006374314,-10.542619179234503,-7.2129169003628855
59,-5.171648759559905,-2.376190666082077,-8.066941335251435,1.2941627781744838,1.7992112857030975,3.7628816935605456,-3.7311290745436674,-4.5442189836606985,7.327064861566893,-2.289357966751307,-4.1074464385545,-7.730769920260494,-7.986499734182513,-5.880747314336445
60,-0.0011357225551380593,0.1706188771915887,-2.963102434667448,2.606527770265137,0.2637044629629782,-0.9925466033829144,-5.215409404442076,-2.855753262228031,3.0432088780333335,1.7157043926241886,0.6601072841699404,-1.9932142659591308,-1.0537579254920888,-1.9062409635559008
61,5.638499071386084,3.216025821331007,4.894283661124643,1.960346183905814,-0.06053190040660604,-3.194736759622897,-1.1926139791322157,1.5840969920068237,-0.5446618750938195,6.439052139592929,6.10776664222902,6.413150941698353,7.372663341959559,4.324922727770412
62,9.549337467615935,6.850864471074794,10.81852395140751,1.669584316668947,3.070237514966071,-2.311463722165128,4.7198969041655605,5.857441079732803,-1.33670784038343,10.318577861616925,10.707308516517875,11.752832171946908,12.995362300792744,9.987528867552951
63,7.606358603630784,7.0159321388487,9.330590520393793,1.432699436124109,4.814357498867695,-0.4268665244362127,6.19804447999132,5.709115948265463,-2.098005397141964,7.347726870007219,8.399475839159976,8.435423764426258,10.706490436221156,8.648054853431312
64,-1.1347270066619923,0.503438080591973,0.06427871569038038,-0.44458489710483684,0.6251852285643835,0.46216435223485874,0.7822947191439874,-0.2775386177458859,-4.686732535545837,-3.839289825372301,-2.14345876176768,-2.3864703948385797,-0.2129485636007059,-1.2338942202737426
65,-10.064727814409373,-8.101232351792566,-9.528119353968846,-3.1067411980077035,-5.866106395260221,0.10873474400381193,-6.087239076025454,-6.944725911440293,-5.571885681438641,-13.448490749406261,-11.444348889782523,-11.397264901924077,-11.970330244079872,-10.295584034162282
66,-10.605377244844009,-9.973404262299,-10.96522673847038,-3.6511172577192323,-7.22464971050518,-0.4567592938737522,-6.930024840158883,-7.110537196611057,-1.041357009155482,-11.021279571773993,-9.998309490082729,-10.156137207670051,-14.086677657643992,-8.467442067815279
67,-2.397826839319034,-3.2130615314325253,-3.8975319331080343,-1.2498685510456928,-2.156446602466442,-0.3869743436921902,-1.6307019423921405,-0.5897229911664977,5.4396311468115925,0.11513904030442618,-1.2527550832076957,-0.9782257245062651,-5.050963973716044,0.7879938178373639
68,5.9145869229534656,4.47446793682621,4.205154378975165,1.7240055145732702,3.7452509840827712,0.15788869729149246,3.087245534429573,5.165911515532484,6.559950996662687,7.231101489783812,4.036814549677985,6.019043996369026,5.488035371262609,4.990766463145738
69,7.2056944645959895,6.084668427140891,7.006760991187197,2.8859198168966693,5.844713354134735,0.46861513089330287,3.387513340265749,4.629320477896618,1.4912619352404017,5.7033833463152614,3.4510572307514837,5.598055321297583,8.428131059664555,0.8877749849517197
70,3.5634246556910028,3.498969438231699,4.969013479693388,2.22785857200701,4.349129824936915,0.43253316541343817,2.3983708702891864,0.6922477273159626,-2.5656402301018546,2.966939318508569,3.713569348845582,2.4496440417212777,5.331377037072873,-1.6420844705516946
71,1.0584389620205161,2.0969538262257066,1.9643161386021617,0.9688890177735909,1.1055324464223741,0.8016045876375573,3.278682592902081,-0.6451321157400747,-0.6450660223037336,4.276718892421858,6.7248418645954935,2.1603579182081267,3.1032436655285194,3.54655490172625
72,0.3257147318197521,1.6463412377337614,-0.42224851895142684,-0.3159038189692954,-2.682959893225285,1.694772555650115,3.395056051186821,0.9307377346996263,2.7392387062172205,4.159646139796364,5.106109565927602,2.3881051703207836,2.303989983271852,7.9233929654428845
73,-2.6274196528721148,-1.858555733950983,-3.0926488189966332,-1.6651205093266284,-5.15465926085937,1.4529211920435168,-1.0307012018115014,0.4399847372335094,0.1422381335994169,-3.3710424571102777,-4.879766272196418,-2.2382997232184496,-2.3205184895613726,1.2370803196255342
74,-7.400435485365501,-7.324898664242092,-5.610175084101416,-2.73420193467013,-4.190262337207359,-1.1946474672052052,-7.489876411099186,-3.8156997072425227,-7.192913125978287,-12.793885559967002,-14.037897756413955,-9.307232561522865,-10.134053976271609,-10.982513928225353
75,-7.371676945368054,-7.943698517948131,-5.16544376574593,-2.5349333375591336,-0.2949274260932103,-3.9525861025658076,-8.749267325699774,-6.389782508748273,-9.138334892033942,-12.192863215192109,-10.47167966737441,-9.4110772596476,-11.512962933234684,-12.726243788897891
76,0.5746644499314443,-0.7169829651762417,-0.3331195793060131,-0.3217920392760096,3.2812100480896254,-2.889113732931875,-1.8869549628985915,-2.007998865621702,0.03181511148370802,0.985318484792087,4.187569928762531,0.8531108302134897,-0.825799520109966,0.5150766584301161
77,9.342729127497405,8.007831930845489,5.613222847168853,2.924723461378921,3.972073133791653,1.450910674759815,7.063317592167784,5.78087493219332,11.762254762875289,14.530654991746166,15.037759409530189,11.956395230177872,12.756417778242056,14.11513209802411
78,9.41954849899101,9.450058508837722,7.121251737146009,4.322718855131291,2.0093117592652527,3.420334841977462,9.248680978174828,7.868028726641229,11.894016045069204,14.206442587371388,10.952200029746713,11.78354574313612,14.349428165148984,12.343529607305811
79,1.173497041942933,2.712047802117858,2.6326335833637895,1.9221684860021526,-0.6716716779507012,0.25535561814379065,3.0341678966790777,1.7571495324258533,-0.8755670356324298,0.3851052658926473,-2.6612878162524964,0.6330616412006136,2.0887719065692547,-1.9493614731046178
80,-5.7381627419354,-4.656115136644146,-3.019175776964158,-2.172735398736299,-2.1526929429141455,-2.872218515976875,-4.233817848305073,-4.516001596684942,-11.488679264663837,-11.432050158981813,-10.7187186617677,-9.024436046959508,-9.973519805401565,-11.73159562805511
81,-5.060650796653546,-5.876646202773755,-4.204268928243149,-3.6035005735948844,-1.575032176082371,-0.07067523054967031,-5.268138443132264,-3.5096508990255293,-7.238008328756381,-8.661829680502544,-6.335649678227888,-8.011991260867003,-9.562757081170759,-7.500051844013281
82,-0.9346140033948336,-2.0866704379497456,-1.5592989245345785,-1.328975562533527,0.07481436359958853,5.523612387357194,-1.2119086997584618,1.152568620647316,5.206131378379782,2.856167991367091,2.1886396874000216,-0.7580439231754886,-0.7829771702669004,2.3842739822559706
83,-0.20736872262145598,0.7306738207108338,-0.42360831970069346,1.0094463767854867,0.6210907462533002,5.046202200603336,1.5102412752199912,0.9741040234558013,8.584603461720226,6.799504434135718,3.6179143287910165,2.658896319651727,3.697621915197385,4.89482804292317
84,-2.284952224088665,-0.10547478055567731,-2.206047287463873,0.5006558048221469,-0.6266584664944458,-3.1738965184584296,0.5218204202424052,-3.764501869959444,-1.427524220846979,-1.3347192770555576,-1.3387759334387925,0.5125138403615132,0.5534017890810342,-0.1768751596238868
85,-1.3178483375259984,-1.434396657596426,-1.9402025550333,-0.9308101264717176,-1.5640049107628864,-9.83284333512525,-0.7101434973581384,-4.347203515053609,-10.644484751896135,-8.381945023110204,-2.768005897382121,-0.38931866539250354,-1.8912743324977057,-2.1816674322952325
86,3.6155863455308,0.35725899598499555,3.1121174415345574,-0.06309971937833353,-0.12616651624182276,-6.289708147238328,0.22478826941390317,2.2885812468154287,-6.308391615196936,-3.0462493348589876,2.673159980933107,3.020130406888582,1.7039712615869154,3.112963094575122
87,6.389717739957864,3.951697254920228,7.225533014406394,2.2311269765942097,2.365754714267657,4.054603383727184,1.177063793896093,7.904418687942433,6.048003348271036,7.751380821897566,6.6081031731737525,5.02273171017676,5.635325607781818,6.761453410095125
88,2.8713677217740186,4.791856354321281,3.8019075568894323,2.400120522349395,2.7377412993160526,9.89155381377254,0.22010711796692578,4.757541000173613,11.484392817694772,9.676640290127972,2.112904223718805,0.7431845979346345,3.0730721006476145,0.6874411203359083
89,-2.8118108952223317,1.309556466954473,-3.8680962617817842,-0.0031219966747373096,0.5201185662373323,5.735434109573316,-0.6611302351881331,-3.211891418989791,5.444028467818633,1.533567813131629,-5.140724448483081,-5.219763791456641,-2.9600354491512864,-8.496281670588964
90,-4.020623998044564,-2.7850085675328087,-6.202948183924602,-1.6497624109167894,-1.465940241089889,-2.64944617639607,0.5615810006560387,-6.17807543646845,-3.0933573281796956,-5.1508829299719805,-5.094210814728172,-4.852712855995721,-4.462902200672135,-7.710046605111111
91,-0.6890087999463728,-3.5088764190001513,-1.04494503493594,-0.9533048581951015,-1.4808063615436078,-6.674632752409926,1.8235880671451155,-1.7719623026653306,-5.6915120510962245,-4.060570724676464,1.600262879579467,1.5706818019287987,-0.5182983199574671,3.240601913805734
92,1.1491357209579822,-1.977446643355085,3.275752610027753,-0.5356901370838464,-1.1205008538302283,-4.5498308997412025,0.17392454303492716,2.9937262468258914,-3.6350695795144516,-0.9460966682099157,4.54903404644297,5.379175022673875,1.948425786640771,9.960052218039605
93,-1.7053345060424359,-1.9609781169225304,0.4102503605343446,-2.207475719366298,-1.7840095671970326,-0.327239583331704,-2.976865456813299,2.07614392434523,-2.105238137684008,-1.8772350453046602,-0.9098953458001908,1.1348871623388233,-1.1433991534823402,3.1245602648877466
94,-4.838508627054637,-3.0851529775433266,-4.769273456028838,-2.86556525002448,-1.615055904317206,2.908889059301673,-3.4126852839081043,-2.329854956997136,-1.8885975272316728,-3.9582948571471253,-6.836038666818217,-5.9869145393968415,-5.032402696721967,-8.291111699857108
95,-2.303131873363899,-0.8812860689961097,-3.594583144833515,0.8221555835061659,1.2277626041949312,4.632435028520843,-0.11576736113995732,-4.00434243797324,-0.5078707915625996,-1.5975556037795224,-4.199136214653063,-6.6888681088221205,-2.926670967993111,-9.167211912947296
96,4.666163928644163,5.352731617638082,3.7993553801138167,5.773290342048896,4.242815543822246,3.7964101351267314,3.3881455816413815,-0.7492843060722298,2.34825027840552,4.131204110377832,4.395618154550798,0.8033805010656844,4.31312323765794,1.4539475715879762
97,8.530505154498668,9.307646785182751,8.654095656921774,5.527809610537282,3.390413022018819,-0.5304633321894923,3.7194948365589067,3.9822071760931648,4.543894015094369,7.307426677600492,8.717388896068517,8.659848262830877,8.82830058023372,10.013477605926573
98,5.037933673182671,5.3515244127256105,5.2286327348994055,-0.39316242911412425,-0.5702122870725641,-5.457018124451263,1.239515515839055,5.743634032507973,4.629615715897342,5.268436475958383,4.765431319859019,8.835522198949533,5.647917653441543,7.165254108872953
99,-1.7467048855930143,-3.5584815045417537,-2.4834772717289297,-5.2460895021304035,-2.7831932617978823,-5.875374512638409,-1.4712242609784363,3.1615345650387527,2.3136048231282107,0.6166708095506679,-1.481104958660719,1.7184782108168108,-1.5346439394945006,-1.3036903439292629
100,-5.459811842241305,-9.141917774589652,-6.696706459515266,-4.258750234598251,-1.525484992635994,-0.9521216016001973,-2.723439076203349,-1.840816523031225,-2.083518798726676,-3.3960076827656396,-3.889193012162237,-5.721432852082355,-5.870315271836267,-4.902344709962586
101,-4.9966052976312465,-7.2769068763082165,-5.044491590444365,-0.3632248408493897,-0.2969210533178108,4.399948256922653,-2.4015192770445526,-5.739340119558585,-5.961818104712899,-5.608451714465381,-3.5414832063399175,-8.04756965750209,-5.576362824170828,-2.8330355512689964
102,-3.4020339558084642,-1.1824277286423892,-1.4379270219730405,1.336782090237738,-1.4912791686060383,5.588077332484438,-0.9485064888265639,-5.503075224975016,-5.077225614149274,-5.4577077564501035,-3.937213546515666,-5.446969836158167,-3.7109669645385237,-1.931771158994087
103,-2.084269449860096,3.6134425786473754,0.34671972644589516,0.5757115773816728,-2.426328952634253,2.8942031235868457,0.9557148664661181,-1.1087083798263335,0.653264890679972,-2.582357117369741,-4.07431195642101,-1.1800522498168013,-2.03099332271152,-4.109843366062862
104,0.1531258805360442,4.469477212144678,0.7006858248956072,0.27176065194420584,-0.138255681189684,-0.8388099226270306,2.1159069610184873,3.572807602451201,4.868387368174773,1.2189484988729233,-0.8792884334632538,2.243867139283827,0.5914750902298235,-3.683116768714007
105,3.543884000523663,2.409521057290325,1.8247291795126621,1.1107879937868188,3.5101866669867747,-3.7233095585125153,1.5427613518635401,4.218834912736742,2.5290873481776353,2.9938869349340615,4.426924727123869,4.212464171148481,4.183484306949255,2.417383674546642
106,6.178816843109544,0.4325449549893108,4.024731287606887,1.5271830525289691,4.627170504591623,-4.583050559996707,-0.08496110390012498,1.055617144868328,-2.6942186954161182,2.926147031636572,7.290073758374331,5.2232356459030935,6.398649285011536,8.655861205439681
107,6.27645469937313,0.9455280440197558,5.379509709767738,1.1784740022379643,2.612971040586451,-2.4412615318349937,-0.6658571715908913,-1.390654480078184,-3.6361851115269546,4.06208425265236,5.887790292131277,5.508621760228957,5.825120489819003,8.388135946553993
108,3.388976032741715,2.8186433655351317,3.632349445665583,0.8375494272101685,-0.36192254424986353,1.471031190645848,0.5653716394543653,-0.3924323006892129,0.14897552545885523,5.890980975274003,2.032941866416035,3.749745465076579,3.0203683687310976,2.5201629897112032
109,-2.1776525735357226,1.624107670796874,-1.9070957524515253,-0.1288604163399084,-3.0875806256389047,3.6289306049106207,1.3575972390203788,1.4094353288172767,3.0213765345775445,2.873559691379739,-2.8410822232711612,-1.950761288502309,-1.9685429123170668,-3.512542752327134
110,-8.516090887214991,-4.504993246769406,-8.535231589861592,-2.653309162563055,-5.170095854475389,2.482391148562025,-0.581453105449526,0.41052095076104633,2.57101847635266,-6.366665624798791,-7.811839344504534,-9.871043155748024,-8.64606047669417,-7.344665387103122
111,-10.965570399784566,-9.933357345653281,-10.345801444743655,-4.670473577396164,-4.717339821595302,0.7097248446241804,-3.410843656060889,-2.1658903730565138,1.9663708891286977,-12.741370427558287,-9.188119882051714,-12.741306240896284,-12.045366922466416,-8.961203104387979
112,-5.59467630479366,-6.740375700762519,-3.5977785417222763,-2.673100062314527,-0.2824193595896934,0.7437667831864472,-2.937677415792,-2.183587970599715,2.717278973128892,-6.880302230143287,-3.2452024634764283,-4.647700732724253,-5.960898259125668,-6.099415376125626
113,4.696332895376342,4.089603825685492,7.0009796920552505,2.594215698444026,5.08093922535294,0.47131165854286494,0.9618892678793223,0.6716341103380385,1.1717314447951372,6.111712552464036,6.246130086434915,9.113458535806206,6.786989823699344,2.348845228639073
114,11.07963229469209,11.547499111168577,11.296552960907556,5.602780197154595,5.936066514663451,-2.82085669638868,3.3990144740938653,2.0805659163752614,-5.070812856633635,10.912860506113043,9.499235030989631,14.721556467625506,13.728557308223428,10.20208777644483
115,8.377719132706833,7.802226205276456,5.440310159640962,3.1514957598067834,1.6741728283849795,-6.088232915538352,1.6220776411240128,-0.2895983556191411,-11.079047486852847,2.5801729089311323,3.2523576182074785,6.172111746523008,7.648666153509426,9.253942826386687
116,0.955646887654875,-1.6766421439161796,-3.057008616556118,-1.1518628931720627,-2.2728792341968345,-3.4919275500991125,-0.7821712488877453,-2.985171558278556,-8.782812541427623,-6.079414384129612,-3.7997646122420403,-6.014954005481795,-3.2168105309418786,0.9082548290142645
117,-3.5364657015688254,-5.803709051468199,-5.1860266554400205,-2.22283842589576,-2.0081073691064786,4.21864940976449,0.2206537620699824,-1.599374557703344,3.031079389760119,-2.7060893762995857,-2.9317226453739664,-7.977062882917512,-6.27194719259052,-4.737424138774797
118,-3.3960865543733045,-2.4738694282645772,-1.6019624143131612,-0.5071674720788132,-0.014803416771072078,8.787015926369861,2.4684575828542856,2.9797363446749316,15.071000654497837,6.837262930859621,2.44886400264025,-0.38391551989150685,-1.339055683347152,-2.6828895860865325
119,-2.5588156504873685,0.601751175747369,0.44753290890326064,-0.09374203887018584,-0.18693196047954236,4.787611527779945,1.0334990836892133,5.5259916664807625,15.57145961120473,7.278036017569327,2.8946457391122595,4.136610822655583,1.4384703228578803,0.963599255474947
120,-3.330978718377614,-1.461623689667867,-1.621492310697817,-1.7994429400184566,-1.8979148201588976,-3.445742803685199,-3.6519006868473762,2.7285367222740944,2.6780347831470857,-3.804074682810137,-2.792124665882069,-0.4981469123932645,-2.2210556025303143,-0.7623188259557897
121,-3.5152195652183114,-4.077038829289217,-3.2021059727168013,-2.3355642202621785,-2.1133934476439924,-7.664152383135508,-5.714662038000994,-3.169649673541021,-12.30161069343761,-12.517100117580645,-6.762090639890961,-6.3047067136239,-5.483314002212604,-5.532112327359963
122,-0.7546995431228707,-1.4328944413270535,-0.6447592604906097,0.019431535897130793,-0.40283145347063676,-5.139339350758314,-2.0088752697880006,-6.729837581476718,-15.929754257823607,-7.9212458548253615,-3.945882183529868,-4.057533006888746,-2.096258110610347,-5.984697229193497
123,3.3165711993001405,4.0104668746454974,3.2719425574534666,2.6538952063423773,1.342235674907448,0.339065477378556,3.438758313677559,-4.541108981663283,-6.371229798212281,3.915932557856449,2.0850988238128085,3.4933249695622957,4.2133088735807,-0.23758023143319107
124,4.976917077138645,5.218185620084604,3.821061606024065,2.510438702280284,2.145441848502513,4.246584920613582,4.839234717266768,1.639847567822719,6.126964640238969,9.461482701273445,5.363340725238049,6.592334282620901,5.81091240402983,6.398340946660627
125,3.3163966425000004,1.255097781391773,1.0476914396475632,0.26934116398902147,2.232708132105596,5.006803606802542,1.997980866327574,6.444803436646575,11.373898448269879,5.5244010213333015,4.526093081199954,2.791309858438118,2.0516416222797376,8.525808464840631
126,1.0007540837934872,-1.6875591037518163,-0.9003457443953972,-0.9740202732768586,1.5197493554278858,3.1871521495916544,-0.44179088819733725,5.671413642640493,7.9116537666449975,0.5320790769693723,2.112064506650128,-0.917438858405261,-0.9625027393560128,5.586793065207092
127,-0.013181144078260165,-0.18521708735009831,-0.050937872384112196,-0.07732373933967579,-0.04903843066577043,-0.03918957390919446,-0.077840856845788,-0.01837880707409892,0.02384272860519071,0.06438309637355966,0.04186167554902133,-0.05262273177886865,-0.02969198200423344,0.10747860803259163
