,AF3,F7,F3,FC5,T7,P7,O1,O2,P8,T8,FC6,F4,F8,AF4
0,0.0337003270671363,0.09934295342778529,0.0770180078818923,0.07620293858076227,0.03008673808504106,-0.046052230825859214,-0.013531302024061873,-0.06990991654075678,-0.10102267863713224,-0.05672580001440423,-0.0038076120309458172,-0.01374454302609346,-0.059598609422476675,-0.029878415533531683
1,-4.8615765184341635,-4.037734618762683,-2.1404537655638602,-6.13805847635573,0.689887734660206,1.2672932896723599,-1.1329823545961928,5.8705473403939585,4.347514283045795,-5.983375278714274,-4.154912279888944,-6.707532374178881,-8.60470911938702,-14.610965940706674
2,-5.771006072629833,-5.139212903353287,-3.975268621214481,-5.694724384907657,0.7388261651195054,1.6307147048991804,-0.6009761944463154,5.175053007183547,4.741913051102226,-6.999848583523907,-3.8869401236193575,-7.906741892789707,-6.882449456868741,-14.814514418787128
3,-2.0472958758605326,-1.082001011984373,-2.4163795500316687,0.6921813370397041,0.6624259345911655,1.868968913288592,2.2028313239442547,0.2762424324276887,4.342714964110491,-0.7472499380332882,0.9724330222813484,-2.099981394123101,3.657267869158617,-1.187247957838514
4,2.526312164278636,4.802027876569975,2.430834467280484,5.546576805133152,0.7842666400858217,2.016104572245392,4.542943909996884,-1.9843631610571129,6.066886237815925,7.853903118081491,5.058929291725462,5.322176308102608,10.428009971092782,11.437916474505219
5,3.347880133228771,5.028583624105537,4.4438396972997385,3.4325757560047494,0.26402124046293546,0.08020671165295959,2.0639226775351984,-0.5501104887844674,4.3831244339590505,9.04642054014,2.925428140335831,6.315241752386263,4.493188057702981,10.5154101709814
6,0.6360752233900828,-1.51058964835959,0.3934078045833842,-2.1955756343526396,-1.1880311175213325,-3.7161877771435003,-4.379453009304881,0.10010878269525933,-5.342612149438116,0.30837495741056586,-3.0997852169084728,0.32996073084027383,-6.875973040043294,-0.0006499106392242257
7,-0.6795385499491183,-5.74234400156629,-3.470455178701867,-3.6335781026058838,-1.9464030784730497,-4.91234711281337,-7.296600566478469,-1.6798244897475356,-14.621846180104658,-8.603687669801989,-4.77015298198378,-3.8510940711706247,-8.738357426812005,-5.819589937467142
8,1.7557856130194456,-1.0676752106731457,-0.7072884085360209,0.38123131842375235,-0.7070437356027344,-0.9410280250145023,-2.15448209942544,-2.7476566067571615,-11.024506171390751,-7.8716989319120225,0.479556939666379,-0.34048848177758345,0.8601398074014821,-1.515265372986898
9,3.555253994117175,5.715106983292071,4.198165257763039,3.211765762751551,1.0799131496486007,3.664297389069155,4.96421428139412,-1.3381718529759097,2.400915209318048,-0.34181531657133957,5.103118271739667,4.51754160363635,7.796595650805192,3.321211225230251
10,0.06354339532364434,4.109753402015906,2.442268792316119,0.5632636716249064,1.198960632878832,3.111206715960381,5.045541868838636,0.4534095358671698,9.842681581289497,4.094445012082885,2.2178879540316467,1.4104222395430264,2.251571722888559,-0.5235881701312297
11,-5.583634671839331,-3.7530280493047488,-4.442993365646914,-3.1657337203599054,0.11880113296420113,-0.5910959194088404,-0.7552153614895972,1.2965592464927609,5.87900848661479,2.946902282561445,-4.189614958874852,-6.797190027010133,-7.106781331442683,-7.673786832702295
12,-6.025991847248075,-6.3693666738477095,-6.138866853765046,-2.103222183031082,-0.028496137436983572,-0.5134838091405797,-2.915723084226953,2.6678349130026078,2.1288467521270937,2.1640854271964716,-5.183306560317504,-7.952633123044407,-6.020407505386506,-6.1443761801213315
13,-0.4038493890627133,-0.701321143172085,0.4102414231511723,1.984595865806792,0.7717218332253856,3.5443308440930785,1.6922825083984965,4.397363441404031,6.000371694086981,4.1300068003536605,0.26715046870267295,1.3314779324849775,4.6865327169062185,4.438465843928017
14,4.326214435877888,4.045493161029923,5.9898170650703095,2.806214426084108,0.475723657470478,3.5750204831336787,4.906379053525457,2.9040365191867266,7.075964178759152,3.1812142407018436,4.608905127902431,9.627983771718716,10.392473847903155,11.268844314985722
15,3.6317007340710035,1.862067031557968,3.174640217583021,-0.6508357346371939,-1.2432374345583035,-3.7469709806790754,0.11952051828607266,-2.8390903949724184,-4.6742481703261225,-4.137813534470766,3.0591179378403526,6.545683843504115,3.1135042896073806,5.728785953357954
16,1.026923277715783,-1.461008501250342,-2.7609141591784785,-2.895211445639165,-2.080536853741732,-9.75562231769138,-7.107122682693737,-7.285851663358695,-18.329145129255853,-10.811137374054864,-0.5385699573618906,-2.8319793311519748,-7.864470870240637,-5.007565318673341
17,0.900335554760434,0.32951630692559125,-2.7934464554035188,-0.4818143008964169,-0.6224213093863843,-5.3169168382160485,-7.002289633425101,-4.75604269474297,-15.031220127678422,-7.303690116160943,-0.9789441797053335,-6.0764839853875445,-8.895255212330834,-7.926677106617566
18,1.324336385808485,3.286144037862768,1.868757014683931,2.9566243130544225,1.4968376664135152,5.322462107579215,0.47056088356598164,2.0998724104054376,3.586371526533475,4.50620775336491,0.32789047341252336,-1.1785497869362243,0.11065754396517578,-1.3187120338848923
19,-1.372416094836829,1.0112581669570644,2.7071360726747993,2.32016508764492,1.9912313286256857,9.871965851146586,6.407124927622752,5.140031277892063,16.17706550285322,11.81693299026736,-1.1611739366041915,2.4405301373039543,6.739535183242387,4.207710724526973
20,-4.92080258231787,-3.777962466736094,-1.8773866942613564,-1.423673207304999,0.8154317226232977,4.585103042719155,5.557222928337391,1.6862483176489065,10.990887279464916,6.752776959657716,-4.493312232415462,-0.5654937986292028,3.4403496827015227,1.2224116984281819
21,-3.916461903634357,-3.7927263968808247,-4.147591382639775,-2.8419740702300915,-0.46066853439508915,-2.5842960480210593,1.4025683802312223,-2.194714440657535,-0.6642865231597259,-3.6598118677674827,-3.565382126332695,-3.98229805963302,-3.1790935127887368,-4.526645122001218
22,1.366720210732796,0.75933643441431,0.09260334481817024,-0.22459065747345033,-0.9847686041601731,-4.654248906145063,-1.2057037601975127,-0.746159478687254,-4.176434736975541,-7.21857151766048,3.3822333099546893,-0.8758853605058994,-3.148991427945383,-3.2758526181867067
23,4.650907542590597,2.8956390130153933,4.3652237484748175,1.9318127211860041,-1.0727560063514354,-3.1503246343316342,-2.199640549633787,3.422338924791109,-1.0898477450265767,-2.1521365710877314,9.104399116558314,5.174167452126588,2.502441288034224,4.037795257016455
24,2.4278891965592893,0.0983870873914691,1.7058174370431365,0.027046053783695793,-0.9317708837694042,-1.6864112557999404,-3.176441191462858,3.5945282924487776,-0.8987573116005012,2.8293206695121356,5.501400114175154,5.452331080657577,4.4858720589675825,7.092463464544073
25,-1.5416739227588607,-2.482191431716882,-4.041101427531469,-2.7941470185077217,-0.2415020477714291,0.1522326516877077,-3.0503000816536288,-1.309974790298034,-4.06307265547657,1.8370678208339393,-5.116013477413912,-0.843704201810049,-0.20409303486847075,1.4906697014634165
26,-2.074945026001575,-0.6571650182613226,-3.9104034599102873,-1.4598614216132275,0.8617816019066615,2.960405119536698,-0.3041014873882379,-5.485223438650749,-4.009123072232352,-1.864637082905547,-11.118743128640201,-5.531805709591812,-4.4489464185852015,-5.036969020893272
27,0.47237861406131904,2.82808018033106,2.351078527036772,2.812683505844567,1.3944015797401135,3.6231347961576783,3.061452616090895,-4.326991218404792,-0.08458798989006387,-2.957805076977097,-5.42799737059982,-3.224958560598748,-2.771316097863272,-4.437699030901291
28,1.8064958859652775,3.276522804011317,5.996532937638916,4.118070546691754,0.7679537006933795,0.1476898813780168,3.447933799410631,0.1737984241708475,2.265946347958654,-0.9042940716229807,5.398089229122739,1.8764807873889842,0.8848718014815229,0.7214138690715928
29,0.4164393530355712,0.8687681289788037,2.508207256000227,0.9573573443685081,-0.15963036469349923,-3.509067369571499,0.7223248403131969,3.228896636580018,1.7924570911860818,2.0365844493282292,9.578526894295702,3.23848032815412,1.0746390300802484,2.991053907407203
30,-0.9082832625952004,-0.9936017560005442,-2.700106777264635,-1.8661440444038173,-0.19980325388585282,-2.516320970285305,-1.5827517915762668,3.145027971829047,2.3139290722478996,4.261561260735131,4.550082709227289,0.8944655301733456,-0.18436025526829092,0.996405849517414
31,-0.3950130258850192,-1.6444105493309584,-3.758225969380032,-1.4145092540394435,0.24634055629777823,1.3339880360286194,-1.2593917797977356,1.3747129006615468,3.749061093959552,4.096462736658558,-2.4160875779851985,-1.0167971460483316,1.5353116340125081,-1.2568141209337056
32,-0.3111163992374686,-3.045967971721148,-2.286904932206345,-0.9423149103816997,-0.3681101755516101,2.389684976724661,-0.07605219490149434,-0.6591776932931815,1.2807766769393731,0.0556236933197989,-5.68809451107198,-1.5530570000140724,3.867239992303428,-1.8919127780351341
33,-2.4779253462136284,-4.5449246902269875,-2.004391617431256,-3.1545683374278775,-2.0576242719344964,0.058440912440440224,-0.40396694271903966,-2.0269310730082997,-4.699280521863721,-5.581750204262612,-5.943734733985231,-2.2791406438374167,1.0209661173713878,-1.9407932889171629
34,-3.7736436766009924,-2.531641591601533,-1.4440604195265527,-4.214187195885103,-2.466685243629161,-0.7642067981924395,-1.318528935669169,-1.3878258108660237,-6.150628127206695,-6.9868798137218775,-3.8345512663995254,-1.932473242386287,-5.4212201101968835,-1.060708613275133
35,-0.013100211943877423,3.475805417812626,2.4076031312710233,0.5461027847711014,0.09694856545385967,1.577951995340135,-0.24951878458247628,1.3190001292771394,0.5008768844026332,-1.6631973565131648,2.311751486891102,1.8211301962751107,-6.545292471350295,2.1133651419701134
36,6.710703186155907,8.266129376586727,6.9650094936949225,7.852482443508854,3.652916285414012,2.35432459636179,2.503902402703582,3.167459047000318,6.638986602775222,5.23659062518737,9.716033613901237,6.1866684990326375,1.3099142930416865,5.9581420138578425
37,8.773918900217101,6.781283657141051,6.403579194035404,9.145355832410413,4.2952637276311645,-1.5530300292243906,3.5515980529464364,1.1824269302865391,3.1377211150516198,6.7145677873455885,9.893428257551337,5.164466868160659,9.522629311899413,6.0680153402185955
38,2.280955097202108,0.20057602525207674,-0.08639955795415669,1.6560578732467244,0.9678944758627169,-5.638612779343153,0.8984437916598889,-3.141011650895245,-4.960816064951158,2.4806630657539808,-0.2795044668226925,-1.579094722804095,7.128026879393138,0.29895169031606533
39,-7.316826342446851,-5.983741751320256,-6.8859880306756,-7.777632858466397,-3.1121224025451104,-3.9892728138928004,-3.396056414334869,-4.963219762111352,-5.213549240234096,-1.8801686039965022,-11.337240369293392,-7.210234774425816,-4.5646563812002965,-7.7646792703599665
40,-10.93852992837676,-8.116891704565418,-8.543800514347556,-10.712750131808349,-4.302852114172283,1.8813822213239904,-5.488779320478013,-2.215924446852058,2.6780098893067916,-3.1861206405420868,-11.474382585747183,-6.532087911267807,-12.462556806953945,-11.14526568158527
41,-5.707099201494873,-6.145889875778774,-4.6398500648213625,-5.491226777409055,-2.32254810682078,5.349117508610587,-3.337298720111871,1.8937368670657069,5.776427587651291,-3.429305406327593,-1.4140396109583295,-1.6413970797279773,-7.384293568974103,-5.8891686886805905
42,2.964755880052479,-0.9709279789237181,1.6236258158806156,3.04728572022128,0.5729008599676012,3.93575134404575,1.7900625634599119,3.4667437620326185,-1.658384004081747,-4.017730682782499,7.14195331560491,2.741715540037389,5.079461243928099,4.359857232355546
43,8.103290116698695,5.940040372744299,6.656665007693788,8.864976145125981,2.58407690646975,1.1007087573471748,6.0211547505383916,2.6101871945932325,-8.430331843699621,-2.474251155196595,6.838272721811873,5.013676771186148,11.78894632281576,11.125450547708473
44,7.441599255323199,10.28072597616818,7.885164982281834,8.447286912168778,3.166769535333594,-0.441608761659262,5.747499019902691,1.8403772490157857,-3.0843406813092655,2.8204948673351997,2.113926082242827,5.517988491264182,7.237832994308459,9.430347538497367
45,3.1209333871159157,7.0355346519686695,4.53121891422431,2.2990607450146126,2.117832558230099,-1.7935428462136578,1.3065363584583891,1.6929059443540613,8.974841450945942,8.401074764807527,0.3741782572264888,3.6766660380656373,-1.893927396976462,2.3379087605156355
46,-1.8425066513849628,-2.5113315654827564,-1.4641330372546848,-4.994559772142935,-0.27029649351313184,-3.636569820380874,-3.0418296851082003,0.3787598015287957,13.068353907509582,8.928484758103622,1.617738856948437,-0.6112149227558585,-6.391730115467992,-3.7657909744439424
47,-5.273428087192269,-9.509902546394622,-6.268155341342621,-7.821973649626687,-2.5209410484031443,-3.8756198472477124,-4.124754103902392,-2.7599557717226997,4.212282479987847,2.6622708385429834,0.49572150775072754,-5.051443658987919,-4.796740628559065,-6.338557507558001
48,-5.91916245914201,-7.209269695221717,-7.052654309725682,-4.606773585113225,-2.9780453866334544,-1.3389456009382956,-3.248609523314991,-5.5705751729859445,-8.930223036959072,-7.122081470529555,-4.589680247641329,-6.853743896156799,-2.115496866382168,-6.848282338581831
49,-3.79658027930859,0.3751846099282744,-3.99729554634181,0.8349154144116914,-1.6262402587638538,1.843009806405445,-2.7882050994065337,-5.289804343174449,-15.46221754373504,-13.827761496486287,-8.730628383362838,-5.151841811367472,-1.0820149388907723,-5.836084777475768
50,-0.1425138014350616,3.9011588873953893,0.6285872525413118,3.7989695981491343,0.10663098821437894,3.390450626521932,-1.6064950271734346,-1.3896356736493034,-11.236265519525213,-11.083810202316602,-6.398407445441811,-0.5593639166936216,0.5389137567051313,-1.8408511644970138
51,3.5003983263533676,1.331522671394159,4.522899815696847,3.3426883064383914,1.3745050274083974,3.4671681872214495,2.5815596109167065,3.9168566493870673,0.846833335867327,1.1695264344082636,2.2329969292399956,5.325084906218107,3.759873511509767,4.65115691994021
52,5.588313434094811,-0.5088214489845747,6.1006039610648415,1.5970301560853308,2.4636505621132105,2.6079437508830408,7.245228944421351,7.1568883351487225,13.030782550513273,13.496954687155046,10.637255950808333,8.80279994091309,4.929700856911004,9.505665884947307
53,4.5887400650725505,2.6123035463669173,4.489834346133624,0.18313253986965436,2.9919915057452586,0.09586383252946368,6.224069403323052,5.843181198678043,16.203817114623202,14.58606887834053,11.063738007991862,5.822091917053358,1.5767219638305878,8.668142880061858
54,0.6652879368569418,5.648459017471595,0.35612100423602294,-0.753779731461582,1.41509841002421,-3.5177392980358495,-1.3473496602777435,0.7390649692187866,7.309353374523487,4.024668334754604,2.222003859390581,-2.2490403117942113,-2.466743965510561,2.4284552518841167
55,-2.970494963730022,2.3938775798121683,-3.614280880461626,-1.0208704255308911,-2.1893807064356334,-4.949903683490478,-7.501578965690582,-4.022708015307399,-5.884272285124484,-6.736564988782602,-7.642615370416425,-7.46234581896815,-2.2277603974615974,-4.687460064149893
56,-3.158463191047016,-4.625331025193662,-4.695272468983199,-0.43427466382498964,-4.540683486731767,-2.0879644741990417,-4.946638545348296,-4.750811936427142,-11.881677508480621,-8.46297687403995,-8.759019574087867,-4.295850079972339,0.7408441106079088,-7.971863059621641
57,-1.348173304922462,-7.6117759281053265,-2.923742607231444,-0.20606644281615166,-2.8191309015236268,2.2481064251903833,2.5673979733682057,-2.2776154471608225,-7.980156228892701,-4.287687854548303,-1.8859560226342578,2.0522052311006282,0.7947196592356038,-6.556659285523148
58,-1.6490670425240783,-4.244574198387036,-0.7543320760608898,-1.60648058631391,1.1303026027880432,3.444451114395928,4.9808620098667165,-0.4136551613011746,-1.4507064253560995,-2.059780097168912,2.6576425273573454,2.104139501074846,-2.8344002596220057,-3.267213807250235
59,-3.790893088871051,0.538164805302786,0.2494520398295749,-2.969939873596075,3.000866711762303,1.2445327465684226,-0.06310030008846816,-0.5350577711599104,1.756332604911182,-2.024574207702397,-0.07966032408039556,-3.7780105356131717,-4.647620620298576,-0.3310318875164439
60,-2.537432911170404,2.6447725524534897,0.9201570889718075,-1.1357197254034492,1.7362664875124376,-0.43981484663268267,-4.644206731746216,-0.39582989340645963,3.252761321880719,0.9458604934958343,-2.867515797172736,-5.1682356851975095,-1.2174481414666023,2.9995486091773294
61,3.8074954273815607,3.3419216197685597,2.2606606846998503,3.217872419048594,0.09300529299013478,0.0784018059712519,-2.874349070791827,1.4382633640281526,5.309556604600856,6.183065434889652,0.9982467504896466,2.472739013638446,3.624840929082598,6.895976831704959
62,9.010066506458557,4.7148670748159365,3.453929900463545,5.22075226539475,-0.08282162906111937,-0.06058787083839814,1.4523732555766349,3.120869827774555,4.738443364234326,6.9535450644396954,6.20523404380745,9.787949934267315,4.515002555641504,7.863021631742711
63,6.819240034608096,5.0702905181972575,3.141639999966863,2.5508408531075526,0.13006554063123754,-2.4539234302831967,2.723187382362835,2.625871569531318,-1.1403672323720193,1.4373703674909233,4.739081638358578,6.979646090130913,2.211317301649132,3.294740313234094
64,-0.46829360996796143,1.555108033862649,1.246978977675514,-1.1622076597225548,-0.3244538844236027,-3.338183826035547,2.218892047438658,0.7124431540670488,-7.106894589174268,-3.7637980726327833,-0.35187684875094954,-1.796617292444095,1.3955360034626052,-3.018287391120809
65,-5.843889297853891,-4.713070227981715,-1.558970715280142,-2.1733949317513415,-0.6978736553108388,0.7065991554686217,3.4157256908320224,-0.699480417483018,-5.254951265300391,-3.3042350094198434,-1.30382912534045,-5.692948356756568,2.225083658873131,-5.295344786932461
66,-6.883981028698752,-8.804086286086918,-4.672228525439768,-1.989093192991456,-0.5338325339083567,5.7650669570985595,3.8043882833258236,-1.2283803603317827,3.693832286489912,-0.21437473725068817,-0.30015767559440654,-3.6177910429728426,-0.3982329293435975,-4.2258788122026525
67,-5.97577173547899,-7.1622088366840995,-6.543316704877692,-3.271851803219871,-0.8216196452449536,4.78833383841343,-1.2023691085542434,-1.6142906430956048,9.857728651609166,-0.11696084641111475,-4.625032873157844,-3.141417003435752,-7.464156269944792,-4.739539479804523
68,-3.579713396646328,-1.1240131155792479,-4.56498050509979,-3.911113665314742,-1.6545112818806638,-1.9909568494694048,-8.568406293390554,-1.8769691599625717,5.863304341790086,-2.7671921368048844,-10.232014437290323,-5.473271442211676,-11.103007897436257,-6.04216058041442
69,2.2213950551281387,5.023143741663911,1.8025117173276162,-0.253410391507537,-1.028718469756772,-6.49061025987688,-9.441781538607687,-1.3642048333956556,-4.552398615923865,-3.2515768276687025,-5.308331704156877,-3.100236805170137,-4.061083550090128,-1.591062910823466
70,9.304040363367223,8.121251805146803,8.404308015768708,5.600293840771759,2.013854331805225,-3.683768312414905,-1.2655828049041977,-0.14890398890149875,-11.237419837824078,0.5786251625289489,8.880165776039522,6.084172960690119,8.864925172543739,9.030951344351491
71,10.794586817728282,7.3648270584611035,9.218337088391939,7.1589785879224825,4.6215617567240015,1.9131776302475774,7.871896039695949,0.7549153475886043,-8.869347120289982,5.104563751527975,15.703009291347835,12.600799170302487,14.640186141671442,15.423584190335859
72,3.5479459744191613,2.993433091354829,2.7314717364624865,2.3159015074431064,3.0788977581584502,3.226843463409059,9.113379505370997,0.7568372723435708,-1.311176004937205,5.188345502812516,6.401916920154476,8.034987342311059,7.272397062170371,8.523259401536482
73,-6.439091233756878,-3.6218384922277256,-5.625596519461471,-3.725213327270846,-1.881614654235704,0.29792532096842,2.98756322714193,0.7120777343219836,4.860727943927937,0.29509035098859837,-7.229449369901211,-3.1539450657574544,-5.211785654222449,-6.588811598626606
74,-10.338268409149803,-8.64994364118901,-8.64602714246551,-5.334593076625258,-5.206234713076339,-0.9951039596297728,-2.8796744719051035,1.8447479096726134,8.08247692579714,-4.164050547302852,-10.232167593353987,-9.833914423616946,-10.541048335781024,-15.488175585363724
75,-6.202147277418058,-7.798237915000076,-4.661501243854568,-2.6865033341365563,-3.5691425210253716,1.7389604156481644,-3.5666178296799327,3.374676753548636,10.121206710182499,-2.873687087750047,-3.8254323330555247,-7.7895347283574825,-5.910304421434246,-10.728695558322467
76,0.43546458413389444,-1.4844082223096307,1.3813296415028118,0.350016859115885,0.7084248984058175,3.8079033782833824,-1.3329208760160447,2.375601204151822,8.887127907420258,2.0597477176953705,1.0928989317404898,-2.042601365296655,0.8145222043548697,1.1113462386150839
77,4.158558600632847,4.383117500904104,3.995344024480093,1.5497263192040267,2.978205117569447,0.49605544142525393,-0.8516249959120505,-2.3116202216543655,-0.16618514099443663,3.116998411647149,1.2716048410664262,1.737117383426601,2.494617753066128,8.591568571140709
78,4.561835421446028,5.186714041119147,2.76827675127911,1.4635792848798113,1.940850000329914,-5.321150457037912,-2.5275922246803635,-6.737738192113151,-13.487921011462975,-1.9413804012484295,1.7382617415430803,3.051322234397128,1.1381606313909258,7.49970894228613
79,3.7527506256867675,2.977854341099994,1.18863455733733,1.1118379474167996,0.21137496522104754,-6.12641608339404,-2.429688953730464,-5.415310736025312,-18.11796601974448,-5.913435898076015,3.911185993979381,3.960523747833123,2.316259401033835,2.384946035980559
80,2.309120733411029,2.0958275461744496,1.2177762936743373,0.7283190007596807,0.0017258748966940268,0.0017661225213430201,1.3898458070920992,1.1175761621710947,-7.357213851225665,-2.3071418183640398,3.29994356796183,4.433983629312022,4.792976154694847,-0.9695315685100488
81,-0.5085127401548584,1.8402206519128406,0.9992139632361462,0.15277482011689203,0.4337953478382338,6.013897072986589,5.161229417308874,5.714276823437404,7.960709291208844,4.540799958094307,-1.5257254853064024,2.3793618152491494,2.2390394856778384,-1.7697887205536693
82,-4.045106002043853,-1.6295862675323518,-1.6154637253007829,-0.7618622308230298,-0.31919041031552875,4.9346022768438065,4.175648419875048,3.666151197556101,12.25991606322261,5.372664917515306,-5.40581324323797,-2.4248985479207343,-5.09451161438729,-2.9205754143380704
83,-5.76436550680242,-6.991381870493562,-4.870121171677985,-1.6610450920514137,-1.8551779969579363,-0.8653989816457804,-0.47291615531630116,-0.948435435522099,5.488048505683047,-0.2665371589586694,-3.7702127741484426,-6.304647706331925,-8.306452080461941,-5.047981266016223
84,-3.6758753684643346,-7.342668437401614,-4.436001180317741,-1.3312566253296958,-1.963713351351944,-3.4775719195156376,-3.3552736625683792,-1.4374091936016573,0.7482895302616305,-3.461838098991437,1.3193464624750566,-5.083161876782402,-2.4694067367452255,-4.14786576700798
85,1.393585575513367,0.03456066135808078,0.832695881870864,0.8532643389168477,0.17033216747624338,-0.8166807284148919,-2.27982952349713,1.6769682654456648,3.3884473635326406,0.3923611851923227,4.478640486765766,0.7196818414084295,5.689626632940975,2.583401417498408
86,6.021875804826117,8.30014115363842,6.311434278455776,2.934730941912603,2.5057106373796527,1.2010930517377334,-0.4591807069949089,2.0768983752610346,4.165733570067448,4.652339768465028,3.601383924612017,5.6813343960417475,7.459273689287909,9.955863238811649
87,6.635792218747383,8.840655844080429,6.32898927435937,1.9753995028364886,2.4024080324443027,-1.4528891020448962,-0.6003119853166589,-2.0757918430243083,-3.9742156940597457,1.755091648381864,0.8416513419382101,5.114540521346399,3.361958590942663,8.748627007170217
88,2.3590709081201817,1.5019210656563142,0.7202014647486165,-1.6376241451708677,-0.2333173212314456,-4.2467930961336435,-0.9508830787794824,-5.1210663275648765,-13.135977176437065,-5.236092746924734,-1.4594023429496503,-0.059748802541214036,-0.9430173122442755,-1.998930153466554
89,-3.8810770868514117,-6.171913747179414,-5.01586761249424,-3.8962694128418276,-2.6978034109133966,-0.9434887079654235,0.7730710247890015,-2.5453054744686243,-11.517854847161288,-7.173123052791774,-3.057688781806342,-4.584760256972894,-4.076315145903587,-11.582247664455336
90,-7.297460327037123,-7.838470101057891,-5.936474375284962,-2.2864911759517526,-2.3856021711550053,6.150254836861292,2.9692431409148727,2.443357321400251,-0.20549613469220376,-1.8202669889725493,-4.018046598698424,-4.320565748550531,-6.988206627099798,-10.083967207538999
91,-5.207687507329101,-3.514899599702467,-2.4223580648223484,1.1093321620798329,0.40061955988067266,8.08572297767238,2.6899470067099394,3.99243395637227,9.196288792165529,3.9991355658523657,-3.1839461635574238,-0.12968013510135862,-6.461684661558834,-0.35462960951852784
92,0.44461473473637736,2.5114659317630736,1.5035868750910637,2.8477337325057106,2.7258779594890488,1.3098087349119405,0.299549424646471,1.5840234822762183,9.928554858392037,4.610147178820197,0.23256228707796678,3.3159948757841105,0.5511673283875672,6.9102553224999745
93,4.906227111056137,5.83651320382036,3.0271853350782805,2.262496763349638,2.1279437330377413,-7.097317738230267,-1.597954280687671,-0.716875033626415,5.445461719010694,2.043794711368567,4.690018427066942,2.686460876363304,8.689606230568625,6.937502939327538
94,5.217613032460536,4.607243077846273,2.6238705297886895,0.9243521693595771,-0.6813858875661715,-8.425833906776623,-2.2624919165691315,-0.6989325550965677,1.204536532193234,0.9860946979831051,6.947496802124148,-0.2240769183959126,9.160300168208163,3.9881830150578157
95,2.4731116137558167,0.43332698710869366,1.9296245127178715,-0.22911336495753576,-2.5744184156683465,-2.825306969060924,-2.5955720398326716,0.009008186139747,-1.8285697898151159,1.5721696133384704,4.528840255733029,-1.1093036037477222,2.0685339550456723,2.080550384271287
96,-0.5417819403345693,-3.1069492015519278,1.0399409305284744,-1.4252591964788053,-1.5764785789948519,2.814455433169936,-2.038060725711438,-0.49386109194646116,-4.853511123649973,0.24494529287418695,-1.8127077798686704,0.5614336496839135,-4.163574259258625,-0.607862412261551
97,-2.47257862255768,-3.657699639200603,-0.9287593395128715,-2.443319578560043,0.9734037605703991,4.695082532829654,0.6992150636601254,-1.716046288064993,-7.181940299220447,-3.8974508080513717,-7.430743568777789,0.8124812344269963,-4.9874247477316525,-5.838026947789537
98,-3.2168377833938155,-1.6169250478557833,-3.107465854945225,-2.058787440495213,2.3399317921757206,4.663885325472072,4.12416530126847,-1.7708980554458444,-6.283468456063884,-6.647127507869509,-7.1903156433801385,-1.9490187608225626,-3.3931442476070637,-9.119423154621279
99,-2.396037142283436,1.1186362589434116,-2.9765459307742765,0.3103405277644111,1.5907590282124267,3.898253561143137,4.590316474864559,0.2583651991963383,-0.766638297876867,-3.730464563357916,-1.1620087712544347,-3.320905228065654,-1.9664663472969586,-4.723203512764092
100,-0.15182104558383347,2.5407424695370664,-0.2527497785477845,2.8796768086255558,-0.22200995321107234,0.2657875399877544,1.0130899324236675,2.8460512719921813,6.591588530547306,2.9521185389972047,4.6357086435322445,0.11878051375164007,0.1706534246283933,4.758123944635574
101,1.6018079820355777,1.2040972342925955,1.6805475448737859,2.653094810176742,-2.105873911203467,-5.881643937107616,-3.4458532848858625,2.9965550898850073,9.449836744275414,6.678109573141488,4.9660000690689055,3.9418882155829005,2.1275562600951674,9.549280277446424
102,1.2346350990104373,-2.0797097543132157,0.4695060198441275,-0.7577516740489754,-3.36942631360442,-8.442841648996799,-4.946722281894001,-0.13927613610066916,4.27322731372921,4.121778674101475,1.197475909432301,1.9485833602679783,1.333450704222252,4.8038076388941
103,0.12517541576012878,-3.435890670614268,-1.1562882950301927,-3.4802610855067524,-2.419513343167223,-2.7418780981811905,-2.552645045878011,-3.1975004621199936,-4.060104490442491,-0.6261637231210474,-1.4440875299144234,-3.1856138707862782,-0.2817622799545729,-2.9383042662620427
104,0.7278736495218283,0.042567550675928885,0.699246605850412,-1.6073176264014297,1.7422929071993465,6.425520893692461,1.743407456727735,-2.3664938670305737,-6.858001471585228,-2.120417241286215,-0.6694195542489756,-2.9744203990805262,1.7502961695842696,-4.456242548789032
105,2.361553471884632,5.132773894309644,4.408295686592224,3.141182769953249,6.23237874015387,9.047267950745045,4.788425197515061,1.2598030961384559,-2.218700049056797,-0.664620776330904,1.1213932761128265,3.225199499776064,5.406445030684215,0.2193934732884844
106,1.9004631230196642,5.150105455028206,4.155741789108789,4.649197476750292,5.675006472342212,2.203990344128706,4.020978688217687,2.9804330532009087,3.1343974296598267,-0.22922133761137214,0.8788829050156208,5.9918310163292405,3.4805204940674517,2.9145217665967507
107,-1.2682734727284062,-0.9289833975093797,-1.6357350236278951,0.25136430095965184,-1.0149057929491432,-6.2527532516226145,-0.5451150722748836,0.9299106399772797,3.2106706943808265,-1.691076561282805,-1.36062730735699,0.05275945933868258,-4.303619595303032,-0.8218538116518526
108,-3.968368619228045,-6.104689288159785,-7.06545924950127,-5.188404827765985,-7.558745011065625,-7.503402888175011,-5.281929875006627,-2.0700088289260137,-0.6943522693164278,-2.316894610527193,-2.9023318155901623,-7.005427827033899,-8.80136062813652,-5.754849788604318
109,-3.536118860809297,-4.641150792574139,-5.9708030794221845,-5.181670470923385,-6.974938776292183,-1.5134306288500223,-5.488644600877621,-3.161778281217508,-3.9961562557630925,-1.0498724601388139,-1.8532895627277073,-5.695716225833982,-4.522556668221654,-4.5347040023471195
110,-0.8448722131022731,0.2991359691163908,0.29276223931937495,0.11802306477933311,-0.12261678671518708,4.820841275305496,-0.4130052255581963,-2.279222492131946,-4.517260921810541,0.023559895452287177,0.391983837419694,1.5839577827219582,2.12366862608546,2.208553054652159
111,1.7621464826306779,2.305039355016795,5.122617817408325,4.508853228722186,5.573808011144285,6.056191086061917,5.169955872976297,0.13070737998303206,-1.9326340427079656,0.19286462574488644,1.1836242616775001,5.071335667318471,3.0120457693985467,6.985010455298323
112,3.254739351042506,1.4030320950267805,5.028401022979943,3.9697334324254996,5.4113022181179495,2.390712160085699,5.940871222150899,4.027517708540637,3.901792031681236,2.0127091325360706,0.8732122119401063,2.3620217042701754,0.8234880362616198,5.386524527986729
113,3.4903019918051874,2.0997536116573094,2.2159358922812946,0.7684105418668629,1.730440206480706,-2.2749665931077656,1.8874515097826348,6.975981140836902,10.297463588208398,6.024082463101725,2.093572387609736,-0.03705543932536172,3.270143015953847,0.5379699751290429
114,1.9590139226248364,3.8567967677789556,-0.44724425960797426,-1.2930741335938845,-1.364806546312035,-4.24773965259801,-2.5464524117342,4.64298379087028,10.650434432593622,6.939915826359559,3.9723053880100627,1.038739714938777,7.968899590840342,-2.9486670351404536
115,-1.2607695593880768,1.3680776829907466,-2.702314865134246,-1.888793494083811,-3.1250737420730923,-2.986477021568535,-4.209030407396703,-3.102991923956436,1.0172025524749422,0.015332867746391539,1.7538897938616607,0.888212954726202,4.237098819532312,-4.644242878432036
116,-4.154037820114029,-4.952259370143309,-4.1909009089319555,-2.245496462498877,-3.9076194706155363,-0.9117506359712843,-3.5340876643662567,-9.734606599202166,-12.784774672188234,-10.077652821724703,-4.8304994326103,-3.1023113626469923,-8.191910246490592,-5.271759802145275
117,-4.1203077996534,-6.978450032246292,-2.827551971758492,-1.6301289918750261,-2.1221936698463533,0.3006652940292831,-1.670701827188449,-8.929061483329265,-18.77953978102412,-12.694297559502393,-8.05607413554987,-5.463812631340794,-14.27982367401029,-2.6734718389709315
118,-0.8976908672343917,-0.9162951973883672,1.4169467796078925,0.8106015736266188,2.6045925119418993,1.8791582067592927,1.1941712781666636,-1.8082021087306195,-10.710328330447854,-4.513519573683098,-2.393621562905392,-1.4820003901179406,-4.596106048349175,4.0220881375303446
119,2.7885137371004793,5.770862750500582,4.347284586471289,2.9349935392816566,5.982932001180655,4.448455154959673,3.936313012865789,5.386994805358252,5.595285754790776,6.107689487079082,6.102369196333381,4.333280073150267,9.205015961959543,9.094951416574444
120,3.8697861757615657,4.805614935683972,2.576581901448212,2.0239492140742437,3.40794546444919,4.671266069729911,4.0836573248271915,8.563618946697376,17.951840294573415,10.149310023499718,7.243719849546277,4.696350204574499,10.355453671770505,5.64026180467031
121,1.8142641473048406,-1.1540919112578154,-1.4154746269917067,-0.8366867176539644,-3.206590789228412,-0.4836267215072889,0.996078302560504,7.629730724646956,18.192879035794363,7.880608855167537,0.6320423027007968,0.2773645321283236,0.5372154546118337,-4.1100980766996305
122,-1.2010798242688032,-3.557990524002485,-2.66641815356536,-2.0829673217865987,-6.8855221833946665,-7.242613720129159,-2.510170222980774,3.485833626067067,7.383532764137267,4.359540933751711,-4.8305106978609675,-2.3337193765488626,-5.146674865461477,-9.889401912982057
123,-2.503313515840563,-0.710209408887194,-0.577090520636029,-0.7615818753292237,-3.867666459928631,-7.722244802162038,-3.2624982243464977,-2.600617947910761,-6.431069706790332,0.3129579358561511,-3.7000855873611305,-0.9393097655188613,-1.6117830167858476,-5.842026134402934
124,-1.2735175392490217,1.611797954743676,1.1793383184100246,0.7001223883429368,2.5241904482684374,0.027593645566887186,-1.2641396804286396,-7.611088044929787,-14.724773038656853,-6.302554200971015,0.5600163667466278,0.42145362939024616,1.8662060340868487,3.0441779645772162
125,0.8210211366631083,0.35617867444690515,0.6337474170588058,0.6039990311414524,6.372424249941441,8.419191664346195,0.9208158901311307,-8.506021972791956,-14.359384925780084,-12.348537350502692,2.6459490240858754,-0.6765914497920527,-0.5297820422581395,8.145775401519044
126,1.3585684696811238,-1.1119128306177188,-0.358129944071481,-0.020691366618676342,4.974357965867267,8.50803742261478,1.2921542277900695,-5.219736575897747,-8.089584834120284,-10.598907433502884,1.8059914157182946,-1.5339548370201415,-2.9055868503596636,6.265777989479405
127,-0.13658156126615295,-0.06812201846079877,-0.13719636414321154,0.0030902145616611585,-0.09063604186860649,-0.0827235571366535,0.015785513129338527,0.06959821918557679,0.09513650530467457,-0.058957125491055806,-0.07921015089977745,-0.00949102304878904,-0.2647828475395686,-0.008657449563154264
