,AF3,F7,F3,FC5,T7,P7,O1,O2,P8,T8,FC6,F4,F8,AF4
0,-0.3200461149021612,-0.8876492318126452,-0.3490814146411945,-0.4230711189431181,-0.38743863067145284,0.40942990475447677,0.21630274216966297,0.4284343760818139,0.43643693797211064,-0.12879220398835264,-0.25934974860991633,0.25643151002349773,-0.7895975134753865,-0.4225832698613488
1,-1.8258362121673284,-1.8740102516797572,-0.23905077464802926,-0.35035172504524636,-0.5292355106968861,0.8630127023930738,1.1839491815016394,1.0925116213540627,2.426900151274636,0.8873243066713291,0.8143240413144338,1.6849031418831315,0.3532210508448914,-0.04031242464143243
2,-3.2248401831224225,-2.7359288465211913,-0.20547921861329338,-0.2972927538925081,-0.6375765962062274,1.1900409653364648,1.9704508459157775,1.6410649355366982,4.159110618337209,1.7459351066175395,1.7508660347724083,2.8859291099317868,1.3613321999413315,0.2373961210234444
3,-4.479486212361612,-3.4262847862084693,-0.355948614993291,-0.2927153418818101,-0.6942193437451577,1.3330883519110368,2.447428731388844,1.9977450728679345,5.489438712910797,2.361762689097858,2.4407025609675554,3.6417030993514117,2.077118911629062,0.2712530170616186
4,-5.55561709602133,-3.9089823914881285,-0.7651367319050542,-0.35445694437931285,-0.6887642275816338,1.2581283819926954,2.5300909943578813,2.1068223505502446,6.315059433727408,2.675111809178057,2.801452963382944,3.79381705477151,2.383373185708402,-0.039333586700351045
5,-6.421654713426417,-4.161741369825988,-1.462503467029987,-0.4873760325952703,-0.6213685047860142,0.9593560667295867,2.1882578254255414,1.9400989547099143,6.58183025332836,2.6563139638854336,2.7855880296038875,3.264176475821235,2.2169608398075358,-0.7409790903629954
6,-7.048437069916821,-4.1776785799723095,-2.4259380914632525,-0.6829763932942149,-0.5033319178656351,0.46076175203976383,1.450215194621219,1.5009761229401015,6.287742859360876,2.308141615125804,2.385195197170492,2.0659943892395405,1.5762637782015094,-1.8176289288522844
7,-7.409839075088057,-3.9654735225814544,-3.5821883812763264,-0.9206441074590337,-0.3554163178583984,-0.1858687141758606,0.3989383508644773,0.8251245176611923,5.481699237995822,1.6659686675566523,1.6333968000466155,0.3035441624244853,0.521641333469198,-3.189571530598583
8,-7.484164870535203,-3.5481151946058396,-4.814104184550438,-1.1703550867938866,-0.20421043425762203,-0.9064640145101629,-0.8388024228212927,-0.02246259299031604,4.257684954299186,0.7954112306567327,0.602097792086578,-1.8393304464081224,-0.8311482867637384,-4.72046804754439
9,-7.256173002345857,-2.9604124168363413,-5.9739155723423725,-1.3965667671680404,-0.07722348136056766,-1.6131968024026495,-2.109021555120673,-0.9538689453503519,2.7447639539558786,-0.21275723634128552,-0.6040361912558326,-4.120610201739404,-2.3238924123723512,-6.231818685042227
10,-6.719483575435446,-2.245587880983762,-6.901021982421822,-1.562867938132901,0.002376190801017119,-2.215132557843051,-3.2506065512143536,-1.8675423910037028,1.0936929588618551,-1.2504266948289784,-1.8571448088099145,-6.268860694806719,-3.773863856487249,-7.523402352988305
11,-5.879037389625128,-1.4513595626885591,-7.4421876530091415,-1.6368490402695441,0.02040135940053394,-2.629767004969725,-4.116273460423658,-2.6595324691620323,-0.5386702919720873,-2.202391968758268,-3.018658502221694,-8.01590643009348,-4.994808665064637,-8.397456300398204
12,-4.753244134934693,-0.6259450658377007,-7.471700261579722,-1.5945977082832066,-0.025197011038593432,-2.7940233564987755,-4.591632213321164,-3.2354480721846204,-2.0056527912800792,-2.958289674993712,-3.953659688864751,-9.129466775574633,-5.818654006135305,-8.683815220296232
13,-3.375473908376712,0.18558837628346125,-6.909006111254338,-1.4242418946417863,-0.12325765138005557,-2.6732559763851325,-4.609858366487684,-3.5217382605342937,-3.1859972607894775,-3.425089110183582,-4.545708288952638,-9.441785066482346,-6.115483561862983,-8.262995691255426
14,-1.7946084108897165,0.9442578890367069,-5.731601150954906,-1.1280633751660931,-0.2506653966370595,-2.266973743037102,-4.160059669902395,-3.4748978142003195,-3.996228916457932,-3.5386686862121675,-4.710481996177007,-8.870759058746176,-5.809483284500201,-7.084342366977431
15,-0.07446262802237533,1.6191016538654612,-3.981505659152998,-0.7228781718522351,-0.3757848744771766,-1.6103473810859488,-3.288277307855699,-3.0873808064814265,-4.398527691903849,-3.2728662977765124,-4.406540052026043,-7.430997379002751,-4.888987137170644,-5.176847869599998
16,1.7080036189893877,2.18796062031193,-1.7644135378738632,-0.2386027702285892,-0.4635532554751442,-0.7710688380197861,-2.091057209238562,-2.3893616736940895,-4.402923047015424,-2.6445023836416395,-3.64171452406786,-5.233468342717821,-3.409407585990336,-2.651069192237848
17,3.4656609612800504,2.6370994656570153,0.7585149403488688,0.28483657935206436,-0.4814337207298291,0.15826663120739715,-0.7025295316606236,-1.445977613615663,-4.063319069492546,-1.7132649316799882,-2.4740677638506052,-2.473814358991018,-1.4886471086799278,0.3084041261875459
18,5.105261217439539,2.9598260217926007,3.3853686066351854,0.8018729532154383,-0.4052824041620976,1.0714571202720966,0.7231941099661859,-0.35025879426617057,-3.4677106227975982,-0.5759900921513732,-1.006991377870914,0.5892043722185847,0.7045374608959863,3.459344718615521
19,6.53238006853541,3.154422071104248,5.893088520543838,1.2663938405876205,-0.22418615512000167,1.8623041988060016,2.031876169981052,0.787471620693264,-2.7238423750308187,0.6443088357990595,0.6212153026888456,3.662476006563873,2.967909743238513,6.525471076455242
20,7.6570072070983715,3.2218133091699497,8.059766417445717,1.6369086569122366,0.056516999778805935,2.438754789463664,3.0885502810094145,1.8524482906328814,-1.9423421778101952,1.8134438425832253,2.252171196311626,6.450999916720537,5.086869483670675,9.224639054941926
21,8.399487224658317,3.163459076690543,9.687143616965644,1.8811239262225732,0.41454690896353275,2.7356048142004847,3.7938463727835576,2.7389434427283597,-1.219877151315917,2.8031085150342525,3.724865216737347,8.690133324572743,6.856863548941382,11.298456895914452
22,8.696472314966437,2.9799204284898084,10.62081793350195,1.979345486510313,0.8124835939323264,2.723886224059707,4.095095303814643,3.3626263970747075,-0.6250106246574879,3.507525601532694,4.893532349856094,10.173809362374234,8.104512184600532,12.539926692977323
23,8.506518369645718,2.6704694393276593,10.765971068402594,1.9262980957004048,1.2018650110346254,2.415442424892297,3.990833303530738,3.6701734692622727,-0.18911462045285918,3.8571379001150152,5.6436582285663475,10.775497245393598,8.705074948410887,12.81592923235602
24,7.814939950969561,2.233944697161161,10.096993695890353,1.7311878940980574,1.5290646252363058,1.861835498897386,3.5282898941649687,3.644858176838697,0.09606756267310042,3.8271641546796027,5.904080558547755,10.459659297712125,8.594398732532735,12.08198807994853
25,6.6375333782795725,1.6708516686446293,8.660127971593782,1.4160946489905726,1.742200378761193,1.1475365124183479,2.7944576789902684,3.3074027413316753,0.27370418395653323,3.4396268425666157,5.6537387806010395,9.282707082458131,7.774243070884785,10.387688861471798
26,5.022774185917112,0.9864683561125354,6.56905733873434,1.013020635348769,1.7982003531053818,0.3782067874083759,1.9022516721532896,2.712033888200576,0.4107364783634319,2.7585273019586882,4.922419819072891,7.38379093221914,6.310742441390813,7.872254482805091
27,3.0520938987180033,0.1944729749430194,3.994135919266236,0.5600949926485522,1.6691344564997588,-0.3343504462422351,0.9739278756203715,1.938358482362543,0.5822127477848201,1.8789974237295306,3.785710731439633,4.966981264291646,4.326598311720367,4.750923499386561
28,0.8378541424763831,-0.6795983834259495,1.1465680359040746,0.09750484059357763,1.347007109941997,-0.8884271275272321,0.12424464889864549,1.0802543995253238,0.8538520147353034,0.9122758542657168,2.3551462991840584,2.2773459083886194,1.9882652234386804,1.2937897181429363
29,-1.4813088338830114,-1.5958832710733866,-1.7407401330017649,-0.33631187007113833,0.8463762243876717,-1.2074427025911145,-0.5542269992894702,0.23337116272354494,1.2659861569519435,-0.030955180992226033,0.7651057087431854,-0.42602081491909477,-0.5101831628274783,-2.2004877661108835
30,-3.747966250017184,-2.499536236079514,-4.433753115478734,-0.7078070332960829,0.20439724956581562,-1.2514904422848676,-1.0016835424209318,-0.51700520056166,1.8218630669344669,-0.8561097975597416,-0.8417101754798674,-2.896846960564071,-2.964681411951468,-5.433275886628295
31,-5.7961726972705705,-3.322557443165276,-6.7174309976516335,-0.9905793422783297,-0.5218354923103996,-1.02359122616201,-1.1963258068252014,-1.1060687463481313,2.4825855114781055,-1.4966267825970756,-2.3284186646130642,-4.925529373605005,-5.178578174257712,-8.133957747450674
32,-7.4641682241198,-3.9884696893104548,-8.413732669525025,-1.1667246321578892,-1.2604877707579534,-0.5696203135829846,-1.1538951586830948,-1.4962781819564537,3.1698318877221348,-1.9205116465275935,-3.5762019212927996,-6.357700154462354,-6.978395710643884,-10.084649408971966
33,-8.608723838051844,-4.419756240279002,-9.396127228964296,-1.2274088251033215,-1.9322775588467715,0.02817665356871337,-0.9220262641506325,-1.6800200332877326,3.7761593946413465,-2.130723549030468,-4.493613012548227,-7.106026924940104,-8.226891798192465,-11.139432786595465
34,-9.119909655692316,-4.5474366432273134,-9.599595976558662,-1.1728695428285234,-2.459155805204723,0.6631836740499194,-0.5706642966207304,-1.677980841264408,4.18137297834259,-2.15973819003126,-5.02241457680685,-7.15460920364345,-8.832741964718693,-11.236503090302852
35,-8.934687898770285,-4.321628101436001,-9.025469220188983,-1.0120447041845144,-2.7734653479236404,1.220187080729828,-0.18027070829181505,-1.5336735549623732,4.27239102265583,-2.059606416175502,-5.139898584615335,-6.556126359217122,-8.75646597226962,-10.402310657782191
36,-8.047512350936744,-3.7215283318592585,-7.740795451895455,-0.7619484796112683,-2.8265392669887204,1.5925966281873258,0.17029606741468384,-1.3050802566193351,3.9634285143532746,-1.8895347750981621,-4.8579966149198865,-5.422554236182162,-8.012447420378164,-8.747476551677696
37,-6.516138229805359,-2.7630702314096713,-5.872286510205983,-0.44680012939555036,-2.5956748679392256,1.698571116233476,0.41449074317396994,-1.0547251313600354,3.2132373262899208,-1.7033320005327957,-4.2197124080194754,-3.910761931305722,-6.66705898985947,-6.454942939918164
38,-4.461167411464513,-1.5026132916031119,-3.59523080893478,-0.09680329087633754,-2.0885159702891696,1.4936786819969128,0.5060583667417753,-0.8396430962366227,2.0365810755756315,-1.538964963586081,-3.293506793480352,-2.2046229630522425,-4.833047753970494,-3.7614564695555077
39,-2.0584810607921216,-0.035471117256073076,-1.1181261712316235,0.25358449486166723,-1.3441024641733261,0.9782548763981707,0.4235235413530657,-0.7026570160741575,0.5079847015070967,-1.4119931884160573,-2.166276976530461,-0.4954412907082135,-2.6604944586056685,-0.934052113743645
40,0.4754070751896904,1.5112139509412188,1.3358471143779427,0.5680296952545186,-0.43019561964350334,0.19842105120270614,0.17104234328212645,-0.6661424917551776,-1.2430637639227973,-1.3139036687518897,-0.9355391576486859,1.0374745644834038,-0.3248609891384992,1.756319988935329
41,2.904021844196959,2.990852205319381,3.5490356407494605,0.8113773735462818,0.5630676689167474,-0.7593387745714244,-0.22400166814255587,-0.7290844779049347,-3.045043494616033,-1.2154807528255012,0.2986236018005788,2.2443377593122307,1.9871219038715573,4.061539961169229
42,4.99556688403987,4.253736303022947,5.32943073074678,0.9532391652326551,1.5326501028503656,-1.7792167975034843,-0.7158976893175887,-0.8677652598979042,-4.703881607057911,-1.074463642833555,1.441332245233842,3.0189463343268446,4.092728824674614,5.780795192719746
43,6.548677513572261,5.165242357458372,6.528749536350121,0.9717757138895056,2.374212465553972,-2.731129287277512,-1.2470533831782695,-1.0399257259812824,-6.026469578135868,-0.8460082837895168,2.4099264073006603,3.3080122290758855,5.828467850347974,6.780233531035206
44,7.415988840480833,5.623345026045568,7.056552066287121,0.8571640497436338,2.9944606286637847,-3.487646746787054,-1.7550266079784633,-1.191772828318276,-6.845129927425444,-0.4940027931821094,3.1397874218049573,3.1148768543389567,7.063923992356244,7.005600288130946
45,7.522251937587752,5.572801770856979,6.888722016240091,0.6141426838997669,3.3226606730623702,-3.940490561816246,-2.17931931853478,-1.2668248461862666,-7.039810379492365,-0.0011610425950251799,3.588581869495492,2.4972182821407274,7.712870892417936,6.486312356030017
46,6.874274873510625,5.013711435748888,6.069150043091221,0.2630428819681559,3.3197501820120463,-4.01443164966099,-2.4673278812562236,-1.2153396327502122,-6.555075438582871,0.6239536245958365,3.738611613455065,1.5589202887071556,7.740454335664938,5.330316861166441
47,5.560979156873028,4.002910580630378,4.704196287160713,-0.16113583936611145,2.9837191318126295,-3.6768708242805928,-2.5790772521307055,-1.0029882347462427,-5.409625424139256,1.3442954665679414,3.5970736860320054,0.43689063883358126,7.165579075531608,3.7101432534391074
48,3.743210462200526,2.6477279205959503,2.950389439904995,-0.61177654027371,2.350398188286902,-2.9420303616681758,-2.4905623546147324,-0.6175272369540089,-3.6970052862206364,2.096680837192322,3.1941988644889214,-0.7157754257001597,6.058116649352737,1.8416562300541457
49,1.634415523376366,1.0927973310557098,0.996711207379649,-1.0356443543394673,1.4894138438846467,-1.8694338071066328,-2.1956525738307855,-0.07247956426186443,-1.577256924858013,2.7988715785368123,2.57943654638297,-1.7483792061388572,4.531137265819267,-0.042010684507882846
50,-0.5253485378056488,-0.49827097498420114,-0.9564304083933397,-1.3792976903396703,0.49575427742729145,-0.5570844527021144,-1.7065844327051667,0.5927735408280362,0.7396090126209887,3.3603733526132054,1.8160574583236266,-2.530723805776805,2.7289682702362437,-1.718175797251003
51,-2.4985981161780964,-1.9637336497295206,-2.7189507859105104,-1.5960743690662176,-0.5219701395001143,0.8696270423655313,-1.0530920175263423,1.3166062659897386,3.0164301489498513,3.695308934735316,0.9747228365216587,-2.968465603628579,0.8124032490353057,-3.000542606876336
52,-4.078835488923566,-3.1640304416473124,-4.130851497971383,-1.6526383320763631,-1.4549943020646254,2.2718183592515313,-0.28023386782397286,2.0220799361468558,5.015325650869719,3.7353835449655093,0.1266903607963857,-3.013702740399617,-1.0572530121186743,-3.7600960099164116
53,-5.114338683601359,-3.99860489382815,-5.077565027078793,-1.5340610896017703,-2.207751975251634,3.5121248509110843,0.5550011058899514,2.6263428685568497,6.5246239474459795,3.4409426268075958,-0.662627984744548,-2.669370061399379,-2.7334782029034885,-3.9383602731189686
54,-5.524180638064872,-4.416810816601388,-5.499097459210726,-1.2465806390911944,-2.7092849672219246,4.469123954927711,1.3881675314458515,3.0512913432377466,7.383095747058067,2.808425314939454,-1.33908400152302,-1.986842465792908,-4.097446839005223,-3.5514416498407746
55,-5.304503305789239,-4.4214204697871695,-5.392100763629981,-0.8175063462468195,-2.9211630292274013,5.0496556764242575,2.1526804533680157,3.2340827433309967,7.498619141329836,1.8730797288231755,-1.8636440837960984,-1.0571177188689933,-5.067188916019127,-2.6845322705680794
56,-4.524521059758831,-4.064411919389524,-4.8050386914287975,-0.2921670803586843,-2.8408832342162382,5.197846661480848,2.7856203999265814,3.136076274973865,6.859059475238234,0.7065310442929166,-2.214327968297733,0.003100842457465653,-5.602139651920948,-1.477849273001774
57,-3.313218721951035,-3.4359097131577894,-3.8275895364311587,0.27173935054002957,-2.500380250299295,4.9000656288588695,3.2335564242730848,2.7489529106422967,5.534061017655123,-0.5904422721591651,-2.3861331438420006,1.0683323803401041,-5.702852675838408,-0.10613078344268868
58,-1.839014666751389,-2.6481928183071877,-2.5761974960170737,0.8116206732480787,-1.9599911598246793,4.185494882489679,3.4578304512062843,2.0971144941427853,3.667510220345269,-1.8988907752281434,-2.38909969125039,2.0217123228889764,-5.406285252287454,1.2453601793135969
59,-0.28558475459020677,-1.8174022025969783,-1.1781214448446375,1.2682130199147874,-1.2988705468346482,3.1224467198371464,3.438713661793073,1.2359405457651809,1.461517031144502,-3.0949137220692005,-2.244908298721132,2.7702480460208667,-4.777618375588433,2.40498122238711
60,1.1725453560364154,-1.045865372914711,0.24362815542012017,1.5933470578585416,-0.6033416252050379,1.8109485057224803,3.1778881246296846,0.2460303390097145,-0.8462522607335998,-4.063358004121775,-1.9825863619022939,3.255692177929139,-3.8999657970228525,3.2357623540301095
61,2.39118268339043,-0.4077678763654333,1.5824192453671162,1.756117490170553,0.04507567233802176,0.372440788130456,2.6988362175333767,-0.775895186650762,-3.0092805098969415,-4.7102660909183225,-1.6339928554244867,3.459515863326568,-2.863499644799727,3.65068748986297
62,3.2716352096097556,0.05971583651451751,2.7558060676113065,1.7465636736105632,0.5802307267524771,-1.0623386461191975,2.0449317551534687,-1.7282881710965077,-4.799855445914435,-4.9726078150648,-1.2297469464611899,3.4014389543738552,-1.7554595189028552,3.620463366288168
63,3.7681358963632583,0.3586565049030345,3.708464767266453,1.576356226530062,0.9590437820400876,-2.3660856620249695,1.2752971501975634,-2.516799507292633,-6.03446497143187,-4.824272379372685,-0.7961594295393236,3.132032323390069,-0.6522398978063377,3.1731784795754043
64,3.8870625385101576,0.5258913155455496,4.410578579133518,1.276447126217919,1.1653672173270664,-3.4270542104059514,0.45878452466166036,-3.065445450910816,-6.593971789994939,-4.277833407221513,-0.35353553894686596,2.720871722545419,0.3856770288609474,2.386427922728667
65,3.6787693668511525,0.6228342119581248,4.852751869471465,0.8921030124340651,1.2096488094301525,-4.159429182307755,-0.333286848780495,-3.3254244071107064,-6.436208043389415,-3.382146053189448,0.08402760672973437,2.2424308063638634,1.3156824999301524,1.373504956007871
66,3.2239242192971806,0.7214650536634459,5.039047160694351,0.47612683003693557,1.1246927021359168,-4.510968970335184,-1.0347936667726767,-3.2804095106132025,-5.599522204240643,-2.2163197296750616,0.5074836057199074,1.762230221346413,2.11213397243932,0.2659893792592072
67,2.616957698510842,0.8889442740217903,4.979924621108855,0.0813189474114402,0.9583950287447915,-4.4671871752430405,-1.5919236362334974,-2.9476352821309098,-4.1968977448416025,-0.8809839980224411,0.9106785643660732,1.32564878399934,2.7632242059942773,-0.8046018046796244
68,1.9494799390376678,1.1734444073474581,4.686694661129363,-0.24670064373886716,0.7647454310896746,-4.051663925719306,-1.9688219357596817,-2.3746937480679846,-2.401418123138366,0.5120002836141141,1.2877041978534167,0.9512699710706003,3.2665266580752417,-1.723523729736356
69,1.2962957151923744,1.5935134332481005,4.168619716373161,-0.47529557007990025,0.5945719704339172,-3.3224566214966478,-2.1510160748761087,-1.6325651211668792,-0.4249248262040257,1.8501533856228274,1.6303355780861133,0.6297825921814079,3.6241985944485196,-2.405759011981962
70,0.7060222406942905,2.132650568934838,3.4331323420580135,-0.5884860503326758,0.4874498536666577,-2.3649901655881385,-2.1461527482814833,-0.8059354617762629,1.5074446851124135,3.030161784665476,1.9260960257627782,0.32844158839794263,3.838746340510303,-2.8038337704755323
71,0.19741970818980084,2.739902848929774,2.4889176526918724,-0.588090745314348,0.46592289314372837,-1.2822046884707934,-1.9819447777429489,0.01778214091681172,3.1836627148004886,3.9659086449650935,2.157383286387533,0.00011316970647659395,3.910060813993265,-2.909957889708863
72,-0.2384546631874708,3.336329595640952,1.3509798909633643,-0.4923257616492728,0.5327609687878125,-0.18307049471799722,-1.7016148057297964,0.7591591264751033,4.428911937984078,4.594149053572737,2.301927460439414,-0.4048449614306301,3.8341609927440854,-2.75277776333283
73,-0.6311004383846387,3.826281795753026,0.04638526871686659,-0.3322119729050046,0.6714732566182618,0.8292072922384819,-1.3574775251002495,1.3557208154129408,5.124484512891918,4.877600405320289,2.3346557043979046,-0.9260526992501668,3.6037802658797013,-2.3897130091484837
74,-1.020013234142667,4.111735107986848,-1.3807892029229643,-0.14642787916917382,0.8497956063311946,1.6679168059199094,-1.0035704305277937,1.768005349453252,5.219310091996639,4.8055700577364115,2.2308317298986298,-1.5821486372834423,3.210633974526287,-1.8963153202292582
75,-1.442737880470156,4.107495247183873,-2.86665269304859,0.02458173575313406,1.0254453093108222,2.271241802307593,-0.6883808742967411,1.9820173822311578,4.732941032043666,4.39251758719209,1.9701374230268454,-2.363287743870468,2.6489507541998423,-1.3543078362370107
76,-1.92367063992436,3.755013349492874,-4.32782769911556,0.14438853183279157,1.1531468795432407,2.6073669269768125,-0.4486964313851879,2.0079467964230835,3.7499510733275314,3.67510860108403,1.541189995831655,-3.228350720539998,1.9196631138891733,-0.8399476342509045
77,-2.465515589618374,3.0328045533674834,-5.665348667536525,0.18548540095585261,1.1918142123272686,2.675740478250322,-0.30542097346217606,1.8755927889552682,2.406805461788148,2.7083491065727925,0.9458642384253717,-4.107322889352777,1.0345492526265796,-0.4141423745647902
78,-3.0447921338218444,1.962002667270622,-6.771954918223988,0.13272897280306467,1.110834198912074,2.504461360162681,-0.26187539921031233,1.6274216698833204,0.8731869153439866,1.5613091812476496,0.202735237344094,-4.908473092358183,0.019601877069246945,-0.11540035432523253
79,-3.6121007988857556,0.6063140583753831,-7.542013396585041,-0.015015797215328398,0.8946114693389151,2.1442820131153466,-0.30469478807606853,1.310517257797808,-0.6696101031773856,0.3127869001706517,-0.6510154398668733,-5.52923866393763,-1.0830315838557134,0.043740729515684945
80,-4.097099992991803,-0.9335632548701351,-7.882846244695871,-0.24509526167161141,0.5448557852185013,1.6601758844015109,-0.40701851973970266,0.9688029618352032,-2.050355338023578,-0.9529270982224793,-1.5597721771387318,-5.869211128290665,-2.2150452982034325,0.0766210490331124
81,-4.417446406608187,-2.530236173964924,-7.725977362182982,-0.5329691268853258,0.08046121435213413,1.1217330064786328,-0.533326484894294,0.6368036998647733,-3.126921591813265,-2.1501999023449425,-2.4520790604996208,-5.843387783542953,-3.304202548512674,0.018948613585072285
82,-4.490405605509138,-4.043211394277413,-7.036788817859375,-0.8454198393435391,-0.4648214927224057,0.5937710955714386,-0.645066663028786,0.3358924558483347,-3.800497192870902,-3.1962533871808514,-3.24572722319158,-5.393921036714997,-4.268831868000747,-0.07752324940313386
83,-4.245508392366089,-5.3340013365099175,-5.821284477669532,-1.144575843275535,-1.0464306089554052,0.1284677529140748,-0.7061783954931594,0.07348892238017761,-4.023569498773492,-4.01556340580801,-3.855089779799124,-4.498918399613073,-5.024351849414587,-0.15326792955661428
84,-3.636531746682798,-6.28084842997796,-4.129045154159638,-1.3922181597825074,-1.6140813151642592,-0.23995032216634568,-0.6877367140660869,-0.15486757519652075,-3.8012019481191937,-4.544537043773987,-4.200124687090259,-3.1773380497765986,-5.49131092165291,-0.1501921518496533
85,-2.651205694148414,-6.79133064467336,-2.0519522263703958,-1.5538787964142553,-2.1171525714058195,-0.4973428675074177,-0.5711899811617225,-0.3611659326539957,-3.1860490221829076,-4.736379942260621,-4.21615907275057,-1.4895865058345927,-5.604184700998439,-0.020711963400906985
86,-1.3173496447258208,-6.811484932854149,0.28122950822754067,-1.6023368068341555,-2.5096828519426775,-0.6485055290758323,-0.3499748355354023,-0.5592859203134277,-2.2683378854410803,-4.565854650025002,-3.8633353847905094,0.46604189117765865,-5.319988304966348,0.2643263906242465
87,0.295432177144514,-6.330603553205041,2.713864950869093,-1.5202446961309035,-2.754436714118755,-0.7131423627108093,-0.029594749006330863,-0.7592794468145799,-1.162584257200636,-4.033418633163969,-3.1344817437788226,2.560518158455014,-4.6256604251076165,0.709790214990151
88,2.0788751414392825,-5.381434841200251,5.0731787010626705,-1.301745316882851,-2.8257176919426694,-0.7198159737819975,0.3735249521529423,-0.9627583817686787,0.006958463461284972,-3.1680688316097503,-2.0601971854694505,4.643985597682847,-3.5431829727732373,1.2932046894526235
89,3.893868936317344,-4.036072632053177,7.183632710076303,-0.9530485493187354,-2.7108341363731823,-0.6990243449704646,0.833981074719272,-1.1603427278952176,1.1201975702472295,-2.0281614351435646,-0.7101355346520439,6.5574641195153305,-2.1315336270563336,1.9650054723938226
90,5.58234361731051,-2.398278487084151,8.880825470828013,-0.4920202641172104,-2.410331272815357,-0.6766485685371784,1.3197201475333975,-1.3317186202935614,2.0728710459333413,-0.6995601020317269,0.8101703511610236,8.145400951125389,-0.4848362143822467,2.6523178764202417
91,6.98216822333818,-0.5932991313208827,10.024829850050695,0.05310715446100258,-1.9372501670685118,-0.6689007615148659,1.794440201031054,-1.4483578138318245,2.7849375062040314,0.7092948250925738,2.367104237489771,9.26819106304962,1.2735371074093695,3.266127390773937
92,7.9436442498822295,1.2436054528573168,10.51198945500174,0.6457593990888597,-1.3157409239934152,-0.6796011117432654,2.219913527933625,-1.478449272008602,3.2052381481583656,2.075428420387453,3.8109551768513,9.813879758585097,3.0006826696951365,3.711302905881543
93,8.345930244198374,2.9787163746839105,10.28432065216288,1.2436197384133807,-0.579339583309232,-0.7001792655827896,2.558227963346407,-1.3931774674726758,3.3125620661398303,3.272054303928433,4.991067590888767,9.708326770166781,4.546964562782022,3.8985185545318743
94,8.111631824947185,4.490429163466452,9.335800568402664,1.8016377128182757,0.23086931950065073,-0.7123001066606125,2.774043166750142,-1.1732217212673834,3.113711010049037,4.181071247130174,5.772584143467324,8.923146277736683,5.77068737714835,3.7567529152402463
95,7.217859835073174,5.6780191884511915,7.714964161981552,2.275280687160934,1.0681098686567527,-0.6925426713923597,2.8369798491012084,-0.8142873732405145,2.639447714407259,4.706019109663415,6.052831897326316,7.480757764171932,6.553068828077898,3.2447975505383075
96,5.702313953678467,6.468055352255832,5.52340675128892,2.6238592207579114,1.8818263452408452,-0.6181986231524197,2.724199625642978,-0.33061901084622086,1.9392979728125892,4.783924366453794,5.775254811949729,5.455925531629124,6.811750041057814,2.360147155859111
97,3.6633885696281467,6.8182062310962825,2.9100179901556524,2.813748245510364,2.619779315398945,-0.4730689409293548,2.4231061786292063,0.24423857784089836,1.0760740040767505,4.39442030095365,4.938931646053309,2.97327596424322,6.51111887933156,1.1438154776469731
98,1.2538950742935755,6.718443611164845,0.06107302854878393,2.8213114127032495,3.23049050721903,-0.25215537423945744,1.9339368362879978,0.8597287015617536,0.12074252740297688,3.564719729557323,3.6021463146835626,0.2004995831172575,5.668003669377139,-0.319967244024619
99,-1.3313082712389392,6.189857769064627,-2.8133345566612746,2.635319201210534,3.66616108432886,0.03564127794355355,1.271861267543962,1.4534301399553173,-0.8520551075496544,2.369438312040358,1.8791565971135904,-2.662718338533912,4.351796865723736,-1.909607101314512
100,-3.872773740809857,5.28144188478514,-5.495650535407223,2.258638242387753,3.8860774705196444,0.3673351373751744,0.4681073553100767,1.9584149268485873,-1.7678347780646402,0.9248658171710208,-0.06985016035114573,-5.399561142659056,2.6787270381238977,-3.477251140020125
101,-6.147361553557682,4.065280438070108,-7.778779420723596,1.7089710142771515,3.860357491163209,0.7082502276218758,-0.43036632712712974,2.311809914867706,-2.5556946936966405,-0.6220159217119137,-2.054734428756581,-7.793777777724037,0.8007265689357799,-4.864103527388746
102,-7.950439845632656,2.6306055316726873,-9.484042146224173,1.0184575639723994,3.5737117999078136,1.0166180906464262,-1.3630132941071509,2.463351863634519,-3.151686413897142,-2.1087588414718694,-3.875617518152314,-9.648784023225996,-1.1099521807655734,-5.918265420681821
103,-9.11697826863593,1.0771867861004492,-10.477469558815093,0.23202573349739977,3.0287436069033853,1.2496340858308672,-2.2597852265075686,2.382704072507475,-3.502444871237248,-3.3752853439180797,-5.345003527669847,-10.8063582343207,-2.8786337403252613,-6.512951376951059
104,-9.539125069532176,-0.4914953008895581,-10.682716309809956,-0.5955086306304893,2.2482231824880095,1.370000899172215,-3.046976702082717,2.064461471068507,-3.569207454788006,-4.282258356588916,-6.309139560871329,-11.16291298251767,-4.346517582292141,-6.562742729185037
105,-9.178154530844996,-1.974878479715434,-10.089075371841007,-1.4034505420644372,1.275780090519777,1.35192575457791,-3.6543131551004047,1.5300838398187921,-3.3320659147786054,-4.7277163441200925,-6.66594995902874,-10.681361753152034,-5.387175834536391,-6.035665061950778
106,-8.069257519870327,-3.281396509053578,-8.75349110779104,-2.130061736257559,0.17456669011631545,1.185639702541977,-4.022486970421088,0.8264173655150395,-2.7939717804686075,-4.6598126824211645,-6.377252272478489,-9.39692770084237,-5.919270189567315,-4.959331462199458
107,-6.318465247802984,-4.333731823858789,-6.796078669766034,-2.7178218085292225,-0.9763447230918157,0.8797461918356443,-4.110178653570893,0.020933059189777455,-1.983739092704309,-4.083909846862194,-5.473656538483175,-7.4158492507698295,-5.914010808164105,-3.420128626793175
108,-4.091940261579177,-5.073054336326281,-4.38938558836673,-3.1186327089290797,-2.08778313133669,0.46103579834391384,-3.8995832780028836,-0.805740596773427,-0.9571427400198008,-3.0629504382126456,-4.051468715109931,-4.906753323605773,-5.396584839887855,-1.5553363134924532
109,-1.5988026661332677,-5.462126872293299,-1.7423721025234662,-3.2984527001298445,-3.068142982631504,-0.028230610601692862,-3.3996068554045915,-1.5690479178663022,0.20473694533958026,-1.7108707487837702,-2.2619310308471596,-2.085368149755524,-4.441570710462668,0.4609813521194143
110,0.930555316709494,-5.487195463188381,0.9192747548599591,-3.2408632205032215,-3.8321929544153317,-0.5352189293099504,-2.6461804912354876,-2.190322753064247,1.40049569463435,-0.17971873638414385,-0.29409063048213874,0.8059112352017026,-3.1630979604609006,2.4366439144816585
111,3.2681871911074376,-5.1585882876044185,3.3744386992041844,-2.949138584431746,-4.31006583469637,-1.0029561635919302,-1.699514434170137,-2.6059405508414764,2.5168069163139934,1.3580385095722394,1.6466370242458404,3.5214402309934094,-1.7011047613743044,4.182325242417413
112,5.211657305584712,-4.509939217221798,5.427244280821057,-2.4465063014210684,-4.455313708861023,-1.3774553139172325,-0.6385204908957345,-2.7746452565208792,3.4397276279440656,2.7298902028796093,3.361641840317764,5.836183553729549,-0.20542475634732488,5.532296769465168
113,6.603891827399974,-3.595961783701723,6.924940512288931,-1.7744554240207517,-4.250917665441922,-1.6145899861733386,0.44698861296778597,-2.682134322154113,4.067757882547205,3.783829288811139,4.681275781566627,7.567407491295364,1.18041473356226,6.362469964796976
114,7.347674523567479,-2.4887548160385147,7.771157500792409,-0.9891622655667782,-3.712323663440235,-1.685805089317332,1.4654132526170331,-2.342350728154864,4.324971506600783,4.406485669479739,5.483374334284698,8.591833646275939,2.333866845763489,6.603621347352977
115,7.4133029335106775,-1.2727308130367376,7.933208336259412,-0.15633252479818066,-2.886920971969142,-1.5818940634676273,2.3327062776964604,-1.7953687157070115,4.172239170371756,4.5365125009472544,5.705964526304236,8.856389835792262,3.1649511810057938,6.248282102824247
116,6.838735084459116,-0.038408214555897394,7.442761739227043,0.6550300199657055,-1.8498378990506104,-1.3143159842573657,2.9808215654768597,-1.1022077702588626,3.614603167175899,4.171462097526288,5.352684068544424,8.381418536737618,3.6236037189002257,5.350540788203626
117,5.72243544960127,1.1245276989096513,6.38993811643234,1.3792622483004386,-0.696430846797429,-0.9138421023559833,3.36428059105788,-0.33730239607193924,2.7032735804872314,3.367215342409031,4.4903287625781285,7.256067321815962,3.7021680223680464,4.018853854345168
118,4.209966489714845,2.134342550211657,4.9116030251914875,1.9603476744899337,0.46769086589114917,-0.42667823865251964,3.4641208796194376,0.42036285249558775,1.5314550243591802,2.2300107454687352,3.2389232956276155,5.626488828418535,3.4329862401389963,2.4027874867021946
119,2.4760668451152283,2.923893406172523,3.1752642957927657,2.3571699451036543,1.537903724574626,0.09143686580018805,3.288832923383298,1.0963092233312615,0.2241668878990921,0.9021232817309764,1.755651332003566,3.67830855534549,2.8816196572902726,0.6753296257131415
120,0.7044270330081409,3.446106393975286,1.3604481860973525,2.547110160802745,2.421679050454527,0.5823590949771894,2.8722712503841596,1.6286900707274996,-1.0767778849276077,-0.4568736227369969,0.21476097758121845,1.6154728302002543,2.1367246823213675,-0.987069369806616
121,-0.932431695598768,3.6776696732339658,-0.36031850481039074,2.5275843573698733,3.0481749875949427,0.9929032785784713,2.2688902992956907,1.9745347966682838,-2.2306065809865174,-1.6907004843971722,-1.2139264335230613,-0.3620138907327828,1.2979749035738437,-2.4243057178058876
122,-2.2908636641752924,3.620483438852327,-1.8387878493893792,2.3153767919452037,3.375131016488537,1.281411088954464,1.5469639591608597,2.113439408487472,-3.115648715471117,-2.6659849882983395,-2.3851088967338927,-2.078861325771862,0.4636112853310748,-3.509886454463973
123,-3.2694419850423753,3.30065734930297,-2.964640867540136,1.9439070754930308,3.392262446063089,1.422608768472206,0.780665642239477,2.0483876045365736,-3.644913253570872,-3.2882041980222327,-3.194112865417357,-3.401400791960533,-0.2808045336882099,-4.163577478664397
124,-3.8165780969907863,2.7651442999256552,-3.6740832620012784,1.4588319477325415,3.1208398694692416,1.4101074774802407,0.041987935587143865,1.8037649184989573,-3.776806895777533,-3.5118114713619004,-3.5870076363173617,-4.2487772281273015,-0.8710714043291514,-4.357957381309719
125,-3.9318027304516385,2.0763959840551713,-3.9526048762545454,0.9125837621703452,2.6096543991903736,1.2562646749394115,-0.6065463727022252,1.4209789705833158,-3.5193749452163665,-3.34328409166277,-3.5635818537100485,-4.597337286117849,-1.2695026228349497,-4.118203871289595
126,-3.660910360547326,1.3056667072572232,-3.8318678057034847,0.3585550477935273,1.9280315779900725,0.9895247345011647,-1.1175801001013017,0.9523769503957072,-2.9274834017145706,-2.836906019436178,-3.1730802879391318,-4.478027276197532,-1.466130580272481,-3.5153583214003694
127,-3.085953484376726,0.5257379960988663,-3.381441880646509,-0.1543633020640298,1.1568999286669501,0.6497252125039804,-1.462467357009318,0.4543263663669428,-2.093490189427275,-2.084200033864467,-2.503652699738324,-3.967532221887945,-1.4761361975744944,-2.6542145462901985
