,AF3,F7,F3,FC5,T7,P7,O1,O2,P8,T8,FC6,F4,F8,AF4
0,-0.18934613743857917,0.05969089936573888,-0.3169484028938093,-0.2876852797825488,-0.2455160288788221,-0.34013728962865597,-0.8645554560862274,0.45020100419852627,0.37027520230497873,0.23316808538418382,0.12487234520418092,-0.04964382269646704,-0.1213932920909762,-0.08278551718464759
1,0.5658232464663705,1.540789223850709,0.6755956090960353,0.5441727678097306,-0.4522125452539075,-2.01313486364731,0.534142211744784,-0.8058801704167999,-0.5287401350407495,0.6150581738114663,2.068729574729478,1.2178527345781835,1.961820719680454,1.7607223599371944
2,1.295119344975063,2.8874545879253013,1.6311172189859644,1.3459872379196216,-0.6141207080439324,-3.5127468012529626,1.9037801573146549,-1.9199974941189908,-1.3380850438122476,0.9425461559544388,3.8465945717313312,2.391767931244648,3.846494008440338,3.4432573559141915
3,1.9384429708562598,3.9781977873310463,2.466808516218205,2.053018649595937,-0.7167950213265308,-4.7380937417348905,3.091544010690911,-2.817101888233435,-2.0159815178026883,1.143534310580175,5.272182300844856,3.3494855204043947,5.3178265246908705,4.800402785008612
4,2.437725930352651,4.710437855781715,3.105638663327669,2.6040635692405227,-0.754700712782561,-5.614079563883232,3.9629280811790544,-3.450593157227374,-2.5352668436734325,1.1622924528889809,6.19195181544164,3.985476568109854,6.202384044294469,5.697904088008064
5,2.7426283419934383,5.010794270405613,3.4838340038621336,2.946909710410708,-0.7318856478194095,-6.096217685800634,4.417360591021363,-3.8036669259947025,-2.882010502162266,0.9690383650093863,6.502685434503785,4.222842747997373,6.388946118406025,6.046439442001612
6,2.81679098134359,4.843864075540884,3.558169696599954,3.0440253431769113,-0.6609474149418856,-6.172409299414779,4.3999532900728076,-3.8868992725685567,-3.053519720597994,0.5655435365163268,6.163881505131346,4.022687002534802,5.8428596487885045,5.812165139240512
7,2.6437760604800626,4.218314444376951,3.312170532640087,2.877813580643087,-0.560448635051727,-5.8616452208501695,3.9080489339689324,-3.7327418794694482,-3.056245467723603,-0.014049115139264526,5.203427795637432,3.3901414295540744,4.612037595539058,5.0216463456031635
8,2.2316293807224166,3.1891456998500907,2.760240448027446,2.4546151370096307,-0.45122188112977896,-5.209918834716618,2.9918687684267593,-3.38799410362744,-2.9038787394509242,-0.707223265668901,3.7157798777383246,2.3761232480652184,2.823659807218057,3.7603237102275093
9,1.6149903966554449,1.855218187425608,1.94882243691038,1.8066275653202237,-0.3522235070108979,-4.283925940774341,1.749242445023936,-2.9055325519423585,-2.615703585539017,-1.4311839115783451,1.8527185246138271,1.0742715457689003,0.6716810772554875,2.164357944618112
10,0.8538951043835383,0.35159552467819594,0.9539488015631771,0.9910517627264567,-0.27670370053926024,-3.163356037509232,0.3150535225912335,-2.3365864232473634,-2.215111184197049,-2.0937468806641597,-0.19239809521128412,-0.3869885168178317,-1.6036881221559816,0.40646441261919003
11,0.028846931994706435,-1.1631008525763917,-0.12504076101011471,0.08607732860138924,-0.22943408712284222,-1.9327147263776914,-1.153410131519009,-1.7246573337721984,-1.7281154188942947,-2.605386272721496,-2.2052302947372455,-1.8567483628974737,-3.74240778394047,-1.3228951859560292
12,-0.7676845226251564,-2.5233864182137045,-1.1753072774198752,-0.8162535251356823,-0.2055714552818772,-0.673634340409068,-2.493598379164735,-1.1018400257779224,-1.1817530714557314,-2.8907482512665563,-3.9736818253096744,-3.1772190025583162,-5.494079224633699,-2.8369571577456734
13,-1.4425312490931093,-3.575985458796203,-2.082975334398752,-1.619767159533667,-0.19145694281330183,0.5414772335190526,-3.5554911759569507,-0.4878701264404459,-0.6023772250910538,-2.8981429353798656,-5.311210751764283,-4.2010770443664125,-6.647156453239398,-3.974296258143661
14,-1.9144631000841916,-4.199017178298049,-2.7468665141812867,-2.2354425911696545,-0.1672981316914298,1.653819167131567,-4.2181475094643615,0.10822547123633071,-0.014007998009404847,-2.605920716719649,-6.0776300320457715,-4.80864639951284,-7.054507603311428,-4.618065324750265
15,-2.126373914335531,-4.318710273531981,-3.0917537298493087,-2.592849928494396,-0.11132132457453608,2.620283500782021,-4.403252844415765,0.684409456018891,0.5629741851619986,-2.0251366477252444,-6.195028811073232,-4.922860288873459,-6.652229177109352,-4.710394949609461
16,-2.0550482092607623,-3.9211039896638873,-3.079249488993516,-2.6501307318913465,-0.0046843974361508445,3.4132569138901507,-4.084216978086427,1.2406950160950811,1.112473110458436,-1.198419469719519,-5.656935586800842,-4.520043654034238,-5.469276386274406,-4.259987509526211
17,-1.7167134767989856,-3.0566482813192124,-2.714581558446314,-2.4009454193664346,0.16373389400152807,4.018481376903512,-3.289830101230595,1.7740145119093398,1.6224150872972969,-0.1954174107947003,-4.529551250740505,-3.634908531975495,-3.626447194551071,-3.3416881521720234
18,-1.1670803295737515,-1.8364547185333524,-2.047934143882322,-1.8771115156911624,0.3935715023853318,4.4315889373020525,-2.102039898401608,2.273941537917153,2.0835136645622048,0.8944607672191945,-2.9447343503504237,-2.3587462473970047,-1.3244519138275772,-2.087760323448872
19,-0.495336570306444,-0.42007603670436183,-1.1697053035885008,-1.1461915071448259,0.6710108446094083,4.654102191794436,-0.6480065968364207,2.720166706013405,2.487233684019188,1.9710793472033088,-1.0853410223911206,-0.8305820547106705,1.1779093891614674,-0.6716317232481285
20,0.1875088577580036,1.004048779749318,-0.19987660977838045,-0.30399475583686264,0.9690825377743011,4.6897452338102985,0.912833610485538,3.0823415745295204,2.8233760659676737,2.9333764043053727,0.8355811396677593,0.7780477516940901,3.5931949883413328,0.7141102349439707
21,0.7645759761538737,2.2431480127581476,0.7274033007442735,0.5372654815886693,1.2503597121597692,4.541826660828199,2.405460817501961,3.3225221048074665,3.077898503400562,3.6889621937716437,2.5994675965756655,2.2831357360310665,5.639081253689234,1.882833878191797
22,1.1311707799044708,3.1264003260044593,1.4820956355424115,1.2636958417631383,1.4717526527339704,4.212242499285324,3.6580813854334857,3.4000165140866163,3.231667907480228,4.162669547138104,4.007939376925031,3.510721253815952,7.072418612332049,2.6788713903270343
23,1.2122203935315785,3.52919620682698,1.9568914708233462,1.7753244565940485,1.5907439821774514,3.702332424580461,4.521151406396795,3.2780269988837984,3.260766417789405,4.303387568295366,4.906437892989574,4.319025611851816,7.719338348000244,2.9990200130290847
24,0.9762348645842794,3.391719309248507,2.083425890986613,2.0003323787139906,1.5721362154936573,3.01545733219696,4.884611166147409,2.9311234546980094,3.1387308452501745,4.088708418493445,5.2028192355222025,4.617195314394557,7.497485229184897,2.8074295014072312
25,0.44330233274118297,2.7288836401794314,1.8435365910481558,1.9057763066617532,1.394264005897855,2.160808546321484,4.691421557370759,2.3523498559179825,2.8407182546167546,3.527110377836186,4.878460832796658,4.377936428905635,6.427324225897386,2.1415428254866193
26,-0.3145673192123188,1.629868609478868,1.2736385343347083,1.5031205425116778,1.0536714722957228,1.157664560569499,3.945781438402998,1.5586821083186455,2.3491209983801853,2.6575704362906447,3.990317799239173,3.6420453455896524,4.630804086285898,1.1079292329948183
27,-1.1812989883272182,0.24702112067429216,0.46124072345839107,0.8476258154250769,0.5674599262625265,0.039129404892913194,2.714869753898799,0.5936598481800899,1.6597053873946044,1.54664410494455,2.663499123082798,2.5139022207173958,2.3172797292017395,-0.13174372390660058
28,-2.0120774991809265,-1.2245056347734633,-0.46622593919889355,0.03152736491306862,-0.027160566584910492,-1.145641408503601,1.123568899960517,-0.4736798065614916,0.7870436329061689,0.2831864696913659,1.0751646489399367,1.1482428729406826,-0.24172556887815164,-1.3829177713774534
29,-2.654191748985624,-2.5735887206081176,-1.3589407540766336,-0.8281608694042208,-0.6761807617252366,-2.3315709544621765,-0.6576501418040057,-1.553938076700832,-0.2320454782850715,-1.0289583007280279,-0.5682911574993632,-0.2702179577583003,-2.745830334369727,-2.4456030427468423
30,-2.9704861728552774,-3.602646476741529,-2.06625286532709,-1.6055867458744415,-1.3146116006483295,-3.4406655224960554,-2.4307161373763537,-2.5462843272838707,-1.3380917858967618,-2.2797920588296883,-2.0578631931622486,-1.5516605826546586,-4.902964037421095,-3.1432957763911773
31,-2.861956493649494,-4.155575484784821,-2.459242360092002,-2.1835489161268256,-1.8740904517540489,-4.387951567785595,-3.992083661520102,-3.3502088102375307,-2.452152589564025,-3.3628266069019457,-3.2088864375127506,-2.5271464436135638,-6.465600282112457,-3.3492226731713606
32,-2.285981271435202,-4.140055101790885,-2.4509847017965307,-2.4700780581414077,-2.2912769561401993,-5.089874463391928,-5.156599362466786,-3.878517500601117,-3.4824747431110548,-4.18472047584012,-3.8847166615287807,-3.072062627360928,-7.261314093766321,-3.006037340755577
33,-1.2671651594587665,-3.5409624142364065,-2.011424754626454,-2.411740438110493,-2.515903660401985,-5.474179885258752,-5.7802687916005695,-4.069602558284285,-4.33388408470453,-4.673945390514718,-4.013924508463954,-3.1236251419172243,-7.21362223182308,-2.1359316181342005
34,0.10126605207267972,-2.422932287617808,-1.174437621185075,-2.001720463655335,-2.5173682297061726,-5.489904465424305,-5.778969628341847,-3.8969680041638672,-4.91862801036278,-4.7875631568146035,-3.598630219343617,-2.6898045054372117,-6.350329332410546,-0.839441233939201
35,1.66625409460791,-0.9216869445986271,-0.03571531583522705,-1.2814555897870261,-2.288936566818067,-5.115909626493918,-5.140449254061702,-3.374313293538465,-5.167123436867895,-4.515348193088436,-2.712813582333953,-1.848222606409107,-4.798274624372974,0.7171534432548442
36,3.233110580533234,0.774589926551316,1.2585660293286587,-0.3355121161538058,-1.8489484269160827,-4.3664602700919675,-3.9276645307638205,-2.555142204061757,-5.0370763211242044,-3.880767221043948,-1.4908434544036235,-0.7350187355915871,-2.7652320421852097,2.324236501336087
37,4.590897382085585,2.4510994170519997,2.5309603624634525,0.7196246155297208,-1.2388352948941215,-3.292691099773056,-2.272610620369454,-1.5267566574159008,-4.519713422034804,-2.9386880232851342,-0.10787953014487899,0.47482001690110054,-0.5114973253324779,3.7579734297921914
38,5.54155539168561,3.895716465106464,3.5972703470403125,1.751267806250629,-0.5182134959761695,-1.979376546674983,-0.3611007770596205,-0.3994449158547312,-3.642322354393044,-1.7700767383094722,1.2450109691068294,1.5928610858482461,1.6848664855390134,4.811961115122538
39,5.928633031714469,4.927480662904786,4.292902181989075,2.6284985629243858,0.24226497968815053,-0.5371351966429886,1.589707556073954,0.7075073086884904,-2.466827948905818,-0.4742961050565982,2.3873996399804183,2.4446559113384714,3.5642799194000325,5.326782951182587
40,5.66135873170728,5.420229376769695,4.497201702380707,3.2397918571261006,0.9693024930970322,0.9090671170722566,3.3581256547216563,1.6808305502110072,-1.0846407019928381,0.8401191570057266,3.1738494739424428,2.8951470535556934,4.918378147746935,5.213095378571432
41,4.730349169146359,5.3181052695429765,4.152116630909077,3.507763496340732,1.5954203470676893,2.2336329561971686,4.745472018609976,2.427032219150985,0.39158050703023867,2.0651986011941927,3.512578714089555,2.8682848757404154,5.6147732344047965,4.464807953158459
42,3.2123825607420105,4.640942031298553,3.272303791762502,3.3989548921681885,2.066348754587768,3.3243974330557666,5.600578570489702,2.8829148856096785,1.8383441627052202,3.102783981929088,3.3758539017375795,2.3579580492536447,5.6106252307410776,3.1603989924971043
43,1.2632273433860446,3.479077892547508,1.945037239756591,2.927344014798601,2.3463875403174326,4.0950876934872555,5.83794562008537,3.021490949512376,3.1328848584529627,3.8724350489858956,2.8008477525055695,1.428668168769971,4.953497605863017,1.452201112232223
44,-0.9007377033324195,1.9787172895789933,0.3197813700187311,2.1512338704426566,2.421121387346913,4.494461728119447,5.4471687671957305,2.8527553706468383,4.164798766909011,4.317380434433188,1.8811958042488923,0.2059411510333002,3.7698711335872894,-0.4546938381011457
45,-3.029714321297117,0.32031050860497623,-1.4111653616814446,1.1641662085663929,2.29729835691041,4.510921592437778,4.492537198859036,2.4196218107308805,4.846709752033646,4.4081808821424415,0.7509093718176757,-1.141987159054334,2.243487736727148,-2.330715729092937
46,-4.872767711665302,-1.306652172579449,-3.0382173879689898,0.08137776209601696,2.000116594736603,4.172084039061882,3.1030951393868778,1.790032140756471,5.122967837441418,4.1440368792915825,-0.4365835691290837,-2.428390490362015,0.5871119402854684,-3.9530565171163157
47,-6.210706229702068,-2.728658160956456,-4.362583876112187,-0.9760767604718166,1.568533136144205,3.539532838745996,1.4547469776027793,1.0467041443883538,4.975469752562038,3.551883516002043,-1.5308682209113071,-3.474529824277823,-0.98788070135939,-5.1352808449221685
48,-6.88495202635214,-3.8094370368062345,-5.222868357769736,-1.8971557860343706,1.0494495445814338,2.699650894021048,-0.25300687679559536,0.27614455373777186,4.425859440454916,2.6835553151994485,-2.4049846970909363,-4.134491528980986,-2.2995645847147004,-5.751068977062292
49,-6.818368976867689,-4.464646261396801,-5.516414016092603,-2.5943620164897703,0.4917115707776024,1.7519397116248439,-1.822507763478975,-0.4415531045616459,3.5336559697474863,1.611376667671674,-2.970924355578818,-4.3148372757795865,-3.217239385860113,-5.748847609413458
50,-6.0251779698775945,-4.668287684081088,-5.2124287892009304,-3.013186337693916,-0.05921432810938682,0.7965154659782275,-3.0821949649439335,-1.0409169373224707,2.390279253620258,0.4225564073710831,-3.1881749272669313,-3.9863940343820747,-3.674157280361095,-5.155525776172128
51,-4.608660090574858,-4.450501443579537,-4.355157499643733,-3.1363893869016257,-0.5652278140259901,-0.07750191193331595,-3.906607164009482,-1.4765311257392855,1.1094653564244763,-0.7872400091764439,-3.064530378340347,-3.1867613786740603,-3.6699858634929403,-4.069238392873663
52,-2.7470796894636913,-3.887701741566876,-3.0568276568808455,-2.982872071118901,-0.9978711872487458,-0.8012083123841846,-4.229721034938548,-1.7253811691539112,-0.18489879913687704,-1.9207800308442284,-2.649659777457902,-2.0135225916340382,-3.263446553378229,-2.64263564762725
53,-0.6698910865413951,-3.08710934619712,-1.4815554144399685,-2.601691442558525,-1.338839935445516,-1.3316689487375777,-4.050168208280997,-1.7862301866675951,-1.3720504500762634,-2.88626149830689,-2.023054449726382,-0.6094901480305229,-2.557063824275755,-1.0595876854010535
54,1.3724083679728776,-2.168437702617414,0.17735371511544326,-2.062444267885116,-1.578972069530773,-1.6536945723827272,-3.4279797685304576,-1.676506856210797,-2.347035466824091,-3.6040601537579673,-1.2787687763114852,0.8576038656724961,-1.677062942962459,0.49099397238286485
55,3.1406246711382226,-1.2457132932531176,1.7234101624976685,-1.4436791154443631,-1.7161978187996538,-1.7777460747220832,-2.473631231382018,-1.4274434677107273,-3.0311600625802337,-4.012856175414199,-0.5097189796813473,2.217891246182709,-0.7520002865355155,1.8402911208881905
56,4.437068822778123,-0.4119504508843589,2.982584017939379,-0.8211599181979254,-1.7530655676338303,-1.734644633528376,-1.3311520873314937,-1.0783434854318361,-3.378920593772679,-4.074755368829808,0.20583460873669704,3.3213578908933132,0.10636507589983236,2.860128325623451
57,5.1296826142809255,0.27126705948122704,3.825085695360973,-0.2576867247571398,-1.6944687778435128,-1.5681961338876502,-0.15778632143482457,-0.6708749739805935,-3.3807030888788856,-3.779018042240097,0.8135748940271488,4.0560689716256,0.8171009936492373,3.4762983293546768
58,5.167086454570908,0.778179829851152,4.180439810433893,0.20417708283436192,-1.5460832021714828,-1.3270608857075428,0.8969548467717928,-0.24417929229319066,-3.0612262901625544,-3.1440266175667544,1.2870288027145576,4.360357845794918,1.337255160102893,3.673270273444096
59,4.582836256414903,1.1171300420677106,4.044040945557715,0.5456442510093137,-1.3138121887865188,-1.0571863138807174,1.7100581140264832,0.16863244507617872,-2.474336844000389,-2.2171727387120277,1.6259511903154742,4.227681575161431,1.661649052453671,3.4902584506080196
60,3.4886311492088815,1.3235732850496023,3.4746186136970323,0.7712799497562158,-1.0042798787730745,-0.7958922882824018,2.199231238241353,0.5423144607964732,-1.695226527255742,-1.0724400313522968,1.850035057785893,3.7039329430121692,1.816109335458264,3.0099032370045364
61,2.0576363583814685,1.4493972223620206,2.5832973765493663,0.9049658843708236,-0.626163126247377,-0.5683135672066986,2.33095151580443,0.8596867510164928,-0.8113558867718066,0.1943914821500322,1.9895505289692976,2.8780384668092034,1.8459850067337296,2.341806466167023
62,0.5003020460597399,1.5505359335725466,1.5160449598603192,0.9830932119446156,-0.19195902761610326,-0.3864410195442724,2.121614838829765,1.11051520966861,0.08667302958388037,1.4727933273285112,2.0749490417872387,1.8675274198297334,1.8024679349017851,1.6037475408789486
63,-0.9640666992042818,1.6749551487702716,0.43211944268557784,1.0461703179248518,0.2803234184599728,-0.25055141864660074,1.6320144222233028,1.2895830519795402,0.9132990913274392,2.6464264881517185,2.127528875669642,0.8013272072988624,1.7294370546144464,0.9035314905306676
64,-2.1362894109316426,1.8528623179370944,-0.5184341771472419,1.130197643299581,0.76606757811073,-0.15245292422365522,0.9562457665739746,1.3945463052954392,1.5946039814531796,3.6033536691705637,2.1529569643652384,-0.19773197972371714,1.6532758950653945,0.3241022883587538
65,-2.8631580946862885,2.0905292821595642,-1.2151640235612982,1.259138050477722,1.2339827435431892,-0.07974678727829528,0.20680866404006149,1.42412485283676,2.0730716202159556,4.246672666335181,2.138850216936156,-1.0283409311958776,1.5774409130645266,-0.08612491425548079
66,-3.0569295123101927,2.3684956441872815,-1.5827697249754185,1.4396115650820671,1.6473404850009778,-0.020226289436823898,-0.5019121253046441,1.3770388802505358,2.310551680175386,4.504542681025615,2.0568505779246227,-1.6221251115091013,1.482619746287865,-0.31667054837360764
67,-2.7060693072614237,2.644248369283622,-1.5998567442197686,1.658601337664085,1.9665841049660215,0.03440984446625567,-1.0694950889228259,1.2518972772911545,2.2896682731053746,4.3385094659988015,1.868814865630812,-1.949758453687433,1.3322830082397221,-0.39208853347227585
68,-1.875963309108971,2.8588392174461092,-1.2998652315340538,1.8845198025668997,2.153161702670166,0.08618118057534459,-1.422560714452143,1.0480206877128393,2.0139777469570816,3.7491043794665386,1.536009931854943,-2.0212680640284,1.0824702120760856,-0.3636423650650331
69,-0.699569983047818,2.946379958016439,-0.7642324089927054,2.0715058619217963,2.1742188660822945,0.13018075663937506,-1.523448564449608,0.7669754360093306,1.5071275132749582,2.7778966529352043,1.0296592303273497,-1.880834042497748,0.6939064699626264,-0.29720099776773956
70,0.6407518515857923,2.8450002364384486,-0.10890246776389824,2.1663666934799903,2.0076008950520405,0.15574987679211516,-1.3735265038172588,0.41443900790415367,0.8111497605517886,1.5054974491637318,0.3409038767603781,-1.5971317860326852,0.14413130084432824,-0.25947749193425645
71,1.9378997148037373,2.507698324085751,0.5338162112447123,2.11720129223006,1.6464831994837426,0.14924693797522545,-1.0109322884887049,0.0019379480614738925,-0.016096797500802475,0.045418381656858055,-0.5117336747956859,-1.2508375909082643,-0.5627035466972852,-0.30488381648308804
72,2.988013806077703,1.911569648885345,1.0354489845323138,1.8824959533938301,1.1028968035546616,0.0979019495968544,-0.503306344455822,-0.4519942154041228,-0.9043942164454594,-1.4658592019081151,-1.478953719636236,-0.9212416252325542,-1.390338997894664,-0.4650811997497225
73,3.6182151378860468,1.0641416430381083,1.2907760068933807,1.4393943811230665,0.4094609186149283,-0.005968166074119389,0.0632748347685891,-0.9216027211537763,-1.7755913985186973,-2.88178782909783,-2.482306219275335,-0.6739421525295031,-2.2704799804434375,-0.7428049740107784
74,3.7105359629468215,0.005930320838642458,1.2337947940201313,0.7899246644979857,-0.38121605914282763,-0.16122337241117068,0.597493740174132,-1.3748514255051083,-2.5489530632464814,-4.0604029472634515,-3.4210003195287833,-0.5513369629609842,-3.1087694173363705,-1.110822528892611
75,3.2189394107140803,-1.1911949823841124,0.8480468771565933,-0.03580075054342968,-1.1997562772494579,-0.3554631236916585,1.0162256014579103,-1.7755357922328685,-3.147250381250421,-4.879190737892321,-4.183209782358632,-0.567136039536811,-3.7960095898708075,-1.5160618080044208
76,2.177164469551482,-2.4297567513619245,0.1699132296220466,-0.9800371881293151,-1.965812705766316,-0.5645345371606559,1.2563648175459303,-2.0863913111022376,-3.503239323576019,-5.248517213423284,-4.6604305483823545,-0.7054824158067741,-4.2230858136324425,-1.8881557069330184
77,0.696255638662221,-3.595973907240444,-0.7155661218533701,-1.961694600872783,-2.596038352286374,-0.7543214575535042,1.2834874125791627,-2.272852376449451,-3.566013242681122,-5.122034149885093,-4.762906196349312,-0.9245909540577046,-4.297405952445699,-2.1510045847149675
78,-1.0480850037448755,-4.571673052107579,-1.6857996165937412,-2.8841627191389336,-3.013450295201624,-0.8847493305964459,1.09627711975814,-2.3070076193073668,-3.306608440221672,-4.502759448236618,-4.433901119088576,-1.1641981093358886,-3.9583755107570555,-2.235552944125127
79,-2.8368969942628497,-5.24754291094863,-2.5972177999247488,-3.6459102833470376,-3.157117439410945,-0.915525104355193,0.7262469046456731,-2.171260066233458,-2.7222117777058594,-3.4439906318311304,-3.660698335112864,-1.3556369483274868,-3.189516422061524,-2.0918467139538546
80,-4.435537613065324,-5.536268132296687,-3.305126789364129,-4.152684916934669,-2.9909229338406487,-0.8127813166265644,0.23292632697463164,-1.8612294639532223,-1.8383798733028411,-2.044788944852058,-2.48059746762807,-1.4330540624397912,-2.0252787020206573,-1.698576257592572
81,-5.623998292344884,-5.384007043199598,-3.6842007023869376,-4.329838169130518,-2.510135303961448,-0.5555793214069931,-0.30472628988851996,-1.3875142998824668,-0.7088316996241454,-0.44039084578346704,-0.9808169144291805,-1.3441830692431138,-0.5513102216265254,-1.0686783784372544
82,-6.226071900592086,-4.778756596035135,-3.6468476353210852,-4.133156543549264,-1.744689574385873,-0.1411908346966236,-0.7994638632550836,-0.7760465597724105,0.5873903083750301,1.2115104518817719,0.7080248941822789,-1.059181883184481,1.102164879558966,-0.25011422400929845
83,-6.1335220454287915,-3.7543950202882215,-3.156917189180831,-3.556640433461338,-0.7584282133321063,0.41177518475485203,-1.1679361191759048,-0.06691094452887696,1.9513105852625061,2.7471816080842375,2.424351889352515,-0.5763158657333494,2.7732721680150525,0.6784059893223691
84,-5.321964265304307,-2.3896136057773467,-2.2367952647631437,-2.635964256941999,0.3559518539339455,1.063031791480292,-1.3423389698074903,0.6883474113370258,3.2715913806904324,4.014192761284911,3.9927170630901334,0.07630109725587066,4.286261131513154,1.6162918649697076
85,-3.856197401891085,-0.8015222722763324,-0.9667917917091442,-1.4468588328668472,1.4859196900325802,1.7532903897982435,-1.280073954654387,1.430746243000807,4.43366463496089,4.887767521242826,5.2436025936790935,0.8431584204741414,5.471979446771477,2.4534346276060455
86,-1.8840956203737635,0.8656184592201016,0.5232404422757487,-0.09831994131581509,2.5111939094727433,2.409752789283909,-0.9702599359791408,2.0988912386800664,5.329631685992531,5.2842814243496745,6.03356465079836,1.6476680550806804,6.188476626005336,3.084449683394696
87,0.3803019491268019,2.455415169641265,2.069057215222574,1.278733557256887,3.31750186027787,2.9538201710059724,-0.43634856317707654,2.634547431301383,5.868052252478796,5.170327511105017,6.2631973934747025,2.401491807219532,6.339076853213722,3.4228803521748854
88,2.682407729075445,3.8164181845151903,3.4920132480928663,2.5460655598709843,3.81031870007596,3.3101105738306114,0.2654436137240751,2.988214150243202,5.982742433462573,4.566240260126745,5.890555875374612,3.0156082859720206,5.885526257760608,3.4133949341544887
89,4.758134548773959,4.819203533868737,4.621294284231678,3.574202645931028,3.9268102138417604,3.4156878844413,1.0517164970295325,3.1241270173762334,5.6397710659086275,3.5435961801581497,4.93816647183004,3.4116313696235934,4.854413894944365,3.040243046206932
90,6.366376069104538,5.371315710309507,5.315490401396436,4.257932435853671,3.6443674695101476,3.2283537996240703,1.8209000082169489,3.0241390696686574,4.841969387939104,2.2169205509824765,3.4925186164795794,3.531891813351741,3.3359142256822003,2.330732038889447
91,7.318738226051839,5.428131682332635,5.480706392846657,4.529180286147931,2.984511594044249,2.7329438182399364,2.464776265702629,2.6900252471182564,3.630437053789258,0.7305323807854093,1.695877004496645,3.3470013253508757,1.4748880586153623,1.353171611062882
92,7.502724069656982,4.998186421735397,5.082877629469206,4.365526551158365,2.011515641276699,1.9447910259753254,2.8813274954683767,2.1439047143689782,2.08273517473456,-0.7579397334788152,-0.2687499823158649,2.8599907049170583,-0.5446281540724968,0.20950853324376167
93,6.895458533211408,4.142192888633276,4.152734928816177,3.7931799089955254,0.8257678990500129,0.9098553762657845,2.987564976074851,1.4266723171506608,0.3077142720598438,-2.09541478366369,-2.197742540448479,2.106588134699894,-2.519657579106028,-0.9763883192015276
94,5.5662933297438775,2.9657978131370464,2.782825782396925,2.8839489869936332,-0.44740189778561223,-0.2985750412981273,2.7309438007903557,0.5945540289546744,-1.5627619302056834,-3.1504430306402784,-3.8896759146263578,1.1517045249232358,-4.250758973805681,-2.073247235659707
95,3.6680710936174568,1.6069213608136652,1.1170123492548192,1.7465462926886517,-1.6720954006150515,-1.5862714743885233,2.0980370150215,-0.2858781989344443,-3.384587223313672,-3.8274495494858707,-5.168023780802492,0.08263950101094965,-5.5640131652561635,-2.957833090420941
96,1.4182517402786998,0.21922098964978562,-0.6662108132598695,0.5132997394026959,-2.717637205026114,-2.8468074173829248,1.1193334292841604,-1.1437138435784053,-5.013733836588365,-4.076428011209478,-5.90101784451321,-1.0001469668629455,-6.3299236462052955,-3.529375382899885
97,-0.9276648210155739,-1.0462901606772423,-2.3745160822411524,-0.67606035359989,-3.4738035755784336,-3.971632767523748,-0.13066417797879792,-1.91009993778791,-6.318922136726139,-3.8969687626099554,-6.016328461900823,-1.9936569060373979,-6.477105276195072,-3.7212783302989574
98,-3.1070808665220615,-2.0592058471768384,-3.8241464984886213,-1.6914951489431926,-3.863574255378658,-4.860316738092872,-1.5384358882251477,-2.5243622776497325,-7.193317895570139,-3.336249119361267,-5.508919975877238,-2.8032540941834525,-5.999340642064907,-3.508830571166001
99,-4.881777147271053,-2.725047081138002,-4.861259329007057,-2.4284660971618037,-3.851816807257751,-5.429831984869181,-2.961406804769291,-2.939243948108914,-7.563995808826106,-2.481396573980223,-4.441283386456764,-3.3527363651500375,-4.955400475004059,-2.9121592197668624
100,-6.06605471619356,-2.9960240503390874,-5.379687874003205,-2.820433468194912,-3.448844734902427,-5.621948301407869,-4.242158425935887,-3.1247807582005134,-7.39815863215099,-1.4473475390189297,-2.9361331693061232,-3.5925532882389493,-3.461840460695868,-1.9942171039923746
101,-6.548092036344062,-2.875862845137198,-5.33301655983581,-2.8464116680917138,-2.70845671210169,-5.4081188079441,-5.2255839336539,-3.0705066259223166,-6.705512929697469,-0.3618734596191667,-1.1624751968987899,-3.505284184184775,-1.6797204349802421,-0.8540960669756351
102,-6.301903383082463,-2.4180382779027414,-4.73951695771241,-2.5325589332720875,-1.7207750781124265,-4.7916091011750614,-5.777171322242551,-2.7858714969724483,-5.536705194593852,0.6502354601269649,0.6833585994170074,-3.1077108224976238,0.20320870916054054,0.3836040830357711
103,-5.388454634724708,-1.7175759850879915,-3.679322544300674,-1.9475466869450164,-0.6008624895368013,-3.8069644730066945,-5.800259465110832,-2.2989320085453984,-3.978219850056839,1.4817921814299728,2.3996017457786905,-2.4491259196471633,1.9928770057096534,1.582262648943301
104,-3.945865150669137,-0.897419809382013,-2.28414700857457,-1.1922875952795557,0.5253828501551793,-2.517166759866343,-5.250031209581084,-1.6535206539313856,-2.1445346976662503,2.0548364309355724,3.801464614754548,-1.6059057524235394,3.50962611083301,2.6082201419144804
105,-2.1700329084612284,-0.09110110286408718,-0.7207750836805931,-0.385389639260963,1.5362398919036468,-1.0089645452752154,-4.142237465342443,-0.9052035690478655,-0.1685463926558809,2.3279337653676024,4.7415975411957065,-0.6728138144388337,4.607090471128353,3.3457206102217656
106,-0.288281846567125,0.576006811919744,0.8296365551069282,0.35366935648761066,2.32820414099074,0.6131316179591023,-2.5551859186497237,-0.11640079546448767,1.8087072337686105,2.298470698076132,5.126324399267423,0.2480575571389322,5.187229663298233,3.7102232101522348
107,1.4704313293084992,1.00430070105925,2.1938331590167515,0.9212888448369736,2.827350492301628,2.2337805808004476,-0.6243163397113897,0.6489280581245479,3.648159797120678,1.999977562920757,4.92579545550625,1.0594259345618011,5.209919907828503,3.6585747823095005
108,2.904742800801145,1.133951618657454,3.2274454627071303,1.24402693460374,2.9967072902754928,3.7343781204066495,1.4703850606037856,1.330626039202774,5.222051629959467,1.4951735935492214,4.176854147934131,1.680517972389198,4.696085529349172,3.194773393634825
109,3.865610846181603,0.9532530397540829,3.8319493964694065,1.2883529974991579,2.838874254109376,5.001057808678495,3.522933923730394,1.8773115482158917,6.422133054201833,0.8659442008892511,2.978217429232534,2.056764576518822,3.7240396613466737,2.370449338344546
110,4.273253078974812,0.5000058937084721,3.965379574886886,1.0644491577464001,2.3937387578370246,5.9329257131342645,5.323826068040174,2.2505973845481217,7.166557694099493,0.20176213884686264,1.4784489453035667,2.1661078948620895,2.4194428856628947,1.2797295783837748
111,4.124109362545221,-0.14439514943266793,3.6454096258478907,0.6235079865885259,1.7317621849721854,6.450223571725783,6.683806189832683,2.4281922619349006,7.405341419565454,-0.4118690354516666,-0.1419398417164105,2.020941306928228,0.9400074415956027,0.0487986963775413
112,3.487094039035387,-0.8674349092263133,2.9444690153243727,0.04894892351625527,0.943846116981101,6.501917406591514,7.456002584668563,2.4055648941769516,7.124202814244404,-0.9035170640443698,-1.6921911366791265,1.6652996335206678,-0.5432997044020754,-1.1788359418962784
113,2.4899707848101005,-1.5427523501505198,1.9776980845340226,-0.557090048279936,0.1291857120713658,6.071980088113971,7.553601678695147,2.1959403398085744,6.346482309278189,-1.2233469864150306,-2.9942134318700155,1.1676269137019908,-1.866345082226469,-2.259715548757957
114,1.2981313789320894,-2.0496661559959928,0.8855770969633102,-1.0898887985856491,-0.6172710995678354,5.183466778270183,6.960726573697765,1.828547423572182,5.132736902964248,-1.3473656121162765,-3.9038838921187122,0.6101571751122481,-2.8907852962921186,-3.0682843310498558
115,0.08914911565699442,-2.2919814544961024,-0.1861694988664383,-1.4583973697526935,-1.2161420460092867,3.8994602625677466,5.735013498228381,1.3452390604539317,3.577602117831676,-1.2781409744950727,-4.328038814398585,0.07651661978373486,-3.5195553311385828,-3.5128480227801244
116,-0.9729708574805074,-2.2131511105134316,-1.1064264579050938,-1.5990792162678686,-1.6123059350882853,2.32014670219607,4.001437706078349,0.7958340867426115,1.8036558124120758,-1.0422016866583221,-4.2349367758372045,-0.3605227238927352,-3.70695390666612,-3.547375728718886
117,-1.7599956569714195,-1.8053824516856514,-1.77542822437427,-1.4852163353677723,-1.7799724693621592,0.5756805296659638,1.9380775212956816,0.2327316776196173,-0.047677953354150336,-0.6847024746920654,-3.6567926248844054,-0.6492088521725797,-3.4620729182219985,-3.1773628192938057
118,-2.194955915565316,-1.111203061545107,-2.136060103006458,-1.1302873185370135,-1.7236448523610357,-1.184933007438543,-0.2444372335312806,-0.29452384358088457,-1.827722229277061,-0.26221772025107803,-2.6840238551305275,-0.7653011990964583,-2.8451949989613743,-2.458764553854256
119,-2.2589283510090548,-0.21718826385520357,-2.1782974650164366,-0.5849924638017261,-1.4750644831264457,-2.808058514278339,-2.327216355238324,-0.7440377985128698,-3.3937162092922875,0.16532237008712836,-1.4519845709600026,-0.7139123806129147,-1.9577371473449052,-1.490008417524139
120,-1.988576200688304,0.7591814174353285,-1.9364763805515797,0.07147163594482968,-1.0867719188614513,-4.1512675316787,-4.10807924590668,-1.085143346146534,-4.622252907574698,0.5425071453935618,-0.1220257679705657,-0.5265233302466965,-0.9272130130700512,-0.39814395204229364
121,-1.4654175254638662,1.6874346336640624,-1.4802311208433703,0.7443639201011051,-0.6233637808231179,-5.098869733687644,-5.424071410413478,-1.3004025121905103,-5.421457168399467,0.8251681917524547,1.1404489495459422,-0.25383169394711164,0.1106153117711557,0.67888330964606
122,-0.7990795652533048,2.4439028333604074,-0.9009064937505863,1.3383946008162424,-0.15180725094520503,-5.575055323189691,-6.168742917817248,-1.385933501101972,-5.74037170695386,0.9851688136126658,2.187809245528605,0.04418623282887972,1.0298396392415254,1.6112074502736828
123,-0.1076535873592521,2.9301905882319033,-0.29588832565828105,1.7722992343796535,0.26775211289369855,-5.552734916393386,-6.30211971169215,-1.3502180244923354,-5.574243560964887,1.0127515586021827,2.9087997984384044,0.3091562564740993,1.7302058119023376,2.294414390249919
124,0.5014490741278589,3.087360663637718,0.24651070723759386,1.990663725423484,0.5894013252282063,-5.0566608957026915,-5.852284029196389,-1.2117307370597001,-4.964834952712532,0.9162718106943332,3.2413187523412983,0.49417440208642616,2.1484528331686756,2.6627033721084152
125,0.9470549787426058,2.903626917638099,0.659239177288801,1.971202586114549,0.7861472539159288,-4.160180649141083,-4.908605129627609,-0.9958366177552006,-3.995476612447598,0.7195087615765813,3.1776977072065113,0.5709694076981461,2.263768831447676,2.695920499830999
126,1.1839510660308663,2.414480561660018,0.9040572195026506,1.7265124623774737,0.8514180313136773,-2.975892503110589,-3.607773208776683,-0.7314221607143822,-2.7812740381396055,0.45707950882482623,2.76199614722671,0.5332421763045879,2.0968914095695736,2.4195652984826106
127,1.2056974345120404,1.695474320250937,0.9736520648668276,1.3002797864957147,0.7974426578577322,-1.6413953325480786,-2.114727760849794,-0.4476778237851935,-1.4555770846623555,0.16872936774805553,2.080072751643156,0.3958281945717734,1.7033749813156354,1.8980354807800284
