,AF3,F7,F3,FC5,T7,P7,O1,O2,P8,T8,FC6,F4,F8,AF4
0,-0.1993288667326163,-0.22714792352305074,-0.25452267368142384,-0.3078394644039609,-0.14228821102730466,-0.11038742356107657,-0.25630899142236047,0.11708342964861262,0.7253317825542795,0.2506336436942106,-0.3981997706387557,-0.050831966374581844,-0.28230284747938567,-0.19895969227183546
1,0.016034697033463424,0.014478643673730916,-0.8502597459418724,0.5450050172906353,1.1171722348379367,0.3210068943464788,-0.5445386621579963,0.008531410240397056,2.0474984934467257,0.9788137276259781,-0.8024913087698419,-0.27940109939806024,-2.1285909119225743,-1.3106615616606345
2,0.16810002090414303,0.23365215371189862,-1.4292040650519675,1.3196983107326599,2.245579582216507,0.718847412459383,-0.781064804324133,-0.14567765979872258,3.137525327294499,1.5732874673688952,-1.150636093499696,-0.4922237049804522,-3.806549484213571,-2.3226679474702343
3,0.24470784514931776,0.41349687420883274,-1.9319671325384065,1.9550975900930125,3.109831950853462,1.0433879018014367,-0.919643070426276,-0.3377877755301761,3.887640478477121,1.9683859199879443,-1.3930434885055254,-0.6137376846283973,-5.160470187277649,-3.1100501282639152
4,0.24710704336726888,0.544326860358127,-2.2996092515656326,2.408648729105854,3.6081241268314455,1.258956664286061,-0.9277594763319212,-0.5510125835176117,4.229023209047637,2.12837184914024,-1.4846096438187413,-0.5785430455260373,-6.060440990075238,-3.5719139180644586
5,0.18906837254007586,0.6238671683518597,-2.4811812256850807,2.65986820818598,3.6824192419303174,1.3385137599548806,-0.7913313218546806,-0.7605539552100281,4.140932454255042,2.0526961045282675,-1.390378032250383,-0.34324409274003115,-6.41585827160453,-3.645517616547197
6,0.09391958465169889,0.6561540742671375,-2.4412924399134828,2.7105714274008528,3.3254092937971276,1.2677673165508476,-0.5169631480910438,-0.9363039656008986,3.653328618171947,1.775237395738156,-1.0916184369193498,0.1042528849254786,-6.18595580660436,-3.315551140449298
7,-0.01001028299534292,0.6494051244150859,-2.166601552062025,2.5819935124089666,2.5811064238359283,1.0481972812609188,-0.13148208292694008,-1.0469733727478596,2.8424849990560626,1.3576206849613874,-0.5914124513948803,0.7394875388599886,-5.3860361237500785,-2.617228020744281
8,-0.0947673732183758,0.6133452041026057,-1.6701379869148467,2.309450883156572,1.539053209760452,0.6984133696154332,0.3211896979772843,-1.0650903667986793,1.8201785857607597,0.8777888455405803,0.0813941909714699,1.5012627019734384,-4.088380933986062,-1.632704887974251
9,-0.1380406564407685,0.5565735260073483,-0.9925453282318182,1.9355747500670646,0.32297693217842216,0.2534582142857755,0.7854510469517338,-0.972084448543814,0.7180611657944002,0.41588184966139413,0.8710351411909654,2.2969186236682444,-2.417269306505565,-0.48125726694367293
10,-0.12738382646570273,0.4845417216802723,-0.19968215087031257,1.5033459020563098,-0.9245745900214616,-0.23806456046819235,1.201084896975678,-0.7625606304854788,-0.3304281203073203,0.03999574071568971,1.6973957663271781,3.0127330087599984,-0.5381194453520043,0.6955301704880417
11,-0.06260534400425873,0.3985889686031128,0.6235131569753045,1.0501389997683543,-2.0595867760746844,-0.7188476139912623,1.5111287651678589,-0.4469143557174661,-1.2078722954531362,-0.20555657045040854,2.4627630132765033,3.528398893609127,1.3585522835399917,1.751664421656183
12,0.044164681651104494,0.29626533262600474,1.3824439657226257,0.6037446422689035,-2.9536896409108997,-1.1292358890217156,1.6695954541810882,-0.051649103874771944,-1.827751816400813,-0.3073058870731403,3.0625140021746216,3.733901881649828,3.0769595538779506,2.555462019652257
13,0.17082166131294446,0.17290314761670453,1.9845700489521116,0.18091957865266184,-3.508902523289439,-1.4143592003756447,1.648061278117684,0.38288759923152904,-2.1442501566958834,-0.2837001012512524,3.3987221623760013,3.5466552337852546,4.437633202624184,3.0067110055354167
14,0.28969829229490845,0.024117826937924025,2.351963709267196,-0.21150052313748754,-3.668278849367744,-1.5311762502948265,1.4402220537751356,0.8071976806365353,-2.1557164243761644,-0.1800088329678058,3.394936355230868,2.9265308368794836,5.298287547622478,3.050083340217857
15,0.3732946258061759,-0.1513072228981584,2.4329721209735573,-0.573401190724048,-3.4213178620368474,-1.4545290954479975,1.06371837966144,1.1691648981909268,-1.9015559700229425,-0.05804348161856908,3.0098896757073184,1.8865043450517032,5.571324450738752,2.6830420594854987
16,0.4003059836061048,-0.34881867485539864,2.211211725545555,-0.9069780315390322,-2.8037195807458555,-1.1813823303218707,0.5588430073679557,1.4214773840681498,-1.4533614582708718,0.01734538282271399,2.247755244845985,0.4970383718518411,5.235536939724151,1.9571452590223066
17,0.36082996090870245,-0.5564275133986518,1.7103560215237918,-1.212203923053494,-1.891773515940087,-0.7326019393298919,-0.015864873749743613,1.5287838644991065,-0.9019579217444053,-0.0075733644662310225,1.1628550487917617,-1.1169665791549146,4.34015933239679,0.9724582233486732
18,0.2597275967379354,-0.7544849799287908,0.99366844007297,-1.4832553463723697,-0.7922989888931455,-0.15189745811422506,-0.5907053878116705,1.4734152069695887,-0.3425749900951977,-0.16328630162316835,-0.1425708764131083,-2.7868969358905225,3.0003230384655266,-0.1343547189657724
19,0.11738118707754368,-0.9171557891712764,0.1579146167081527,-1.7067581764350568,0.3704750877768049,0.4981220697121948,-1.0937419677094873,1.2586977656145697,0.1394993488996028,-0.4492581640145799,-1.5279123812961704,-4.318042462163737,1.3840963121971621,-1.2068916377163585
20,-0.032511571584664396,-1.0155391959663043,-0.6779290302867769,-1.8623317190938269,1.4694330032180725,1.142480426973249,-1.4603975222230006,0.9092555210229768,0.4806826387481589,-0.8320184282487029,-2.8302657190920697,-5.512329790110355,-0.307550540258223,-2.088835238621454
21,-0.14799727607385968,-1.0220794690347217,-1.3879785959044406,-1.9254442387660373,2.3887817440151116,1.7023262782213064,-1.64238281839892,0.4681754115537684,0.6467446941914462,-1.2495584586719537,-3.8851314922799554,-6.193580790481565,-1.8654820117097206,-2.6443620119700495
22,-0.1861879876634355,-0.9156418636797777,-1.856907036651391,-1.8721278196193465,3.0363713184982677,2.1044743830222647,-1.614643525126898,-0.008595265099227282,0.6355452221161617,-1.621345569743288,-4.5489516277828566,-6.23217311699795,-3.098725875855843,-2.776661846781881
23,-0.1118168920711234,-0.6864478731515201,-1.9972702314034942,-1.6847108143872946,3.352854144455484,2.2908806912294546,-1.379255153643779,-0.45982610354779596,0.47484011969486073,-1.862257836628253,-4.720227948981022,-5.5658189813176975,-3.858955296693277,-2.4422635282001663
24,0.09432415490588142,-0.33999296326679884,-1.7642287483743433,-1.357472822418377,3.3168333224847326,2.2268392826659507,-0.9656265243382728,-0.8274724479492344,0.21580700035542316,-1.8980544778458597,-4.355981637247107,-4.213427003323868,-4.059824780721644,-1.6592763906087205
25,0.4285712531272851,0.10086970161119702,-1.1653588042212837,-0.9010544737719777,2.9456342875100794,1.9067318855865742,-0.426922871762614,-1.064830886458772,-0.07655533361569535,-1.679731722736804,-3.480836900231899,-2.279669504136304,-3.688456169553931,-0.5082763389123296
26,0.8606285425463442,0.5962947306495994,-0.26374487925695306,-0.3445871382465371,2.291825127603704,1.3563663715512473,0.16680697482142798,-1.143226252617373,-0.33468198325824233,-1.1943024971704024,-2.186984669701221,0.05110113328682621,-2.807361029080607,0.8746541522752088
27,1.3339521839545556,1.0925407382190975,0.8266437726805135,0.2651589408151613,1.4360556746292217,0.6313134614777619,0.7378200854614632,-1.0562773489342239,-0.4997403026596675,-0.47012943926411044,-0.6245760622144703,2.531651533833783,-1.5463543104872668,2.3123273606538315
28,1.7707879622436542,1.5276532202306141,1.9532536713977968,0.867820872548599,0.4771445446499362,-0.18883418690633813,1.2108757014437368,-0.8211087185334819,-0.5313850005002663,0.4241793656192336,1.0164760156239472,4.878027915109429,-0.085393797041001,3.6069570454826554
29,2.0816304972363753,1.83914219503768,2.9437596575513565,1.396334861623704,-0.4794088505099779,-1.0097617133160994,1.5230137474491299,-0.4762730057901835,-0.4145710748003792,1.3872859640357993,2.5309705599149503,6.802364945194675,1.3694321609144815,4.5645770824563785
30,2.178092265133673,1.9726742245464852,3.629179424791784,1.7857906475249057,-1.3331886242160997,-1.734193559565664,1.6315990076679643,-0.07658213625883503,-0.1623796147150155,2.29803076901235,3.725826791849944,8.04853003955149,2.6135512904598195,5.020520648856561
31,1.987487865393464,1.8905427633229162,3.868286837584267,1.9829561356684091,-1.9996158126278485,-2.2745670603893156,1.519609310751195,0.31452729818316233,0.18567381301289582,3.0318895476320504,4.446551425162123,8.426131237358131,3.4714277269166116,4.862766230527382
32,1.466976305216456,1.578611631218661,3.569920123880136,1.9549715466650166,-2.4185457962220624,-2.564836276123871,1.1975653555207546,0.6340977560574415,0.5697340540329774,3.4785890127561636,4.598936054596094,7.838327973521185,3.8201889587309106,4.050009399996154
33,0.6149548479674526,1.0505674502966247,2.7098589180746577,1.6957508979769955,-2.559824695813126,-2.569670417215764,0.7019702982959597,0.8289644330409939,0.9192854934383068,3.558296832370324,4.162782481169811,6.299419997796182,3.6061240493344493,2.621793350972939
34,-0.5223907360476897,0.3486534050974677,1.3395164874679302,1.2289154892656322,-2.425274073930532,-2.289642653816219,0.09057800434974367,0.863915887015812,1.1649434987249343,3.2339894612404514,3.1955676774732154,3.939315484857611,2.8518083667199208,0.6988942587459628
35,-1.8509129266366728,-0.45946321361485515,-0.4152985583450271,0.6065755234835636,-2.046987874438099,-1.761573422006756,-0.564817455600582,0.7274308845407209,1.2504275948282932,2.5181485909044987,1.825395012331581,0.9935705366242213,1.6529144120026347,-1.5266786619046495
36,-3.235394289401091,-1.2874897498967446,-2.365980413486298,-0.09610618845601797,-1.4822556451069357,-1.0539024621992052,-1.1871178532692632,0.4340225143992305,1.1426534254311922,1.4727665129561545,0.2341205444230743,-2.2204502793009064,0.16519793974020203,-3.81138168679249
37,-4.5131772451214704,-2.0402422327215666,-4.282067546188064,-0.7899866809248313,-0.8058197472779118,-0.25769532676697976,-1.7030958672118357,0.022707173173842167,0.8381444501048513,0.20262472116434646,-1.3670366036163732,-5.338866238351338,-1.4165005304676088,-5.887529772533175
38,-5.513164450233842,-2.625146370848697,-5.919140453262927,-1.3834920592022497,-0.10047907243102361,0.5254756127837095,-2.0519157238441674,-0.4482804946697444,0.3645979877989037,-1.157208020396759,-2.7660034160433007,-7.993964835763278,-2.884316513954461,-7.4952558169700545
39,-6.077913963877496,-2.9640531592348998,-7.050194471061784,-1.795067114287458,0.5527760444038495,1.197092789175153,-2.192016030718991,-0.9097882247230074,-0.22267882922127066,-2.4578873686501046,-3.7784916978165324,-9.859061528179113,-4.044899809433458,-8.415140325049391
40,-6.085922757749225,-3.003821553497627,-7.496357155626839,-1.9647583274154665,1.083899126112421,1.6748216083405647,-2.105582874298671,-1.2918095894997068,-0.8488072162480506,-3.555002302988993,-4.272763542257127,-10.68982117024484,-4.744693765331414,-8.497330446701863
41,-5.470952425309631,-2.7242242814562463,-7.1527269950537224,-1.8632290074365718,1.4411391768000987,1.9034042219983802,-1.8001325534566406,-1.5337488440263096,-1.4303979451581983,-4.32598672451123,-4.187089147608118,-10.356587057195732,-4.889594317002241,-7.683229471419346
42,-4.235462185861596,-2.1420239356883286,-6.00560960943634,-1.4968199120932433,1.5958321165914644,1.8618415922371283,-1.3070677643641562,-1.5932855081282211,-1.8877029890012067,-4.6844360203819315,-3.5375237217756843,-8.863274859930813,-4.456463765077299,-6.016641048957475
43,-2.45587101025451,-1.3105158581274146,-4.138470574187539,-0.9077919497515998,1.544219370009074,1.5659050549023303,-0.6774376335846615,-1.4524763066653414,-2.155845274341816,-4.58956370879358,-2.415019516432968,-6.35003787115842,-3.495136742879037,-3.6425124481791777
44,-0.2784000867563716,-0.31439599543063657,-1.7253833212639307,-0.16955233213628484,1.306274468977142,1.065654978540774,0.024516118837431024,-1.1202076291595684,-2.1934249101543744,-4.049802422758935,-0.972395969689998,-3.0789867032166978,-2.1208693958184393,-0.7929853571427085
45,2.0944831215413067,0.7395766361507129,0.9875640700564386,0.6226156159805908,0.9218851203302413,0.43831287546178815,0.7291530602048243,-0.6307311609451113,-1.9873990606867709,-3.1204191951161233,0.5969026432932116,0.5955261373876135,-0.4984630700403754,2.2378692503931217
46,4.425662708990475,1.735068282009379,3.710759515852684,1.3641257767383872,0.44503129852429796,-0.22254576885734567,1.3695150247806485,-0.038655211478369575,-1.5538597400406038,-1.8958276341714624,2.0852216754712845,4.268475268670262,1.1796294460938115,5.127708029698808
47,6.470453712424893,2.5602792062423188,6.145880239478425,1.9552478418478176,-0.06321125940218406,-0.8200078210442642,1.88861884834467,0.5886990419839329,-0.9350195510022198,-0.4979127706290937,3.2985776483379,7.5323823678344475,2.718172147015625,7.563834699593232
48,8.005720024100286,3.121852619751883,8.022489687201922,2.314847426576771,-0.5419428235420769,-1.267255831669301,2.245035801301287,1.1803254015878846,-0.19322707146652063,0.9379411723301434,4.082172302688408,10.026048974567718,3.9436421625428064,9.280577247795632
49,8.857177346583784,3.35671590718931,9.131538048162147,2.391714766577484,-0.937135410877128,-1.4995382149338978,2.416131302063277,1.670587684340883,0.5968930315705285,2.2773357216131913,4.340120481187399,11.477555002663102,4.725164324139385,10.091289076990346
50,8.921173735450495,3.2402050408183145,9.351238101115573,2.1718066923293176,-1.2070502753203096,-1.4829731777467126,2.3987260174195106,2.0070628359145566,1.3570348862662218,3.400224497649974,4.0468597282059156,11.736017122953589,4.989273183221227,9.910780060696112
51,8.177941539495434,2.7892931719730463,8.661800826164185,1.6803102984592568,-1.3258931896549573,-1.21891984431778,2.2073397178612577,2.1562220551874147,2.0135216818748147,4.211860104601886,3.2489210912780546,10.788097571977973,4.726800099920414,8.765216491590879
52,6.6944786731793595,2.060409828716854,7.147054394406056,0.9782025462663215,-1.2854716064007645,-0.7432961171122359,1.870520450422387,2.1063891916821285,2.5045215968491616,4.650448445186135,2.057093326579622,8.757302226021094,3.9912886067218163,6.788193161784479
53,4.616670913930096,1.1421046228003193,4.982812128150303,0.1538111461927128,-1.0948594467201325,-0.12098580649403445,1.4259904754259207,1.8678345331228103,2.785597877097297,4.691089927764074,0.6303174596411932,5.886421159431126,2.88949271010367,4.2035468785598304
54,2.1517829658350487,0.14355984903166158,2.413719629614667,-0.6893566382642202,-0.7782846552594235,0.5637659255297884,0.9154285455047767,1.4702490579773986,2.833251304070427,4.346005819569191,-0.8462687456594064,2.5057150382604125,1.5655555981233962,1.2972786452636176
55,-0.45621817439799467,-0.8194348351664464,-0.2780913615470366,-1.4466901989723207,-0.3716168427767272,1.219451896258844,0.3796547097964446,0.9581516206675653,2.64631619807261,3.66139030291089,-2.1860014035456525,-1.0086904033868842,0.1812576849638629,-1.6175885989655887
56,-2.9551020093092677,-1.6390710189520714,-2.808132840387588,-2.0263697548422694,0.08205954572903153,1.7600146153264076,-0.14518464590388463,0.3849795719851906,2.2452405018733494,2.7114705202566087,-3.2246885618674517,-4.280543660396859,-1.1048495805396241,-4.2384909467726235
57,-5.112764582542603,-2.228648469377729,-4.923658902810804,-2.3610760034487677,0.5372497641319189,2.1162441196399158,-0.6300715177111716,-0.19330832723490643,1.6694195427788863,1.5904954597700787,-3.8407831986358905,-6.97731790285631,-2.1566043251002043,-6.308213181429816
58,-6.741934970066162,-2.532483062550302,-6.432233132415185,-2.4159194067905765,0.9507008277649655,2.2442205004441766,-1.0541066547435154,-0.7243223644723219,0.9728736199882327,0.4034296680567898,-3.969247812057497,-8.84664978792714,-2.875278856816889,-7.6427674495429745
59,-7.718264996981408,-2.5313725766537654,-7.221228546631307,-2.1916401011193396,1.2854332962588615,2.129715342847551,-1.4041632479141954,-1.164359124010727,0.21867394825124875,-0.743867544384558,-3.60760911441142,-9.741101611508645,-3.2088350372927907,-8.148970065519562
60,-7.989957459363875,-2.243100974313711,-7.26616007494061,-1.7228964297436944,1.5137929912170676,1.7881816854614128,-1.6735131020411311,-1.4820723453025946,-0.5273712183203788,-1.7542156236093942,-2.8138327720031993,-9.628776951291735,-3.154643329867851,-7.829981322086753
61,-7.578369950266246,-1.718213043572579,-6.627419747882543,-1.0722128291311337,1.6192981240261874,1.2606953769477653,-1.859853827301216,-1.660452438691633,-1.203177258762583,-2.54771203798265,-1.6967556649576037,-8.589360483883494,-2.755873590644217,-6.778804878574022
62,-6.5702896313606365,-1.031962939252099,-5.436622394599482,-0.3207677812899536,1.5972001969257352,0.6068211361485484,-1.9632171233461118,-1.6971010123615036,-1.7563667050203409,-3.0686872107572136,-0.40074078629985743,-6.79712275010918,-2.0926004503933053,-5.161380182206805
63,-5.103606983980326,-0.2738201428062417,-3.8751235243211037,0.4424314297166409,1.453814884235736,-0.10424025599041715,-1.984217491363149,-1.6029892225774507,-2.149182066470674,-3.290430504110414,0.9131519646740776,-4.494039463745564,-1.2692640084541889,-3.1921947141419142
64,-3.3487774057485704,0.46386950110015224,-2.1481487653314817,1.131369104783635,1.2048059666242572,-0.8027569498265904,-1.923008533971353,-1.4000345711788222,-2.361820055053014,-3.217220214375195,2.086925732470271,-1.9572054605420663,-0.4004188946263164,-1.1061106508789216
65,-1.4886879641600301,1.0965372560189508,-0.4582778508740132,1.672427454454255,0.8727141470669924,-1.4265048440875734,-1.7791629702916076,-1.1179047674706983,-2.3938091517482407,-2.8833490612044317,2.983895247063849,0.5349277927393106,0.4033177503497917,0.8697349408069859
66,0.3006261000168528,1.5561305489079313,1.0182346727673637,2.011383565093058,0.4840994406454235,-1.9267687743281798,-1.552506472084102,-0.7904619296386953,-2.2632216865827615,-2.3490532238954525,3.503400947323866,2.733272868709109,1.047495071765038,2.5404982775876728
67,1.8664431334112688,1.7971525670743382,2.149543801395909,2.1175096278159677,0.06669380441968287,-2.271792710368868,-1.2447426187810438,-0.4522123962934331,-2.0037192305347564,-1.693540106477075,3.590586132285417,4.4424128552071505,1.4630668511997902,3.762043910388238
68,3.0916625209181157,1.7996974494580715,2.8589739225435222,1.9847775097690525,-0.35307145910252635,-2.447637696316779,-0.8615329290852464,-0.13504980523394924,-1.659669661994071,-1.0056563577336946,3.2405425329223543,5.536317047687509,1.6119966692951284,4.451677892574313
69,3.9023023813735525,1.569600649591047,3.127877801199535,1.630549883757473,-0.7518890096246758,-2.4568031693897563,-0.4145653184256084,0.13450512866328881,-1.2798287817961018,-0.3730997087899617,2.496826891949746,5.964625795451812,1.4890904222053623,4.590829110905574
70,4.27014363939539,1.136133473614572,2.9911215476806707,1.0923656363633414,-1.1106058523889384,-2.315226221731044,0.07692066361270908,0.3374365525937209,-0.9103213170972203,0.12861127509590375,1.4449584924856276,5.749938708452733,1.1203360608180228,4.220360212153681
71,4.210955419551834,0.5478428892122654,2.5266279587775125,0.42349024458146345,-1.4144622417363397,-2.048371589310273,0.5856609295668279,0.4636531178719848,-0.58784810054019,0.4460102737442195,0.20196667370995655,4.977583078464819,0.5583315464790278,3.4299993447908785
72,3.7790552857335076,-0.1328170187013967,1.8410157232313067,-0.3121682538951153,-1.6526712595168878,-1.687080373677731,1.0773323408853377,0.5126330029204904,-0.33414182273304394,0.5550034591724647,-1.0966610660371205,3.78003769850817,-0.12444142048196437,2.343875754220805
73,3.059123580118131,-0.835464794090271,1.0536277004234016,-1.0453262455852872,-1.8175648237040358,-1.2637036120908094,1.5131236617909005,0.4932380531229403,-0.15264514622031752,0.4644686267600105,-2.31117315245718,2.318496127818806,-0.8436732917005814,1.1043006156029935
74,2.1562324226143676,-1.487889355990201,0.2811502581863052,-1.7064920063348012,-1.9035782095506004,-0.8088658092404364,1.8537877754401508,0.4226503265382745,-0.02815804872079954,0.21540650964023464,-3.31147813059477,0.763990194489728,-1.5118061819399002,-0.14420800862183283
75,1.1850026485320564,-2.02189502905699,-0.3753642972470483,-2.2308924958411125,-1.9063475607026243,-0.3490373982345522,2.064728306837069,0.3244186716126893,0.07020714797141037,-0.1244835744867471,-3.989552922155493,-0.719875076062496,-2.0464124191819457,-1.2690335607540906
76,0.25870366870683315,-2.3786350819332793,-0.8398590581003329,-2.563101967324377,-1.8221619282519634,0.09502310665699791,2.1213789318666345,0.22567768978160083,0.1829745720070748,-0.4702646996054459,-4.2693405484910905,-1.9910989648167807,-2.3777695647475356,-2.160598226289713
77,-0.5210011627590893,-2.513254848186011,-1.0664924903366757,-2.6613259327844636,-1.6479475491834559,0.5089641732824487,2.0139389382450936,0.15371787842087253,0.3519722159286713,-0.7320889515702945,-4.113440829133008,-2.9395571707902968,-2.4551661342377646,-2.739980131332031
78,-1.0730582593410636,-2.3987020756762045,-1.0408438220184033,-2.501233799261455,-1.3818686694872955,0.8847174029094039,1.7504990419224185,0.13222401976722742,0.6110603430382081,-0.8287278925964529,-3.526207841901908,-3.49317095473946,-2.2515983011920206,-2.9629598778551403
79,-1.344240588920583,-2.028557407212548,-0.7777427419868718,-2.079123428211566,-1.024513106381786,1.219628030809736,1.357759174072368,0.17762077143019472,0.9775743308713497,-0.7003920433668409,-2.553167383851637,-3.6202634337003783,-1.7666192630293363,-2.8208202591162235
80,-1.3140906776043615,-1.4187051983089751,-0.3166686842018291,-1.4140792914047595,-0.5805072456954808,1.5149493036432102,0.8788926718713456,0.29602937598670276,1.446124644991673,-0.3189711160921911,-1.2769421253564917,-3.328695965205945,-1.0271829330424986,-2.3384436289789776
81,-0.997154165429556,-0.6076245865920513,0.28425670497040545,-0.5486966073491011,-0.06029243110206012,1.7738589116050616,0.3685960079511924,0.48132252506094897,1.986037721765088,0.30582590246146035,0.1898920353902291,-2.662485510670372,-0.08639550486212627,-1.5703205407023964
82,-0.4421507694965729,0.3449419866809627,0.9547865412186234,0.45207408178252784,0.5182902134163835,1.9992145005333946,-0.11410604303296877,0.7146628012747567,2.5430829648451665,1.1253676092121936,1.7144120898266757,-1.6965448165657764,0.9798350421295636,-0.5950280038216749
83,0.27212671348633244,1.361161972398564,1.6189428913298252,1.5043249979140971,1.1289995435313547,2.191323661765881,-0.5142599014738394,0.9657381663623049,3.0453570430022054,2.0562598903348515,3.1546860998590196,-0.5300236373719265,2.0781711808613577,0.4913958133200043
84,1.0441666759686499,2.350250142875531,2.200967510676146,2.5109982837995397,1.7371511077741093,2.34604552605478,-0.7892427668814292,1.195691207114459,3.4124634313297815,2.989281329001544,4.372036569227456,0.721453212845919,3.1050462870583515,1.582895874108442
85,1.760010106121704,3.2155090548780847,2.630771425456092,3.3699654889639263,2.300813104754301,2.4535511818783005,-0.9154715818437126,1.361510319011302,3.56658932441679,3.8020001334842415,5.243371380343067,1.9344730937518464,3.9553532487248755,2.5714636863456914
86,2.305719083651074,3.8629492134597423,2.848968366481937,3.9838683160870683,2.7733683372049707,2.4980388645339855,-0.8923453149602378,1.4214458126986145,3.443838248061304,4.373548559446279,5.672684951030175,2.9872711184828584,4.532098345237503,3.3556019652545555
87,2.580925921242535,4.210860776815454,2.8115707901231626,4.27082724442811,3.107366010907466,2.458622623298338,-0.742628692192833,1.3408601639266475,3.004238447092401,4.599808528517958,5.600809501993418,3.769613969552164,4.756294654928186,3.8488516479906743
88,2.5120148525916486,4.199419266151489,2.494291596041145,4.174814866470234,3.259366232285048,2.3114890090318934,-0.5090650531395655,1.0978332562452746,2.239155314388295,4.407245375888313,5.012514206912075,4.192618747436141,4.576184874183334,3.9878619868875678
89,2.063303106716913,3.7992002210132867,1.896186727249728,3.6743295501450706,3.195275841436509,2.033247756774235,-0.24764029153498948,0.6878219221818115,1.1752847285809167,3.7637916880546154,3.940136655931158,4.197752679482321,3.9747677988889816,3.7393102068789688
90,1.2446146181184299,3.0174093776370148,1.0421689077278178,2.7880427884367407,2.8955214106895313,1.605199578538885,-0.018500050129453913,0.12671554823807915,-0.12512714155016158,2.685494357246919,2.4631088721585668,3.764065755725385,2.974602034915462,3.1048719760385417
91,0.11391045528396698,1.9007419910529058,-0.01620445507863428,1.5763455014213317,2.359333423889222,1.0180318238732353,0.12405146500202853,-0.5482648933791262,-1.567801736981251,1.2380570645356208,0.7030222079778844,2.9126354366259224,1.6390047887899282,2.1234552521581636
92,-1.2258513061431677,0.5340767544390057,-1.202258789556358,0.13816375348580467,1.6074448813246398,0.27627191663843675,0.1408469657953189,-1.280206851448764,-3.0333805746938234,-0.46709643902695713,-1.1857384426539848,1.7073063588004898,0.06906060447851786,0.8700648040662454
93,-2.635757358307519,-0.965335436012205,-2.418468461956985,-1.3970023042602244,0.6826439086275949,-0.5982729079493312,0.014896657367780857,-1.9968316509926625,-4.387343353501227,-2.282075327081024,-3.029292367062751,0.2511091307631592,-1.6037128229048772,-0.5490372097301102
94,-3.95522156985018,-2.4579647060149563,-3.553573741367616,-2.881224346076937,-0.35214764964894724,-1.5648422296830113,-0.24503523153194462,-2.6173524964337966,-5.492288215958482,-4.036377846118126,-4.650492477608537,-1.3217848440037574,-3.2286714343351877,-2.004799762794027
95,-5.020078276631672,-3.795563640194768,-4.492254050065979,-4.163288956019394,-1.418297082862814,-2.564407164489413,-0.6049738791312487,-3.0613632145079896,-6.221787282853908,-5.554112943480935,-5.886623854474275,-2.8581396370236587,-4.650407999197518,-3.3569442967658643
96,-5.682435558134434,-4.836853757918279,-5.126629274448267,-5.105187829122229,-2.4280841146740455,-3.5230072195096436,-1.0103778214777495,-3.2588911151204276,-6.474754378205314,-6.6728954363714585,-6.606766450402906,-4.2007440355993335,-5.724769187624419,-4.467640754197787
97,-5.829868198434428,-5.463605278466878,-5.3684750594910495,-5.598044524974732,-3.2929130738735117,-4.357637341918892,-1.3941833278484057,-3.1604246447686126,-6.188920255998011,-7.2623909303464105,-6.726865859176241,-5.204998150720474,-6.334779073827276,-5.215964718196822
98,-5.401475909705743,-5.595190031019315,-5.160765939859026,-5.575545595010978,-3.9322534489353593,-4.984158647809092,-1.6869863892131525,-2.745520946570601,-5.351707693333601,-7.240338806696481,-6.220641903406502,-5.755154594006835,-6.404583643658296,-5.511584787428689
99,-4.398606581401954,-5.199733348229984,-4.487049381685198,-5.023163937513977,-4.282297492631652,-5.326339263757933,-1.8277581177094229,-2.028582842102075,-4.006682398984005,-6.583980246650791,-5.124800475300331,-5.778270652627452,-5.909634397730036,-5.3060835384288145
100,-2.8886124475503405,-4.300277777660383,-3.3772308155568016,-3.981895217893615,-4.303296137908237,-5.324900718279938,-1.7734277550264155,-1.0606167102319723,-2.253961526786387,-5.335204258409584,-3.5375771037909587,-5.254076730613934,-4.881671685858129,-4.600454274546794
101,-1.0007992359014661,-2.974878281162817,-1.9086230559047925,-2.5458230683101943,-3.984642021950767,-4.94539906455524,-1.505886414698381,0.07375332131880917,-0.24356065240082767,-3.598392402642441,-1.6103753157068526,-4.219353969671021,-3.4076158416702373,-3.447632541741168
102,1.085347394246967,-1.3502283071237342,-0.20157436655222685,-0.85352275886836,-3.347004581247297,-4.183914589464446,-1.0354099207691572,1.2640818607568511,1.8383759525510195,-1.5308293560340538,0.4669142458100791,-2.765999973439464,-1.6221682902343237,-1.949393841224696
103,3.1586206679097155,0.4108012040752211,1.59039379474802,0.9259630452629278,-2.4411595601532476,-3.0698221846790035,-0.40007659890517894,2.3860248230489436,3.7893285596052424,0.6734631619620305,2.4855191248195045,-1.0326831045036784,0.30531311239929776,-0.24754371639206946
104,4.9993237208944965,2.12653138501629,3.2952958754892285,2.611164154649422,-1.343548471930962,-1.665296582040867,0.3386445819655465,3.315992443171688,5.413828481669563,2.804667928991009,4.240235180216523,0.8092360632456509,2.1883638095612343,1.4900025458844037
105,6.4046647442690645,3.6168665935282234,4.740873610588716,4.0282719239445814,-0.1489995066124623,-0.061593161370173816,1.1034378202459882,3.9466059425101214,6.5473578833087975,4.660352860665505,5.552182243573462,2.574092940716341,3.843472798613081,3.086970988010921
106,7.213286098649734,4.72430300269499,5.774279858942775,5.030957466497018,1.0386109500466347,1.6275286650837888,1.8107405552721534,4.200790610812875,7.077158399005961,6.067965454420933,6.289165306499517,4.082576830681373,5.11033472434644,4.378423974093128
107,7.325822655234235,5.3329158090123014,6.28084402154142,5.517508207824678,2.116721926687215,3.274639958679163,2.381118303418206,4.042444771282061,6.956673431264501,6.903753582759568,6.381115139982643,5.182219221604415,5.869846892128518,5.230080289958326
108,6.7187029052304235,5.382796665777969,6.199386363455738,5.443081568728266,2.9943129845703704,4.748996306081157,2.749095568318384,3.482068267732807,6.211274228133619,7.1056958413017055,5.828584665531345,5.765164443534114,6.057587233914769,5.554781185667985
109,5.449117399775274,4.877885404555602,5.531786730354162,4.825385287725473,3.6008400985105142,5.927603672812159,2.8712350763970584,2.5764431185403565,4.934316629263869,6.678858549646594,4.703060733002206,5.780899270930537,5.6709992461420775,5.323802258894741
110,3.650123489972249,3.8859349485727055,4.345119274419848,3.742861673613912,3.8928846211560257,6.706156506184644,2.7314911534187805,1.4223137653528712,3.2741695147048775,5.692658542965243,3.1388303428464703,5.24217358001734,4.769259861437499,4.571245597799125
111,1.5161149613077407,2.5303711496019896,2.765585264904092,2.325391248757693,3.8577926441060075,7.008991805924846,2.3431933093824964,0.14487461673206353,1.4143278970326159,4.27062507502175,1.317202726619249,4.223177404137249,3.4657293954665422,3.3905913488157418
112,-0.7198026787556562,0.9749238804087761,0.9645981991783529,0.7385220611265582,3.513946768424159,6.797198177000306,1.7474151262507123,-1.1173969109715716,-0.45021640688668557,2.574241014354286,-0.5550975339649402,2.8500512892012746,1.9138605963990334,1.9235415840045682
113,-2.81381170814228,-0.5970480855156141,-0.8614603246230832,-0.8368601666009301,2.9077216877669256,6.0740441206682245,1.0079181924668024,-2.2295311109443645,-2.13672092934911,0.7831569140647704,-2.270726499759725,1.2848614159660685,0.28833800546982635,0.34240559922064234
114,-4.541175328169432,-2.0058016670273626,-2.515274691304955,-2.2268156137020165,2.107574270616769,4.886977819601537,0.20329042498779254,-3.076259225770509,-3.4951453178375846,-0.9255774277344972,-3.646562473299891,-0.2948872074850865,-1.2361092322055838,-1.1717205628982537
115,-5.72385150777692,-3.0978461988878627,-3.823183863771273,-3.285630404650494,1.1960513007447053,3.32563694557594,-0.5827258028441925,-3.5755104388781165,-4.422698929359087,-2.3966540050494514,-4.545363322560455,-1.7184492079966553,-2.5054399969654586,-2.4520117962231756
116,-6.252125302619112,-3.7648187559541983,-4.656858706693771,-3.9132012034730765,0.2607172530721166,1.5156147235322068,-1.2714509518486712,-3.687511776741725,-4.871047130813289,-3.5117935716146342,-4.891376825088753,-2.8427063747264834,-3.403854574651425,-3.3669521052013165
117,-6.097201631990424,-3.955950445723255,-4.948908313710314,-4.066131425435872,-0.6149155371649193,-0.3918448276150456,-1.7986547113857638,-3.4183948823685886,-4.8460259670110934,-4.199600682305257,-4.6778285439525655,-3.568818641313658,-3.865892642856277,-3.836310865858704
118,-5.312938872559813,-3.682402125965082,-4.700081752464747,-3.761024508751904,-1.3594340636595277,-2.2335394048700103,-2.12181976712395,-2.8179436047685806,-4.400855366998777,-4.439214267623147,-3.9653190864737606,-3.852376689085298,-3.881578581943906,-3.839724742744368
119,-4.026469265395342,-3.0129604792265448,-3.976971373585189,-3.0695965221261248,-1.9197157204462754,-3.850179586360762,-2.2242827915034256,-1.9718850489566782,-3.624649056375487,-4.257824906929447,-2.8714354876241353,-3.7057495996241077,-3.494115680978887,-3.416665614075011
120,-2.419106560508282,-2.061895044781434,-2.9005880009197353,-2.1064514519781774,-2.2647076818984164,-5.102777687747348,-2.115720956217427,-0.9898433130822374,-2.6284020962443644,-3.72289665166089,-1.5531318142874295,-3.192520552540681,-2.7907041274930733,-2.6579201468090243
121,-0.700410756740339,-0.9709668364325011,-1.6276199313692898,-1.0114661506477451,-2.3865640847221217,-5.887612215401136,-1.8290243838281612,0.009352523912079885,-1.5305995645917798,-2.930521661464115,-0.184469887565199,-2.4151271149746503,-1.888042006934327,-1.6900592214092656
122,0.9206908191869893,0.11155480064229616,-0.3273479092671791,0.0704728247323683,-2.299236262949712,-6.147799335277403,-1.4141689336852108,0.9129683058567134,-0.44422211964569813,-1.9916846301501245,1.0670327423781498,-1.4978564300150286,-0.914807107398432,-0.655491551686353
123,2.263421110604143,1.0516180988547044,0.8421479662396278,1.0092917116272977,-2.0348966688862458,-5.879781499305356,-0.9301731502346643,1.62817109767373,0.5336316192049945,-1.0182999804738329,2.062034785491789,-0.5680074598234215,0.0062111287856816974,0.3086367126609918
124,3.1972992245907514,1.746754539808861,1.7548113920745634,1.7061849120193073,-1.6387916200893506,-5.133625206513488,-0.4364992080776344,2.092479882933907,1.3288810176277177,-0.11072676329831782,2.7059317441833737,0.26179323637712726,0.7737169458082734,1.0893438085662284
125,3.6558523847663134,2.1376336141028562,2.3313746649179174,2.1044154784144884,-1.1632433168750114,-4.006838441768973,0.014715156831844984,2.2795186411621495,1.894252176545186,0.6518901313563575,2.958133266301918,0.907475639008863,1.319111535002531,1.611659130789903
126,3.640266298735426,2.212392889668965,2.546088773384398,2.193169622849031,-0.6615509264047121,-2.6323479874217344,0.3844375083568645,2.199460509421901,2.209994363763234,1.2175959034485695,2.833032482984137,1.3217470314213595,1.6119589763264457,1.8455360750220735
127,3.2130091336230775,2.0035623059002834,2.4248671987635007,2.004347506418263,-0.18247819905459894,-1.1621575336999663,0.6498201718679479,1.8943799680061122,2.282026764686573,1.5636175728450177,2.392979965603,1.4958560326667452,1.659369250800917,1.8052192408326324
