,AF3,F7,F3,FC5,T7,P7,O1,O2,P8,T8,FC6,F4,F8,AF4
0,0.6579689207143019,0.5112701947514762,0.13240922628497342,0.3269234942956388,-0.0392013425998286,-0.27331516985539905,0.08102233408230991,-0.15025092372220303,0.08481627155072866,-0.14400568291522556,-0.3161671416219967,0.02391224135412221,0.7990484230632928,0.27269410944330585
1,-0.4792867121463277,-0.7990398496979946,0.26381259061466134,1.1510446396307303,-0.592724309520561,1.7594740317686537,2.941241958484156,0.5466132639605006,1.6137715420915582,-0.07813310692531562,0.7235091520412497,0.19056868454131481,-1.6240787074142768,0.26999478204579813
2,-1.3806189653872334,-1.896604771587264,0.3743220168291401,2.0101933769072877,-1.0579316810153976,3.6188215528122396,5.581275954548321,1.1867373440061348,3.009501076213152,0.024874177841756183,1.7646175901194991,0.44209598699982355,-3.7297131190035486,0.3713074544059016
3,-1.9160276803437835,-2.6554048386218287,0.45739733979254893,2.878821952048246,-1.3797009686256507,5.139102712553752,7.78388315067692,1.682371884099162,4.1366193261730375,0.14465261224852724,2.7175608317798803,0.7824389298514743,-5.309687216645209,0.5725638486719051
4,-2.0105693788082797,-2.9942354213496567,0.5088024855261083,3.71733094796285,-1.5202689921927763,6.19350259617814,9.373217783685055,1.9682149966369495,4.8897726303253615,0.2640485619610185,3.5034284569766836,1.2004663400050521,-6.2183105475762614,0.8531704215000574
5,-1.6537945192750987,-2.885367907649899,0.5267428487293195,4.473527573687625,-1.4638312630005894,6.706268419759331,10.23003799791095,2.008477168962186,5.2034833526300845,0.3707788631015369,4.061466922207194,1.6694144457528628,-6.387714801413463,1.1782707429473531
6,-0.9008347151790549,-2.356993537448051,0.5117637827092982,5.086187055556754,-1.2185207846518264,6.658687479391708,10.300982756246308,1.7998297721961287,5.057408800987305,0.4575676682142674,4.353363954549989,2.147942975119218,-5.834542593077723,1.5023609260957025
7,0.13505538650853732,-1.4891605999260156,0.46644478453436927,5.490522397353409,-0.8154900714081995,6.08827781012324,9.601206585378648,1.370111868764121,4.47664821909768,0.5209493267754572,4.364156840927295,2.5829476247417325,-4.657106069432405,1.7739856956300448
8,1.2976593729186743,-0.40360562582540604,0.3949518179092168,5.625173378330544,-0.305167251146779,5.081548896175951,8.210385668776885,0.7731960133837179,3.527268779897384,0.5592016216264364,4.100207639965851,2.9141759207687103,-3.0231780222453315,1.9412468928199789
9,2.408837321795856,0.7514302860178577,0.30252556269910963,5.440108568164981,0.24889163155192387,3.76149009873162,6.26279909682034,0.08086256928864405,2.3077241611975357,0.5700503814347604,3.5851763544187323,3.0805138111807073,-1.1496558344659287,1.9578156085491085
10,3.292804015378026,1.8196882191491262,0.19498356735298064,4.904614354756534,0.7778199132592594,2.271570759430744,3.9327733560314364,-0.6271388124058194,0.9372607426325814,0.5488319633692328,2.8551685055564797,3.0275493533519287,0.7236607804003174,1.7890352418130262
11,3.8004921673984957,2.6565000206909484,0.07830200705360811,4.014365527099607,1.215962845963884,0.7584104237688631,1.4171971176132725,-1.2734815618615736,-0.45729209567541795,0.4877045613392906,1.9541963695556586,2.715712572646069,2.363143499238666,1.417552487080219
12,3.8307202441583543,3.1470997380129933,-0.04167776771845886,2.796489038315135,1.5090274889985287,-0.6446447822218814,-1.0829749261266925,-1.792735567711494,-1.7548015998484559,0.37627709367659956,0.9307982047294737,2.128001990033082,3.5697612342403877,0.8477680064473467
13,3.3452037016060436,3.2212757102613634,-0.1593998112449737,1.311598800751521,1.6208060891913079,-1.831029548375473,-3.38032523804088,-2.1387070101709993,-2.8516612616469383,0.20371161031226825,-0.16381100707334634,1.2761185900824106,4.2033156032305605,0.10832687146689134
14,2.3751988766672487,2.8623807628367266,-0.26961607087038,-0.34797367220654324,1.5375846201995982,-2.730032884473784,-5.316011863959361,-2.288748788759399,-3.6708611561550497,-0.03799397335691894,-1.2762118603446064,0.20381099372323408,4.199362730677736,-0.748068183194228
15,1.0186687919031938,2.109401063511083,-0.36732889784766143,-2.064101990692316,1.2696409029227762,-3.3106007808859146,-6.770980556482444,-2.244590601735992,-4.1673719393815265,-0.3501555599174286,-2.350487840909345,-1.0135621589635109,3.576555439844985,-1.6480057357239177
16,-0.5718310233469197,1.0516969572527224,-0.4477253315743857,-3.702725792090901,0.8496233738445561,-3.5797946522112083,-7.672612723962665,-2.0297527925471677,-4.32942929594473,-0.7238218298550044,-3.3280573714004618,-2.2738217224169275,2.4333424220917994,-2.5039648974819473
17,-2.20901519179594,-0.18295112219730478,-0.5061797685442663,-5.1268095540493395,0.32803131203577063,-3.576564643964664,-7.996629917392917,-1.6841199902676158,-4.1758836780261674,-1.1373746627971113,-4.148550747436903,-3.4570762489263385,0.9343548626662925,-3.2237376650855847
18,-3.6957910894214185,-1.4453846314235297,-0.5383850647794363,-6.210978216910472,-0.23357258904245348,-3.362093566313602,-7.76459106875709,-1.256676635112436,-3.750332459883279,-1.5561178246381697,-4.752421541915905,-4.438422914597373,-0.7117960141221417,-3.7216994544739714
19,-4.851754600556011,-2.5848192434911965,-0.5406383511714232,-6.855985432272064,-0.7706608565404733,-3.008348291395299,-7.037728691973063,-0.7976685863687392,-3.1131797876185043,-1.9343718111788397,-5.085533598292585,-5.102845771449575,-2.280393147344591,-3.930479969065181
20,-5.537467363485521,-3.468498555765316,-0.5102656418833867,-7.001002647322609,-1.22400794689879,-2.586597313736053,-5.908138070534349,-0.35149831275257953,-2.332989920707342,-2.2201542584562377,-5.105393023995555,-5.3603923611166175,-3.56042228288136,-3.811297038368857
21,-5.672981146594587,-3.9984356610031933,-0.4461293554748825,-6.631864361799318,-1.546966726355744,-2.1575134649836696,-4.488449263195755,0.048530159508913165,-1.478469012559777,-2.362009441516323,-4.78813020396462,-5.159443354265322,-4.382262755757346,-3.3611982805051457
22,-5.247882288904507,-4.122869002127326,-0.34913473551358004,-5.78387255694793,-1.7107574086461792,-1.7641165013677016,-2.9010868614937784,0.38289498738545136,-0.6121395288517443,-2.317056437954757,-4.134919479957536,-4.495959423948299,-4.6394662061529335,-2.6157565322884477
23,-4.321381580295142,-3.840881449254024,-0.222640093699824,-4.5384978048750995,-1.7070843951553163,-1.4282902589143562,-1.268083085365268,0.6457686465671697,0.21367451383543046,-2.058959151183395,-3.1763683683944777,-3.4170206575768023,-4.301644116180401,-1.646370798198949
24,-3.012483659856144,-3.1997056742438215,-0.07268110924279618,-3.0142072064037446,-1.5478107913816659,-1.1510216672468039,0.29780707440192206,0.8424990066537943,0.9584544976492768,-1.584371139903133,-1.9735726119007382,-2.017725300036369,-3.4167480075326933,-0.5521519907789023
25,-1.4817966795652235,-2.2853893861690855,0.09206309300859461,-1.3525537302273152,-1.2618685045982427,-0.9159467387616811,1.7001920722359742,0.9854480081665159,1.593073729693098,-0.9165259860790766,-0.6150056250393348,-0.43147981448042144,-2.1025520703342435,0.5527154472512068
26,0.09215681661549639,-1.2085295783420005,0.26060812058186833,0.298579051057345,-0.8899914686033926,-0.6953336784406635,2.86408169055818,1.0892400057630174,2.0980968449323227,-0.10503220695811837,0.7908878517958344,1.185262309384691,-0.5287115067360213,1.55441123490319
27,1.5384078492221314,-0.08752809415963102,0.42031952296843716,1.8022059189926318,-0.4781673059140956,-0.4573460196019996,3.7388360833865386,1.1664982588140627,2.46166274877847,0.7784612840575728,2.126722507134293,2.671841554473761,1.1078608410623978,2.355392981688141
28,2.716803673664396,0.9678595950845631,0.5578599123066014,3.047469125527501,-0.0708636619276177,-0.1733418493386762,4.299135947903448,1.224936904835259,2.677730979032423,1.6483391515124044,3.279410360906802,3.8831996678488037,2.6105920036367056,2.888225137077114
29,3.5354719028454165,1.8700707760420443,0.6603639962854024,3.9606936273531246,0.29492177243092,0.17592081642132595,4.544169181235286,1.2662803843920871,2.7451904176912802,2.4157383908668573,4.15365421257625,4.707792125341691,3.8097106109296837,3.1249563971396084
30,3.9598840737383356,2.5623745555718243,0.7167408871964662,4.5107539947594155,0.5939095921579448,0.5960212860500198,4.495260929079358,1.2870000863662876,2.667942304463625,3.000276686219171,4.6835472559935285,5.080953537087023,4.58369930187918,3.080302757622623
31,4.0123442892736785,3.0215474889083467,0.7189715235411102,4.708153021505124,0.8145135047257602,1.0770193016676752,4.19217883862431,1.2804091656958594,2.455682980436688,3.340899865820628,4.84033397828385,4.991715527115745,4.872713546621802,2.807868414342133
32,3.762349781968741,3.2546405583878224,0.6632474336896651,4.5982297613178424,0.9583611866225029,1.594055253927871,3.688356785528991,1.2393539585005817,2.1248287663811145,3.4040551025162435,4.634979715692595,4.482077520073891,4.682274318775034,2.3898141822262495
33,3.309805650302891,3.29096226295137,0.5507923278896693,4.24986198368011,1.0375931096930506,2.110095311867678,3.045323448270863,1.1586574379272918,1.6989218515367053,3.187839087645111,4.11507525924294,3.638917632638988,4.077135797898448,1.9215620475819697
34,2.7642570575810104,3.1712307521577383,0.3882258510019119,3.7417388614706026,1.0705365487977545,2.5802509165754923,2.326703568582375,1.0366192566697623,1.2079615240430208,2.7214743291758015,3.356598076169543,2.579899091655186,3.166809611820239,1.4940831214133599
35,2.223920738649251,2.9362795679211176,0.18737051021194817,3.1486271306264495,1.0766107167951113,2.9569773005028375,1.592264395939871,0.8752097262114485,0.6863927864538091,2.0602907852431085,2.451962544686019,1.4356723707411727,2.0855183323673905,1.176858697722213
36,1.7582469052526437,2.617661942137072,-0.035535543272780926,2.5299763959784523,1.0714296489629145,3.1954614276778526,0.89257334540675,0.6790186586668393,0.16987693506073362,1.2771710671680196,1.4964355847338926,0.33122986227783396,0.9701345800220927,1.0046069962942226
37,1.3970369704295684,2.2320079159009167,-0.2611835701251372,1.922723243987092,1.0630137392307564,3.25861539105833,0.2648717846074158,0.453420242567634,-0.30864183646291937,0.45200576680171334,0.5752452972924137,-0.6306555466634282,-0.060183561767844736,0.9703087644972195
38,1.127914073950682,1.7801542054333137,-0.46898601104618276,1.3393502705056892,1.0498082479526374,3.1212504356987347,-0.26928319095245645,0.20268297816649497,-0.7227831479096587,-0.3390081960666669,-0.2464779832492836,-1.381391943637909,-0.919433717741913,1.0260253767646983
39,0.9024176690421376,1.2510577575670148,-0.639139060217145,0.7712822576628835,1.020876208651185,2.7731716915836766,-0.7042200703384396,-0.07118843167570017,-1.055619106732174,-1.0324591333378574,-0.9293765195093998,-1.8922416239723565,-1.5630783159437924,1.0916565324824687
40,0.6494456404166102,0.6295156083219436,-0.7547341891744805,0.19673220284996001,0.9582432938317392,2.221066254984209,-1.0480747825281143,-0.3682699285443061,-1.3008825158985025,-1.5838331263814356,-1.4604729770918325,-2.173110938335717,-1.988370123407852,1.070366686340603
41,0.2934681989820709,-0.09406916234136165,-0.8036748793323594,-0.40868629863953393,0.8409891945800814,1.4891354153090035,-1.318650597418332,-0.6889619443651304,-1.46212487704071,-1.9699213430557878,-1.8490049443239427,-2.2650298960705535,-2.227286332410642,0.8681751579592201
42,-0.22589552650606784,-0.914070845102658,-0.780160510924455,-1.060752077036611,0.6503648614398717,0.6184447126244683,-1.5377965165241148,-1.0309158872646278,-1.549931364126413,-2.1875465532477745,-2.118671237186682,-2.2279382722330987,-2.3339325165400795,0.41437867051747523
43,-0.9365840380112658,-1.8023826610556142,-0.6855359491070837,-1.7571077855870119,0.3750167063672665,-0.3350449338825089,-1.7252028020945644,-1.3853724294527219,-1.577787184264873,-2.2493368315224633,-2.2981082660326355,-2.1261400700998943,-2.3691519776888974,-0.3207936462879957
44,-1.8223431303016178,-2.7053222698836414,-0.5283731961101876,-2.471385880111309,0.015349374449035086,-1.3038075785656034,-1.8927120896918435,-1.7339736314259442,-1.5575659891721376,-2.177790603348134,-2.4116740836264245,-2.014117582031964,-2.3854164038832844,-1.3145535701263957
45,-2.8188485281832962,-3.545767294493254,-0.3237436355884024,-3.1523270700362986,-0.4138315475230511,-2.21344759514888,-2.0402640809685963,-2.047203464852193,-1.4957761120410915,-1.999107426327172,-2.4724660443050612,-1.925266504573527,-2.4148475268205924,-2.4883211478807805
46,-3.8187188422758127,-4.2306426455869675,-0.09174194912754617,-3.728358401029346,-0.8829991394773659,-2.9886519542338914,-2.1543987658970063,-2.285413693596177,-1.391598990022137,-1.7381642622416296,-2.478977565491775,-1.8655559392528132,-2.4624977329684676,-3.71394293330352
47,-4.684954720632497,-4.662894076225032,0.14458098302462274,-4.117137793183962,-1.3501432430593046,-3.560103773876261,-2.2098458336303852,-2.4029177316612316,-1.237389290713482,-1.4156258096443453,-2.416018324413809,-1.813228261417981,-2.505952372673654,-4.828903391410369
48,-5.2709239813568205,-4.7562207038124,0.36164417821220846,-4.238678737491116,-1.765385772796628,-3.8718239819957536,-2.1741797318553227,-2.354963758955936,-1.0217431915396755,-1.0475820044283934,-2.259633373539525,-1.7245806828919341,-2.501109486950048,-5.658593180562114
49,-5.44388546932084,-4.450252110817148,0.5378467849500802,-4.029989386094753,-2.0773916016117133,-3.888171563902154,-2.014914160981308,-2.1066656192740183,-0.7345989489899667,-0.6474442019161947,-1.9849315061106136,-1.5447887786603025,-2.3928604710372863,-6.042491224308636
50,-5.108383468078581,-3.723643560550222,0.6558802160299552,-3.45880435183165,-2.2406738282863032,-3.599561552750049,-1.7078626376872026,-1.642340134023903,-0.37326072865392795,-0.22925494347891956,-1.5751289314748889,-1.2218191146797224,-2.1285314425485384,-5.860373650429949
51,-4.2257496603159135,-2.602761173600736,0.7045858302670528,-2.53401137706563,-2.222703246211928,-3.0259164820534568,-1.2452163527701823,-0.973327980613185,0.0521255762041844,0.18879793320516394,-1.0298418875868787,-0.72088221864918,-1.6714859366695511,-5.054498913327757
52,-2.826430659442565,-1.1642066292238726,0.6801552733104294,-1.3107768229965926,-2.0097049572341525,-2.216997631639399,-0.6416745340275037,-0.14237401604509217,0.5151659622712762,0.5819461376755313,-0.37076553586949335,-0.03669694435109962,-1.0122931927011398,-3.644163534200784
53,-1.0128410239221135,0.46970063227620307,0.5865436798781276,0.11090248166236731,-1.6101696589013634,-1.2490808943301974,0.0628478993609051,0.7769452570893728,0.9731036632788356,0.9185362596607498,0.356669055635766,0.7988919775062381,-0.17531071378865176,-1.730017819162164
54,1.0482178033953096,2.1423373532553116,0.435049574659973,1.5945496555442118,-1.055407199137584,-0.21792139037514846,0.8049210299167964,1.6864750799817863,1.3706089186959907,1.1624172112200628,1.0863477888120092,1.7157119348356449,0.780674247654442,0.513060223502188
55,3.143020151090936,3.6799031302445284,0.2431014282717948,2.981757674365903,-0.3968856405646167,0.7714747127009454,1.5039673704089092,2.4751128393095136,1.6472783282786,1.2779358189851349,1.7390657749117804,2.6112325408107924,1.768088076922004,2.854106524827788
56,5.036234907886759,4.91218053434222,0.03237333811177869,4.111263338225428,0.299427899429066,1.6171777879406837,2.07270497934255,3.034423346082683,1.7478088646001018,1.2367921663064123,2.2336404325149752,3.3632779617170656,2.681777719095673,5.033184539182571
57,6.50085175338112,5.694224373559249,-0.17357477802441945,4.840097116209052,0.961046786813292,2.233200250667596,2.4302555017373892,3.2759212691416617,1.6331206878399447,1.0254649638100828,2.4998340977952744,3.847872218935584,3.4141080498875285,6.79405377429986
58,7.3486738855738745,5.926015179618673,-0.35188149530773966,5.063904973270326,1.5182068911531736,2.561077104080223,2.5158751915396427,3.147138910476841,1.2903173073464302,0.6516168193581723,2.490954244801779,3.9596244826764138,3.871585691137348,7.918047859529662
59,7.457097611346027,5.567261902570291,-0.48291197952367787,4.733476673814962,1.9130760782722978,2.578355484341019,2.300957588483401,2.643531114657287,0.7393869755440787,0.1479014322287221,2.1939237565303165,3.6314405769678375,3.9903205460504463,8.254472901988263
60,6.788260842918049,4.6450923060532725,-0.5524514544931421,3.864876224965194,2.1075859823622705,2.3025094955595686,1.7970510208430177,1.813748390935594,0.03498208878692403,-0.42806688125559783,1.6349030736620038,2.8502094293490874,3.7477297229001008,7.743141367870439
61,5.397571403711212,3.25326601292558,-0.5533203081813608,2.5413304079150802,2.088696052322788,1.7893984824645965,1.0581453000669567,0.7567824961709126,-0.7376005580280346,-0.9982043296479053,0.8791664253729673,1.6655125635620884,3.1683956557576716,6.425591806412897
62,3.4300121981492695,1.5426727097641022,-0.48622756079314283,0.9061094495024824,1.8702458857210986,1.1261864974333424,0.1763434477270132,-0.3891952724200061,-1.4721125804085173,-1.4727431304652798,0.024799078559600247,0.18931428355031366,2.322847409389241,4.443007256507137
63,1.1042869198569505,-0.2959171609617669,-0.3597562241504834,-0.8531095530123367,1.4910397794328998,0.41950924268415357,-0.7288933040803621,-1.4650532275410426,-2.0555588384296977,-1.7623287969768615,-0.8092393389281525,-1.4141016824699322,1.319119000230707,2.020650163382937
64,-1.3134081873784478,-2.0547740547861935,-0.18946043434986612,-2.526651106772028,1.0093627678189319,-0.21953937615715244,-1.5266406899193383,-2.313444653296663,-2.3848830141543855,-1.7917587527589245,-1.4992039079382735,-2.9471638031296434,0.28808576332998764,-0.5594671438691879
65,-3.542669657584579,-3.5348804818224875,0.0038539628263331003,-3.9092124926175855,0.4946652321416784,-0.691466435853214,-2.0933281288736447,-2.802653104397096,-2.3835603994277865,-1.5132619943818888,-1.9345801890370247,-4.204732532151619,-0.6353898081274895,-2.9942318689889706
66,-5.324802715582095,-4.5709662057040354,0.19650172034715482,-4.826682763447457,0.01759187194409345,-0.9231124639569444,-2.3316573358624573,-2.8477705849727806,-2.0154091277041344,-0.9171276685887019,-2.035370636161554,-5.00300451388538,-1.3327213862419283,-4.998663266538717
67,-6.456434870065173,-5.052518131589389,0.36469590148540815,-5.159671424196226,-0.3601974242056762,-0.8788185889282757,-2.18664632504052,-2.4257255581847397,-1.293265786697335,-0.037756765819121366,-1.7659558940894537,-5.207361842334745,-1.7201461125146582,-6.34333825005879
68,-6.816093985669651,-4.937847567138728,0.4874184444964239,-4.860330048790898,-0.5949076766744841,-0.5662820297637252,-1.6561526298895755,-1.5815501889290982,-0.2809029132956565,1.046201292890299,-1.1432092194795145,-4.754830591079062,-1.7625631975009166,-6.884729077828736
69,-6.379925540386663,-4.259199197624952,0.5490363945501233,-3.959898721334136,-0.6668498679480588,-0.03613018345843809,-0.7940080016870283,-0.42459951785901073,0.9124258133872278,2.2181413328191644,-0.237293478681354,-3.6674104836455017,-1.4802812581530709,-6.58406144211202
70,-5.2242290791200325,-3.118103358330175,0.5413227438408194,-2.5656800136490387,-0.583076894026196,0.6248208014067121,0.2949967476742175,0.8850074040183151,2.144307554407689,3.3357973846070115,0.8353968962623334,-2.0537686018518366,-0.9473057993606795,-5.511871398102915
71,-3.514380820945278,-1.6715348443508222,0.46459373709154317,-0.8476543563178486,-0.37597737070647924,1.3057148395981428,1.467786083554313,2.1579213023207244,3.2568045429375725,4.248193380595461,1.9265168258498049,-0.09847995323485473,-0.2810729320501926,-3.837475769575822
72,-1.481690960680234,-0.11074652450943384,0.32777373115605773,0.9835277672190471,-0.09799760455347384,1.8875032956950333,2.5616549399111554,3.2020120947460313,4.097029525307615,4.815144165813324,2.8755101659311415,1.9601144243628463,0.3751206204371785,-1.8047703747333894
73,0.608487080126758,1.3643020701611783,0.14733572922804883,2.7041482005984885,0.18674420751255835,2.26024123885881,3.4162984538011067,3.849895783787682,4.537830346623447,4.926720225296186,3.5321264159301133,3.8605765933166847,0.8745359735644256,0.3022051558333879
74,2.4927981752476827,2.5713625061298275,-0.05477682550422961,4.106732640782919,0.41270110119848497,2.339375554380448,3.896085556166176,3.983512737494115,4.495704999670363,4.519960805441212,3.7784814431796057,5.3533215785536585,1.090930609037785,2.198964288979648
75,3.9448908533094382,3.369478043184813,-0.2539878174735388,5.026908473290752,0.5234481387701223,2.078716833736856,3.909397234147844,3.552148679249567,3.943428034277408,3.5903677726450063,3.547346552305779,6.2348364045697755,0.9403011180922813,3.639764828378343
76,4.8043982611308405,3.676458504324433,-0.4263032712149275,5.364002240652507,0.48093085125264556,1.4782624638704112,3.422274050876039,2.581236798659246,2.9155708353717715,2.1963132604782727,2.833777191806974,6.376157484634286,0.39690309304782123,4.450607582323707
77,4.9958699842613985,3.477882308519939,-0.5514507156862171,5.092514278369555,0.2719926295260104,0.5857637220067092,2.464439362635132,1.1706094519541166,1.5060408364263642,0.4553830891901504,1.6980951204257777,5.741381596812526,-0.4992103430745865,4.551316102713604
78,4.5352086005823855,2.8265169388773703,-0.6154890973930977,4.2629981107025765,-0.08882516478110157,-0.5082053376487257,1.1268530458931685,-0.5176161846316897,-0.1421752317614745,-1.4672493514284437,0.25950080512521356,4.393444781756448,-1.6446407167929709,3.963667261282358
79,3.5231003854666505,1.832472909988544,-0.6125056054727692,2.9924866502014,-0.5606509533647074,-1.6810390330634215,-0.448861396952951,-2.2798549217719253,-1.85383674100768,-3.3772070084048136,-1.3189725648963224,2.486304648699744,-2.885059707719537,2.8046991645421353
80,2.1269004852392563,0.6457704844726554,-0.545148890324619,1.4461807900437653,-1.081630719567734,-2.793335011523899,-2.0876602757437097,-3.8976811060175196,-3.4427247417672713,-5.073835422894444,-2.852079698149971,0.24469624935086284,-4.035986565854366,1.2665859373056327
81,0.554116791880814,-0.5659161208432312,-0.4239247623758673,-0.18661055321698597,-1.5774737696217132,-3.7065774667890006,-3.6026542806235686,-5.166569807141232,-4.734623830480272,-6.374716819651377,-4.157400090979193,-2.0655292730686803,-4.908973616405136,-0.4135288736142721
82,-0.9782309866434896,-1.6409378928126273,-0.26537410393547245,-1.7185209346646175,-1.971944709590883,-4.300959544965314,-4.818134937904306,-5.922778070885069,-5.58899020897196,-7.138466034046455,-5.080048436993131,-4.172125137731339,-5.339340309311642,-1.9889258290764396
83,-2.2736859830578133,-2.445285820413655,-0.08943229614483442,-2.9882612249715246,-2.1977750210660463,-4.491021887519996,-5.591037146446578,-6.064677584277268,-5.916403383227412,-7.282615779082045,-5.513335029397612,-5.831224283600155,-5.21129449840035,-3.2384928767772565
84,-3.181517253552958,-2.8891130103232805,0.08359655378960802,-3.879415785966206,-2.2064265303033235,-4.237068245722319,-5.828092170199815,-5.565653583052124,-5.689410186514256,-6.793991687766394,-5.41228530867372,-6.857314306471881,-4.476640707777027,-3.996521396443766
85,-3.61364253075558,-2.936052801041695,0.23595417213421305,-4.331492989358374,-1.975332264832836,-3.55086453485271,-5.49655414591078,-4.476892007095059,-4.9452260571156925,-5.729989218027255,-4.798072925816121,-7.144451387431741,-3.1642413797991042,-4.1730083409608385
86,-3.551463521565019,-2.6044282051416543,0.3547561097025538,-4.34218032017917,-1.5116296995109884,-2.494866728488226,-4.627278545998567,-2.9198150536775795,-3.7798624246938632,-4.210461476440708,-3.752883803477843,-6.676214529866136,-1.378804202223101,-3.762025378430403
87,-3.0424368311877745,-1.9607311421195064,0.4333619860573808,-3.9612059303052067,-0.851918866788689,-1.1750631476800333,-3.309968160054064,-1.0693881700982204,-2.3344595573872016,-2.401320372185455,-2.406258987347157,-5.523664196721929,0.7108181500802817,-2.837675209385231
88,-2.187773691799385,-1.1068943799914626,0.4715881054248057,-3.277502335602174,-0.05813973067413854,0.27164974239861694,-1.6814363081279453,0.8692038117822983,-0.7757475921481857,-0.49222344969631876,-0.9153000061842659,-3.8323331199957025,2.8920726467722186,-1.5390685185456774
89,-1.123881563906662,-0.16370582044651685,0.4747712887720125,-2.402291745706875,0.7898132251165775,1.6939226176040887,0.09137750859912015,2.687119466838611,0.7265499855434769,1.3283538183392551,0.5579669897999453,-1.8007592960496566,4.934902191638094,-0.04731048484422904
90,-0.0008558651601874379,0.7468933122479559,0.4519009750806515,-1.4511281272932213,1.6037067221208536,2.9441035753759275,1.8312903125893671,4.197896032175177,2.0220774163623894,2.896951707714379,1.8684391867412031,0.34594653544631926,6.619956205260043,1.4415514915857668
91,1.0385717720244856,1.5179645742486287,0.4132064750026514,-0.527798247902622,2.297527165389623,3.895732717065787,3.371042621539029,5.259390461661898,2.998710102272192,4.094355205864502,2.905665136433427,2.383640861909783,7.764940614818174,2.7434137050006817
92,1.8766806727948175,2.070020466873761,0.3676866001714167,0.2876318259829002,2.797622771885472,4.458133215046985,4.571239930408902,5.788788393307924,3.5952031657750196,4.857484430956143,3.6049764595111164,4.114183586694692,8.245687989192632,3.709064748053104
93,2.432931339635114,2.3583938705754743,0.3210798569191071,0.945283070210347,3.0511785329316368,4.586259732214956,5.333996312733462,5.768967218724897,3.805879665474319,5.182429914323724,3.9507821132493475,5.385105132342494,8.009458251626075,4.240401769701232
94,2.6696779355839277,2.3750731144722383,0.2746904521893175,1.4261727215524393,3.03203423567908,4.284625560981195,5.610896769686188,5.24582817799071,3.676855555230297,5.118557858940417,3.972155887995563,6.102097908223758,7.079194015856954,4.298409840862443
95,2.591533563514831,2.14541949140226,0.22532142992154472,1.7378921316606697,2.7432262607064772,3.6049496666050445,5.4047238563481885,4.3175337291315,3.2946159009634695,4.7550295507184295,3.7321039828377254,6.23368675439324,5.548734869096763,3.902752487932838
96,2.2394050933077443,1.7208790795931284,0.16634977512433397,1.9067337571618856,2.2160608283927457,2.6380232788488147,4.765237346677519,3.117699182358486,2.7689405756330987,4.202241794835741,3.312829128087238,5.808506252383728,3.5701435564821185,3.124011145929332
97,1.6808149854246521,1.1692321862983022,0.08974847566035657,1.9681590924005203,1.505953721335003,1.5010640478245518,3.7800330750982565,1.7953316204808696,2.2130378256946868,3.5714182034745265,2.799776106504013,4.906457237487739,1.3351703831456143,2.0704779156047843
98,0.9983779246511812,0.5640613688638705,-0.011339266917268456,1.957536032772661,0.6856476493401358,0.32239212345948864,2.562042421230172,0.4945906709493087,1.7241437899732268,2.955759133013448,2.2672086007915504,3.645551037908942,-0.9465959945841493,0.8718697954605559
99,0.2782235638660326,-0.025015186305751547,-0.13999863224147405,1.9027719552097422,-0.1632974904310152,-0.7744489948362979,1.2355078678421558,-0.6627506231704265,1.3677247256661396,2.416179044630938,1.7675766729278974,2.166459965096571,-3.0701888687069956,-0.33760937921592443
100,-0.4001719431076758,-0.5401433165591697,-0.29347219563315324,1.8199175191356465,-0.9596811309146489,-1.6850240262679166,-0.07773339196122879,-1.5898820920309513,1.1677983568383243,1.9738033279961362,1.3261081346597205,0.6167120373436868,-4.855813305891812,-1.434719725220852
101,-0.9717592811922416,-0.9403345834462117,-0.46210225632853497,1.7121411873037071,-1.631411259513914,-2.3349999629317266,-1.270078213877386,-2.2412236528202243,1.104869563706701,1.6102152726411174,0.9410625294265098,-0.8638287349087475,-6.165410214031889,-2.3195339652328104
102,-1.3908219964424913,-1.203638625392997,-0.6295985286164076,1.5718126956300011,-2.122827463183557,-2.6865608883727297,-2.2569544511086415,-2.612096067724606,1.1217141812410554,1.275137893886314,0.5891044473677649,-2.1549754504081315,-6.91377784636184,-2.9237046334689514
103,-1.633001981759615,-1.326595480242763,-0.7747068933663279,1.3849051294635992,-2.399806817522388,-2.739696430790702,-2.9819746007097754,-2.73253463902846,1.1359449644734931,0.9000186860571814,0.2344440485179736,-3.164959806519022,-7.073490049356075,-3.214299564021964
104,-1.694775101570181,-1.3215006396225206,-0.8740958689236376,1.1366065475877538,-2.4521553037971366,-2.528552021036706,-3.4183787585144336,-2.656819668218901,1.0571694718553617,0.41504929206239083,-0.16013049441248406,-3.8355638757310997,-6.673547150511196,-3.1933953865501286
105,-1.5909152740216224,-1.2122010826477732,-0.9060415712070362,0.8169450437153093,-2.2931327441349993,-2.1136981464831623,-3.56717990741586,-2.4508205480130334,0.8057889707218285,-0.23336727770841756,-0.6223896239760197,-4.143667034221014,-5.792336799968127,-2.8940301435264493
106,-1.3505682009172502,-1.0291968923345698,-0.8543203944031855,0.4253514892368164,-1.9563162869709911,-1.5716846480724687,-3.4527807585098995,-2.1794003109301943,0.33021679854984204,-1.0677284069774156,-1.1618827875960966,-4.099522048685255,-4.546025492849609,-2.373392456213347
107,-1.0125451673693295,-0.804773822462234,-0.7116426309867555,-0.026639319599644325,-1.4903310991365395,-0.9835274194954893,-3.1170237242918186,-1.8959050739966665,-0.38044481903766164,-2.069718559490813,-1.7647290759244134,-3.742292881375363,-3.073909574700801,-1.7042757817572705
108,-0.6203801311053385,-0.5687653452206064,-0.4819967125413765,-0.5149780520237675,-0.9522221595211009,-0.4237986517910142,-2.6126548992850838,-1.635228435312026,-1.2904860681460488,-3.177441889123806,-2.392835899581337,-3.133540623896255,-1.5224960539038557,-0.9658671441738452
109,-0.21760206907172386,-0.3453675028114986,-0.18142151077890037,-1.005009008276875,-0.4003737210437187,0.04822978512363956,-1.9970535144899573,-1.4112036009761824,-2.3195419779432456,-4.290279617505422,-2.9876750168581356,-2.3494363263472318,-0.030136389569868794,-0.23488575910756318
110,0.1564193013602471,-0.1512357474195873,0.16303826776132668,-1.4553532149876804,0.11211185737209209,0.3943567449222574,-1.3268493730961393,-1.2182740130365406,-3.352247676884622,-5.280854017370857,-3.4780245566419925,-1.472510613434342,1.2861097839386166,0.4220475896058432
111,0.4697824883395463,0.0050934116105307275,0.5161498749349108,-1.8231297886300188,0.5427812393118963,0.599637323467247,-0.653780603200709,-1.036668293738803,-4.254178318884075,-6.01245547963309,-3.790474661325682,-0.5837194501644495,2.3400417211204965,0.9541308077198326
112,0.7003232147468318,0.12257227265729433,0.8387477188214907,-2.069702152425574,0.8633660231425505,0.6710481562175515,-0.021886736774201238,-0.8397772759511575,-4.891639426379536,-6.3594015575601786,-3.8610767188355277,0.24448534694206456,3.0814717274273806,1.3297614606166739
113,0.8367242772670842,0.2060427909877538,1.0928424703560473,-2.1660906708872028,1.0611950523132974,0.6332029462634396,0.5340706738862295,-0.6021758418094564,-5.152251408249683,-6.227278913679392,-3.6463450731484643,0.9535377744273799,3.496715571488141,1.5374279013389467
114,0.8784336873046057,0.2639957846399094,1.2468387816327435,-2.097272027061146,1.1385018312345794,0.5220655528518662,0.989191547355082,-0.30676869673831797,-4.963135594976245,-5.569949306727535,-3.1319099210035426,1.5022377565945666,3.6047802336074897,1.5842425942127027
115,0.8344647490617987,0.30607140818748585,1.2800704795882798,-1.864763106065794,1.1099376147302478,0.37780936434656365,1.3282968729664173,0.05017089925158054,-4.303869118056016,-4.4005936467684235,-2.3374478954596314,1.8681927095490611,3.4501582635545622,1.4925126407235487
116,0.7212712829681108,0.34070344870230357,1.1859443437929196,-1.4871312908102465,0.9988292051858177,0.23798130059325495,1.5453073106935855,0.4568340535103852,-3.2121668873030047,-2.794873219419752,-1.3170324362826205,2.047305873034931,3.093543887085719,1.2949582129407893
117,0.5600028421532408,0.37328251482720537,0.9731834829867085,-0.9983513768725786,0.8328515888935392,0.13196129544785795,1.6423126482880035,0.8867967171286499,-1.7813433352183525,-0.8853964570977225,-0.15468168172656394,2.051598546779227,2.601984248897212,1.0293256815853065
118,0.3735229134665,0.40512897547424476,0.6649469871460348,-0.44420944860673084,0.6398032152327013,0.07740544269161606,1.6284249016108752,1.3027083918333033,-0.14983414587284272,1.1520600039037125,1.0444429371995734,1.9058081336043877,2.0399338141734193,0.7331712974102575
119,0.18359756175834768,0.4334296203782431,0.2959270355451484,0.12279613839222629,0.4440808128667014,0.07898439971705783,1.5184518341966975,1.6619935440993032,1.515769183501452,3.1188971298319865,2.166106659268105,1.6432910437516202,1.4624001936826188,0.4395048273943514
120,0.00862195150343436,0.45212278728987365,-0.09216497134398947,0.649415956865183,0.2642743248534281,0.12934599962694013,1.3314118245813722,1.9235335763244836,3.04177519502158,4.817911872799067,3.1007652434250876,1.301769746892909,0.9109102179412691,0.17379483993718306
121,-0.13785236356795244,0.45354373069632026,-0.4560654131244169,1.087721491349182,0.1120757356131232,0.2119020786430349,1.0889308102023836,2.0542047768746863,4.269557334717318,6.078050201456557,3.7571593228600895,0.9193996995572286,0.41247034842046654,-0.04742134891933668
122,-0.24768238994102013,0.4304942467698682,-0.7565780091300236,1.400515881655828,-0.007542042793104389,0.3048057316371624,0.8135961229577698,2.034230788110026,5.075694912825964,6.776190678019536,4.073840084106373,0.5315088588407855,-0.01885658143648615,-0.216368648125075
123,-0.3178611872523922,0.37830551683067754,-0.9635289986688362,1.5653835268370508,-0.09512853021158427,0.3853681325888358,0.5273680878926709,1.8605371473159347,5.3872568904133535,6.852807176045893,4.026962926111309,0.16820507407783866,-0.3785839365856963,-0.33261835006502727
124,-0.3496314828749349,0.2964460332551215,-1.0593528924701676,1.5768424892565096,-0.1549371758072615,0.4341688617709423,0.25015809244503595,1.547629819374827,5.190109178063688,6.319199899127983,3.6331788779179566,-0.14711112213537414,-0.6677206672437556,-0.40092539991684883
125,-0.347292694457142,0.18930383110012125,-1.040824139477661,1.44631140751753,-0.19293536194631308,0.4382310791081281,-0.0013268170719297452,1.1259114153373186,4.529158894503848,5.255203809350066,2.947149963945181,-0.39841435269317443,-0.8890565732165682,-0.4288830362702838
126,-0.31700158320317645,0.06593978233834784,-0.918741793488891,1.1999102344743553,-0.21505380930097318,0.39283832275321184,-0.2143932270923222,0.6377430867318485,3.5006492880101776,3.7977037826934987,2.054016106575369,-0.577056755390575,-1.0446507052451501,-0.42489023879777227
127,-0.2657835890905193,-0.061167011445043294,-0.7156898292389823,0.8744360645849408,-0.22596984627700156,0.30182459100685405,-0.3807758129138358,0.13189750793403124,2.23779939700421,2.1216807137737814,1.0579144400274554,-0.6812708501246948,-1.1349459511642843,-0.3967567374331536
