,AF3,F7,F3,FC5,T7,P7,O1,O2,P8,T8,FC6,F4,F8,AF4
0,1.5352661584030043,0.3817987583290376,-0.005333403827157433,0.4981577642537766,-0.005195690821910427,0.04776620774088203,-0.07180435249242027,-0.16780775782544988,0.04796410191013204,0.19362378582795994,1.103900115375587,0.995652780156361,-0.2686903826470462,1.5192368834190815
1,0.3015468778276818,0.8912714698458204,-0.0010612030348384827,0.4187940184943279,-0.26362749243095396,-0.82606381814482,-1.724923523890644,1.1763322482894893,0.4004590816636605,-0.3162071975953106,-1.4595697230898543,-0.8982761131911835,-0.9792737215602235,-0.544610887867615
2,-0.9143736017768321,1.3150578267684332,0.012616769349712467,0.30142280770340085,-0.4789777393691019,-1.5605090572116518,-3.185121472091159,2.4238616802450474,0.7324431019087515,-0.7867650893965829,-3.812426299490245,-2.6621970402907618,-1.4721401549711555,-2.493368261167153
3,-1.9829673350055799,1.6454733561607535,0.03692024326791689,0.17337438208934203,-0.6323146210029426,-2.0909671262653973,-4.318479936448183,3.445114077380272,0.9741878640718317,-1.183473583118013,-5.6966505891166515,-4.1010136754724265,-1.501577806593611,-4.100995275507235
4,-2.808216555330612,1.8747858269832443,0.07075211053156896,0.054045556097778516,-0.716781440411681,-2.3822653882142864,-5.030347632070544,4.140760315487963,1.072103402328298,-1.4805770186905112,-6.920516476298153,-5.066616611428443,-0.9027626940100344,-5.196905599881476
5,-3.341080738925015,1.9919751114506294,0.11088520018996191,-0.04954878219549663,-0.7390897979535074,-2.432447972788424,-5.275458693130205,4.452340954749069,0.996250997051128,-1.663917949790799,-7.382446787811404,-5.476844586581226,0.3751961732277812,-5.68902723912006
6,-3.5838950583058953,1.9822310697801075,0.1524502492647654,-0.14372898812838794,-0.7182666640950275,-2.271685841543639,-5.061560649587367,4.366674845101407,0.7437661419593152,-1.7321044198796935,-7.081635347494859,-5.324568400986794,2.2540341124068264,-5.574201067313737
7,-3.5851727789283334,1.8294163313889682,0.18964919772697716,-0.24544538061118265,-0.6817816082775124,-1.95643423212746,-4.44617375004578,3.9139076435726303,0.3379116173500967,-1.6958985093794838,-6.114168863535883,-4.675754074487903,4.531519817257408,-4.934589011469649
8,-3.4260548386020826,1.5209568709205639,0.2165956981733757,-0.37655420862686684,-0.659712925608515,-1.5596987218325955,-3.5270904492721344,3.159935831533344,-0.1768073471277216,-1.5759520905641846,-4.655588717534252,-3.6570672576991186,6.906559941969136,-3.921038788032115
9,-3.201167991948913,1.0539780643166863,0.22817520168255195,-0.5563816803083309,-0.6780293202931313,-1.1588843054070654,-2.4280902448815427,2.194764748261828,-0.7424124020776046,-1.3992735052755683,-2.93284141406859,-2.435159208782974,9.020722056165452,-2.7264205269066717
10,-2.9976340892175792,0.4411229514478955,0.2208199124920985,-0.7942698982974585,-0.7522788199793655,-0.8230882581519914,-1.2819582790927193,1.118910128248407,-1.2966188844059316,-1.194979529391821,-1.1900607565967496,-1.1909698643293503,10.51021772739097,-1.5534657733994641
11,-2.876238094623999,-0.28553619302679284,0.19310730080232738,-1.0838252665633654,-0.8829419254714267,-0.6017965569688634,-0.21317846857848996,0.030143032233053632,-1.7817436258481443,-0.9899500771457462,0.3466139689487649,-0.0930151270387438,11.060827241622109,-0.5823616090747358
12,-2.858277522497046,-1.07374405556482,0.1461115107611303,-1.4002572898300663,-1.053428965087496,-0.516744712436747,0.6773895757848306,-0.9873304812195182,-2.151831286202073,-0.8049693965287309,1.5000375252383724,0.7263802556444626,10.457798819532519,0.05680579336573992
13,-2.9204954393531013,-1.8540944359926883,0.08346132242198409,-1.701579915353714,-1.2312393804871486,-0.5582418811528301,1.3239045956485869,-1.869742875472425,-2.3769003382585874,-0.6518369294117253,2.1645562062723727,1.1885480619329822,8.623455052060141,0.30263241334275454
14,-2.9989722805664303,-2.546709020875246,0.011083848717553175,-1.9336778295832189,-1.3722431693175823,-0.6866025589090775,1.7016555878271782,-2.5760276744244472,-2.4438484957454274,-0.5317958922828876,2.317112153446911,1.2773584226086756,5.636958959593396,0.16945459462313386
15,-3.001209449218803,-3.0706762548133844,-0.06336012416414691,-2.0384708521153003,-1.427494378625051,-0.838577421021013,1.8272692408911397,-3.0857594009710425,-2.3542829229921325,-0.4354800323313485,2.0158482318958857,1.0385888490397073,1.73316702652227,-0.25776149841071455
16,-2.8241770066711656,-3.3547900576056175,-0.13131330096667432,-1.9637919669006607,-1.3515391106692742,-0.9379289450183519,1.7531667141832907,-3.393923692652634,-2.1201956627197167,-0.34442755288799487,1.3869651500454876,0.5702644428452415,-2.719631538639528,-0.8394381333528204
17,-2.3750723641536053,-3.347838488720811,-0.1843611515928848,-1.6732471955352075,-1.1109084320681373,-0.9086603946961505,1.557156191230265,-3.50426749484553,-1.7588404460138238,-0.2340558563186471,0.6022367600799363,0.0057162955267857215,-7.26042204215045,-1.4054422465537988
18,-1.5911152086395097,-3.026734706644307,-0.21536592612191496,-1.1543091278347908,-0.6914282793032792,-0.6889664360066861,1.3286591819885938,-3.423181893420009,-1.2882805679138172,-0.07782977999134019,-0.14919015869392563,-0.5079556388664866,-11.389474184856002,-1.7832363601709278
19,-0.4549390520837278,-2.4011374338509595,-0.21955523956877404,-0.4232017953547963,-0.10313484359127618,-0.2437944022344549,1.153496710606007,-3.1558309714004964,-0.7248374047568125,0.14780742719745074,-0.6904504783574938,-0.832824855065735,-14.628748940759392,-1.8257753904532525
20,0.9970374246956354,-1.513798775296192,-0.19540565224271417,0.4743087292331047,0.618078124420579,0.4259804787510905,1.0993607913525745,-2.7056057023361153,-0.0831240109377288,0.4583230127215634,-0.8838142397268,-0.8612633975985831,-16.580969342133724,-1.4350766317330617
21,2.6746368303895585,-0.43658553622755497,-0.14516433568477596,1.4664110533524806,1.4124913066936602,1.27935971239588,1.2040394718519933,-2.0770869085371304,0.6213816094966573,0.8565002009188573,-0.6510869906027934,-0.5324321847839514,-16.979818563339748,-0.5782518296804986
22,4.442305808369816,0.7371910158610478,-0.07488200167597267,2.462530493075434,2.2021640900814705,2.2369518760666356,1.4681442402154379,-1.2817403313233304,1.3680160747157761,1.3291010274550967,0.015021656533704103,0.15793161706191833,-15.724899678759646,0.7059421673247384
23,6.134471039492695,1.9029593848628255,0.006111772216176858,3.3633212235457965,2.8995001188629765,3.188759670270761,1.8535281142501212,-0.3447539866743224,2.126241722727233,1.845473146564505,1.0497812454320983,1.155533217843342,-12.89706034969375,2.310533075303274
24,7.575449270721045,2.9560995660036973,0.08627923079393082,4.07193292965783,3.4177388549886722,4.007277685031998,2.2878340736311884,0.6890462994471612,2.8522429974836516,2.358617067896715,2.325360075857761,2.3534093385795165,-8.752179166822767,4.072855431648658
25,8.60091551017351,3.8026542988647325,0.15338815934028807,4.505011630485543,3.682047630188885,4.564335093970739,2.674759677293756,1.752277119502284,3.488338227172406,2.8089419961042887,3.6682513937351224,3.6047743571190822,-3.6941988680875752,5.794145902640725
26,9.07787752699346,4.368221338560396,0.19627950594633756,4.602038900067969,3.6397695895847444,4.749474706999696,2.90877215589987,2.75666439865971,3.9662150279096218,3.1305543472605755,4.882645593739923,4.741103132241135,1.7692682254126744,7.263445142583326
27,8.920537924104584,4.604112371196707,0.20663573423904805,4.33195903392077,3.2684514795943893,4.487298839239416,2.892281695134492,3.5999941972481935,4.2141747994094985,3.259496987158133,5.776553032886216,5.593174780685604,7.0833615396545895,8.282732989023273
28,8.10023211310324,4.490376404428845,0.18046870056322428,3.696511010388738,2.5805251012288752,3.751206176174029,2.5528010394434686,4.177917849792543,4.167623462660049,3.142967024325721,6.187295462478552,6.012541961273504,11.707657370925,8.69034050631562
29,6.6486332014082095,4.035798798884877,0.11906332455678258,2.7301760776020956,1.623917234816007,2.5713171903107233,1.8574832911808208,4.399055246396864,3.7811813876089357,2.7482644345692204,6.003232007523315,5.890928673238376,15.175854064962447,8.380141197271547
30,4.654411594575839,3.275395311009987,0.02917933011714265,1.4970783852334453,0.4783641701843392,1.0351062357959848,0.8226822059585159,4.200951070998207,3.0401992569003182,2.070121497123126,5.179193275656324,5.175359355662963,17.146579881043124,7.31469891643218
31,2.254351656952798,2.266148028590598,-0.07757908419245903,0.08546422380154337,-0.7522547301409362,-0.7197629679287048,-0.4831978356920649,3.563981208935072,1.9692973678428722,1.1351636209889508,3.7439494666999527,3.8773218668031095,17.439630097054152,5.531306644138794
32,-0.37955459496436966,1.0817538698738538,-0.18618435829458393,-1.3994943340784396,-1.9507422839540987,-2.519800437825227,-1.9443804010807684,2.5203924226106,0.6358521476534713,0.002554945675959088,1.7990080640331003,2.0748997460439007,16.053742715607893,3.1405792851167376
33,-3.0553326607162785,-0.19299235828968667,-0.28022468669658274,-2.8438560113166775,-2.999332912525525,-4.175591505449812,-3.4096630660362663,1.1562956076177882,-0.8529000039684458,-1.2396446431488723,-0.4909932651709757,-0.09248583219459952,13.164207533237331,0.3179011567164678
34,-5.576973882458763,-1.467807001891911,-0.34427992664633034,-4.13343921462335,-3.792868654973608,-5.504716857406216,-4.710283748619348,-0.39447753319341466,-2.359411030446685,-2.482301342844429,-2.915156566830629,-2.4363581517861013,9.100909508952988,-2.711443553404032
35,-7.7598091506114715,-2.652400367262219,-0.3662859988479709,-5.162289005312382,-4.250826527478682,-6.354650866596988,-5.6814324186338885,-1.9643902973335066,-3.7311089906707777,-3.6064864113607813,-5.238596404271754,-4.73742145248349,4.309580530289759,-5.692196569100917
36,-9.444365443609811,-3.6618870277172038,-0.3395254272863408,-5.840760042040329,-4.326740152567949,-6.6225081239089185,-6.184511005587345,-3.3724474096359858,-4.8194287481898135,-4.496938832513922,-7.227733675459667,-6.768042476419696,-0.6991456138423463,-8.362481498467062
37,-10.508058793834543,-4.422207567414315,-0.2639243149884347,-6.102918030633372,-4.013856656321094,-6.268876503909683,-6.1270323845984676,-4.4478790478734265,-5.499809083916948,-5.056031578741765,-8.675922681678133,-8.316739317880169,-5.406985526674108,-10.478648688866528
38,-10.87425094149794,-4.875522972960817,-0.1464298759321107,-5.912890265789254,-3.3463095176832716,-5.323759108244834,-5.477291723054475,-5.053757057463976,-5.6895550445088725,-5.216370015549969,-9.426649105805142,-9.21208037566527,-9.345031039142366,-11.839414599222408
39,-10.51824824173061,-4.985307104209743,-0.0003736123026121361,-5.269659781810912,-2.3956151482669745,-3.883734971806674,-4.271611439410072,-5.10689886130999,-5.360662833155799,-4.950219799379164,-9.391708380759034,-9.343266959234061,-12.144082873359185,-12.306956395768491
40,-9.469801096108139,-4.74059343072584,0.15612623494265682,-4.209662547099741,-1.2628520625932964,-2.100674248659115,-2.612955761197189,-4.590881991493562,-4.545400233678664,-4.274300503114456,-8.562202187330435,-8.674827953766057,-13.57261741191094,-11.822653627575342
41,-7.811653257966896,-4.158628335976861,0.30252486694022307,-2.806493085017212,-0.06739229837575963,-0.1635186027940816,-0.6608843277097268,-3.559994779926991,-3.333518631046889,-3.249060159991808,-7.010870477253131,-7.253329664178995,-13.55814635444886,-10.415446779528127
42,-5.673787184797108,-3.285138500335022,0.41865651720732905,-1.1671246954788237,1.0665314603804164,1.7244175642995418,1.3860027598518478,-2.133324935215327,-1.861271348337312,-1.9722969875357337,-4.8851776955021835,-5.2048018168882235,-12.189674951893808,-8.201358443953294
43,-3.223287681068196,-2.1915956731550317,0.48759318665208146,0.5756511067756861,2.023868291425535,3.3695943508126467,3.3129508959126888,-0.4797111692969215,-0.2937174909201771,-0.5678165068916756,-2.391629779193206,-2.7226525051895423,-9.701220194443303,-5.3736009428350044
44,-0.6502172298711801,-0.9692625287065251,0.49814613835403954,2.2743759831974057,2.711750976138419,4.6106844269329,4.914368430729349,1.2043018336002238,1.1971191773756558,0.8294219157381618,0.22709634389002598,-0.047075204216603606,-6.4386579213078114,-2.183806279470466
45,1.8494964306379984,0.27963588260092903,0.4466421063756634,3.7808758982453305,3.0699061395025447,5.3364705499079,6.01835765658642,2.7202971765229007,2.45498377810653,2.0896398923029746,2.719626078986473,2.5618331910852974,-2.8142342634243387,1.083883828076549
46,4.092537981353648,1.4526700473349843,0.3377026639198501,4.961621090034429,3.0772091928056127,5.497082620847884,6.507361942942431,3.8938555085119315,3.3596135573922696,3.1037541496536263,4.854642234650012,4.854021471040577,0.745382701634749,4.143032887269924
47,5.925940768421511,2.4584555441565343,0.18389188831051143,5.712640835355433,2.753568448911688,5.107424147841122,6.332358269854781,4.596764050410208,3.8414589149728458,3.7958577329193477,6.447274102465902,6.618670954714478,3.850847720175596,6.7358053997650025
48,7.24177530142351,3.226705875065363,0.0042549991205065325,5.971933989889255,2.1568800090013656,4.242706932937135,5.518868296938145,4.762496341873689,3.8888064081694216,4.130903253869736,7.379645552455192,7.708708946468856,6.195110796750654,8.660607600515222
49,7.986668968649289,3.715472824533623,-0.17807370454587146,5.727448574451482,1.375396711927749,3.027022214760332,4.164097998920726,4.392972107723169,3.5464275710073365,4.116558428693593,7.612793501549689,8.057235690390648,7.5860301580740845,9.792801671767112
50,8.16462731861437,3.9143600546889017,-0.33888408107468465,5.019190271474343,0.5164274140460644,1.616693703332055,2.425606417105311,3.5559443809811344,2.906207042435404,3.7991062748119555,7.188297575440095,7.683492242844923,7.962780910421996,10.095665043679926
51,7.832557468598138,3.8431581445894034,-0.45612653572235395,3.9348079108017324,-0.3072460519900682,0.18069084109396186,0.5029126666243937,2.3737354228420635,2.091418572962734,3.2541798693323147,6.219385283096525,6.687448985615704,7.394477261192637,9.620089087674266
52,7.089020106117852,3.5461502147344746,-0.5129391990535654,2.5989755218752593,-0.9915409639594606,-1.119414469591053,-1.3857384615486865,1.0052372263271059,1.23722318371868,2.573900927267962,4.8727871403873575,5.233747215339746,6.061890602799227,8.493125057694035
53,6.057860811574046,3.083122484180037,-0.500056822774593,1.1578783199430924,-1.4540450338266022,-2.147580683891072,-3.028701902749115,-0.37606536107850225,0.4704286858432941,1.8525052220401306,3.3439773866310674,3.527317370616383,4.225457633798496,6.897136845462871
54,4.869274002675558,2.518724277639881,-0.41726868862550004,-0.23907037673045206,-1.6441287946671763,-2.807539523069627,-4.245394996390767,-1.6048999497321201,-0.10847548262059369,1.17270669241273,1.8294224538388604,1.78425958251947,2.1845905825113507,5.042732286778305
55,3.641338294332395,1.912124890345881,-0.27371166126811236,-1.4576642560972024,-1.5488904325724993,-3.05175080557438,-4.907073788927223,-2.5447704724427695,-0.43847650723127285,0.594856524249728,0.4998971269154566,0.20228529523876196,0.2343519524083675,3.1395666218632545
56,2.4650116105460635,1.3088384401578177,-0.08693164320410472,-2.394814443978409,-1.194152425784481,-2.8843571244878703,-4.951535617550408,-3.103705904712317,-0.5046956281089645,0.1504350190215109,-0.5212674547957217,-1.0649442703375958,-1.3743139374576383,1.3693739094617312
57,1.3949787990835976,0.7361414550893974,0.11919484924595994,-2.9896472252482384,-0.6403711712022111,-2.3581302105486364,-4.390050285994481,-3.2434268438395097,-0.33789501119132326,-0.1593338440578757,-1.1719435388637418,-1.9258951126827788,-2.465392011894279,-0.13486516818830446
58,0.447705739433102,0.20277890477733526,0.317436434633327,-3.2282714624588884,0.02600494490152034,-1.5660478743582211,-3.305693491583479,-2.9811407642557524,-0.007264225742911767,-0.35980387845312706,-1.455192932074964,-2.3591903356620687,-2.9558149056765086,-1.300789713192782
59,-0.39323987118620185,-0.29721247479850305,0.4807126609215244,-3.141714984554419,0.704575456452454,-0.6286742455882914,-1.843223396494754,-2.384177079927886,0.3921336417262983,-0.4950306532200664,-1.4332393433302963,-2.4107288578575536,-2.858926754866945,-2.118252778818522
60,-1.1658530746593234,-0.777565618829144,0.5856800308365419,-2.7976148756227115,1.2947967608916182,0.32110066243556307,-0.19160914285586317,-1.5585613762635577,0.7551907131392109,-0.6172008036419249,-1.2127339841803868,-2.180736451725052,-2.2738703462675796,-2.631039043184943
61,-1.9146811446658494,-1.251357562487753,0.6159213990347135,-2.2872136553677196,1.7096715764813768,1.154193951429767,1.4388096673915232,-0.6333020118178385,0.9834527352975584,-0.7752372964206696,-0.9239215909265154,-1.8031293188677404,-1.3634230164420107,-2.92068760371446
62,-2.675135293484071,-1.7230201204342184,0.564298945113697,-1.7098988937413666,1.8874325720625809,1.7605341051405152,2.8418762628841536,0.25743716193699406,1.0003069964375197,-1.0045020366109443,-0.6971612349587704,-1.4206906609651935,-0.3243483979117777,-3.0856010114670243
63,-3.460222883745406,-2.1826167606831666,0.43413167309046813,-1.1578177350774363,1.7996068675596495,2.0616785587641875,3.840829069581939,0.9919902453305464,0.7626293939111249,-1.319257863772963,-0.6405298934442044,-1.1600958334976719,0.6448429647873641,-3.2192416244935487
64,-4.252321891487902,-2.6037520915222214,0.23901093946695692,-0.7029593960984438,1.4543610005008756,2.0194941641426816,4.310071943998689,1.4765303666393446,0.26745266932983325,-1.7090400218804496,-0.8219176612687075,-1.110703851765004,1.3738011342981262,-3.391171463523621
65,-5.001656173893694,-2.9457330758662708,0.0012508791877703742,-0.38856266421510005,0.8947087002823495,1.6399965033005648,4.190741556470073,1.6563278402952035,-0.4470513015387482,-2.1394178160665964,-1.258190037863786,-1.3103011839914576,1.74370481666516,-3.6340149557250614
66,-5.631865013523145,-3.1597136840533335,-0.25084093663862783,-0.22587878428267796,0.19191408325906123,0.9719874888239998,3.4980271464040857,1.5216890358021509,-1.3062191107965488,-2.5569155452908587,-1.9128016706789128,-1.7397760562152678,1.7011787454393226,-3.9382583895373324
67,-6.051734810568097,-3.197707625541242,-0.48652061186099704,-0.19636467303152988,-0.5648785605616812,0.1007146521830334,2.319215180729678,1.1079834365831607,-2.208416903718257,-2.897223011211956,-2.7019029221737667,-2.327232537026846,1.2614821255631807,-4.255370166148402
68,-6.171023558794086,-3.0227260897845114,-0.676520619645415,-0.25847862172180003,-1.2812239035496598,-0.8626651130665371,0.8026208708242838,0.4898594130793614,-3.0381162725155146,-3.095354879106499,-3.5077029907959654,-2.9605736869210797,0.5013807298426449,-4.508291980146794
69,-5.917564421371891,-2.6180201992082686,-0.7967908431397285,-0.35755893054785376,-1.8703147431185003,-1.7945634110665716,-0.8612318758608786,-0.22957142986045095,-3.6808299194256104,-3.0961732705606644,-4.19683113099636,-3.5063272395198313,-0.4563981548640589,-4.607156247316776
70,-5.252603173830994,-1.993532456026043,-0.8315606318589496,-0.43688797975345134,-2.264432977676493,-2.5737955177509724,-2.4637771654236924,-0.9331978888258771,-4.038039319455232,-2.8636840817259013,-4.64080340621574,-3.8316341551327024,-1.4641513268648019,-4.4673120754314235
71,-4.181625153155376,-1.1881543622205164,-0.7753089616174405,-0.4480153800573071,-2.423335493465632,-3.0960358189041797,-3.8047765511416176,-1.506169852803022,-4.04027378365049,-2.3877321289999274,-4.7355192005439015,-3.8259710236679747,-2.3721039077461374,-4.026487847464336
72,-2.758689375669516,-0.26714529898079,-0.6333866926090527,-0.3587074766747007,-2.3384861159553116,-3.286201839609746,-4.7174253079947865,-1.8518340643169136,-3.656716748228946,-1.6871083564627605,-4.416976287835818,-3.4193519834929917,-3.04973098058928,-3.258191084748531
73,-1.08337052714973,0.6850572430355758,-0.42123011503703345,-0.15743141530524082,-2.03267215274909,-3.107321887376283,-5.08888663168161,-1.905205302908623,-2.9001097128601385,-0.8085903503004717,-3.6710468445062343,-2.5944006891807736,-3.402533875592771,-2.179175176559332
74,0.7093707697851108,1.5755754613996777,-0.16230539863349627,0.1460380155043528,-1.5552212399532999,-2.5648693154381816,-4.873575830422679,-1.6421075696267853,-1.8262774985817736,0.17799203243952647,-2.536095191289273,-1.3906829373367593,-3.382249029113217,-0.8498541382423555
75,2.464915213453189,2.315675843892146,0.11490437240413041,0.5236055666487589,-0.9736671792359346,-1.7061069425466877,-4.097541194941358,-1.0826833292565066,-0.528267573304991,1.1880049265722379,-1.0983016988996122,0.09911356560771063,-2.989643067991375,0.6322575620052375
76,4.027937969981805,2.8331566082401736,0.38043955637772453,0.9345646409419386,-0.3632125776445288,-0.6146038792148365,-2.853556168485913,-0.2887611831065706,0.874193295969095,2.1324168234015235,0.5193750429789843,1.7403586876972217,-2.2702595895392377,2.144861648523671
77,5.2617203398871,3.0825060365031978,0.606450469005908,1.3327718347406865,0.20437232840070416,0.5993237063958049,-1.2878501592005103,0.6445232058024873,2.2485698485506793,2.9288627341481694,2.1727751588080073,3.3731911366270793,-1.3045313191574972,3.5568320716430333
78,6.064932002074424,3.051163664412327,0.7703672926913683,1.6739081748958493,0.6707367420455049,1.8110212813973388,0.41944885804702214,1.6015933893223941,3.46487552686083,3.511735602891991,3.7142503752338283,4.832227051215486,-0.1943941220737725,4.745182324155087
79,6.383439787301748,2.760867133864759,0.8572722182174976,1.921592435613519,0.9983649121491524,2.895232020809345,2.077290809575419,2.461855350872049,4.410447163328256,3.8397944894549925,5.009919174543697,5.966445416251311,0.9511572185795776,5.610365977143105
80,6.21551721928867,2.26388711858295,0.8612224277338085,2.051470797247523,1.1744039066906782,3.7395542369645387,3.5068999412469117,3.1153933705019594,5.002152311593311,3.9001460339910046,5.9540844611427435,6.656582443732969,2.0292622360865766,6.087631389334233
81,5.60987326601387,1.6347919438332148,0.7854284330320225,2.0528868009210877,1.210471728547881,4.256135714475315,4.562156156516118,3.476681580892428,5.194440781707569,3.708022520049726,6.479002601932075,6.827901579572566,2.9533331905817493,6.152907954937846
82,4.657014126831539,0.9590943819625114,0.6413487688815215,1.928226881870517,1.138644601371447,4.390411085571827,5.144725252735128,3.4944567469683414,4.9823045925579645,3.302461094539293,6.5590131711727775,6.457009368365333,3.65909749134476,5.822668437179486
83,3.475429068362219,0.3206001375064552,0.4468953518169946,1.690444023023152,1.0044006171328526,4.1260935616072265,5.2124088155924255,3.156598802548507,4.399014976846322,2.7386744883939276,6.2089720294078345,5.572316710640715,4.106370706729043,5.148219259637169
84,2.1948090284610084,-0.21056281771336224,0.22403702841078887,1.359521018576067,0.8577385077847791,3.486090541705689,4.78023220020702,2.4897300593278344,3.509324138320053,2.0784761729638337,5.477821660264092,4.248649978894784,4.277198195770552,4.205751157866443
85,0.9388675689891638,-0.5874106015942642,-0.0038657331909642653,0.9587180138487554,0.7439343343466013,2.5294635699865373,3.914801741846438,1.5541032256305456,2.3995060699170097,1.380474635341124,4.438835777423265,2.5972614649242662,4.171614211630123,3.0840968130094533
86,-0.18970424834436625,-0.7916732806520596,-0.21466378060691946,0.511363656987511,0.6954152573481374,1.3449452691211772,2.723285810743715,0.4350363953623913,1.166035808292745,0.691805069310719,3.1784774936241513,0.7529722345648088,3.8025743159489016,1.872398024981347
87,-1.1200370461855382,-0.8347070175877404,-0.3896709373195161,0.03873126368213041,0.7260223915492722,0.04182251596438513,1.338902439371806,-0.7674573334360313,-0.09521380496374507,0.04289397960467236,1.785851494565597,-1.1396500756426369,3.1915747517778836,0.6497512613271712
88,-1.8182533601533777,-0.753717968360484,-0.5153475605828595,-0.44075506933408615,0.828540898641804,-1.260822118054023,-0.09501278104773436,-1.9491679810744147,-1.2976620297026504,-0.5538158435882187,0.34441216858379814,-2.939318632606799,2.3660995085634524,-0.5215901415964973
89,-2.2865483244102776,-0.6039870770350001,-0.5842872304175161,-0.911054655072592,0.9758575363803162,-2.4454494331491534,-1.440407602524696,-3.0109454023244884,-2.3695879287886976,-1.101025344754364,-1.073024011952398,-4.51890153724063,1.3594119254947126,-1.5986348316712582
90,-2.5566924328254577,-0.44838734614371956,-0.5954679080518472,-1.3571321016526983,1.1255423320731832,-3.406950401041395,-2.5777929890563005,-3.8658905608495227,-3.256327416530116,-1.610307670793617,-2.4057022076002768,-5.773350769696216,0.2124641161196169,-2.555755886407771
91,-2.6793392412846635,-0.34588323573146657,-0.553810288645173,-1.7632052388891442,1.2271254197050026,-4.062149699587817,-3.416307313199531,-4.444281671163546,-3.919609974961795,-2.0938248035653237,-3.603334659957807,-6.624506463180683,-1.0230027009143594,-3.3793912111504283
92,-2.711155244118553,-0.34084049898388874,-0.4691520485670427,-2.111230838968122,1.2309292603451754,-4.357146984098575,-3.8999942862865935,-4.696571049174674,-4.335124970116514,-2.55592544317753,-4.622687613202621,-7.0231326868373785,-2.2815874595593493,-4.060914663098004
93,-2.702086624922722,-0.45483889662094695,-0.3547935462622404,-2.380189092224072,1.0970792009357695,-4.271904162662122,-4.010194297432517,-4.595102917661674,-4.489673904593823,-2.9866120202493662,-5.423911654234484,-6.948900057488094,-3.483169803649974,-4.58958876523215
94,-2.684991956320109,-0.682295117485326,-0.22579727059728924,-2.5465698759681468,0.8032839690320582,-3.82170256384812,-3.7643166354614976,-4.13522989100987,-4.379161246117651,-3.358541797020772,-5.968168483334716,-6.409158529565813,-4.535015926018376,-4.947462085425456
95,-2.669418318496225,-0.9906280506799277,-0.09723147742437237,-2.586230098242046,0.3501548751243402,-3.0553346026187405,-3.211510362946638,-3.336259233714205,-4.008236173120154,-3.6285355482716155,-6.21772943989197,-5.437238657940425,-5.337814115415475,-5.10764900616806
96,-2.6405572897164347,-1.3250148413423881,0.01745989936756724,-2.4775182232488087,-0.23680774930807888,-2.050156404010935,-2.425896209696853,-2.2422265947408313,-3.391736555318332,-3.7436364271122877,-6.1390574245675404,-4.090726659514354,-5.79555884638225,-5.0367044586137135
97,-2.563507561147575,-1.6170853442443234,0.10780259460799121,-2.2052873928657117,-0.9089404161496082,-0.9044023581447259,-1.4980889097324703,-0.9220159681116382,-2.5573758694417585,-3.650776710600599,-5.708577410558378,-2.449759614412307,-5.828265150444943,-4.700913655865784
98,-2.3920376130913406,-1.7962785254799822,0.16723096631098708,-1.7651822947295792,-1.5996797678047188,0.2725668199333958,-0.525762186739555,0.532018826240929,-1.5485401936727423,-3.3082770104162855,-4.92006553803304,-0.6149880779665199,-5.385660120252659,-4.075423389244114
99,-2.0802344514396798,-1.8021282209286726,0.19354453148243522,-1.1674284089151927,-2.232654178751864,1.3711704535541476,0.39598446279937843,2.0078826298708585,-0.4257855508579034,-2.696903965252268,-3.792014356097055,1.2954344224345162,-4.459452775145564,-3.1544204247315886
100,-1.594877610129301,-1.5955345736219895,0.18885549272992888,-0.43931167173198743,-2.731465998136315,2.2925798620324156,1.183692788631691,3.380936993336078,0.7342604493009434,-1.8281667094949003,-2.373096728075803,3.15056100751814,-3.091669323245501,-1.960162436220572
101,-0.9261928251056443,-1.167158929039746,0.15905027817138528,0.3743658470537649,-3.029776434847946,2.9585896958079303,1.7732852303087532,4.5242238898009415,1.843385088033831,-0.7479656448664732,-0.7440211360496346,4.813623296276684,-1.3769222299291253,-0.548682607882793
102,-0.09486491311722776,-0.5414603002223378,0.11283503048224496,1.2133299964947517,-3.080274436462014,3.319274733539569,2.1257517009029967,5.321480608565211,2.809667471376804,0.46545563110322563,0.9853694338534308,6.151429284995074,0.5426750004115178,0.9895582695461776
103,0.8461997077802542,0.22447096591078786,0.060476246572584456,2.006495038314343,-2.8612978636597943,3.357516900799776,2.230161406551066,5.681377410596963,3.5478589365860183,1.7092282918172983,2.6840548077327204,7.0457847340999,2.49006171273319,2.534971781999912
104,1.8159746531918697,1.0473229873767775,0.012380798171114628,2.6789269792500203,-2.3802365474416884,3.089826413819347,2.1035756183441348,5.550854223959241,3.9906178718144854,2.8681284358224124,4.212182424302507,7.405918446807216,4.272072761069675,3.949936256071988
105,2.714870560538258,1.8284145181764049,-0.022318444732429343,3.1603673384027537,-1.6733138493397453,2.563326383557767,1.7877425892306638,4.925158181690313,4.098521141589547,3.8294071915283228,5.4362422828029855,7.180365316831884,5.70222013307083,5.094436685627893
106,3.4383682888353753,2.467448419306112,-0.03699861275398123,3.3942267461274436,-0.8018400974907555,1.8492627934548886,1.3428497238005088,3.8524119784969932,3.8668066420878064,4.497710423068178,6.244891150811127,6.366459317178797,6.6242445589722125,5.844083043331808
107,3.8925968452929536,2.8771118691114173,-0.02844542780542657,3.345757526851655,0.15451365335897296,1.0338682714198348,0.8390363814937359,2.4312749981054136,3.327308148814142,4.807624262309765,6.563012364330867,5.015605835825616,6.93295997723337,6.107767345301769
108,4.009318725176892,2.9962712340737157,0.0027085988538120965,3.0081082723270907,1.1065181554349777,0.20777304633187477,0.3467514981291992,0.8013715358423589,2.5449206175888217,4.731856476579415,6.36179684418581,3.2328720618107756,6.589181934885667,5.842103431772753
109,3.7578012705285833,2.7996696094444484,0.052073488923508,2.4051709500748917,1.965145402307486,-0.5446452397759025,-0.07271369422248315,-0.872563798845826,1.6089893299981954,4.283892639877681,5.663219624770329,1.170122249466931,5.626338358195976,5.060165213528295
110,3.151499659102463,2.302539880459436,0.11211651448138227,1.5905388992792442,2.6511046391900432,-1.15458881564315,-0.37514267575696414,-2.420693461672844,0.6210180378572226,3.514972267530881,4.538154409871151,-0.9871624374389971,4.147578769372652,3.8328488874716267
111,2.2482908993105832,1.559325634497378,0.17322725093019808,0.6424509799648711,3.1030635303239285,-1.5756749859425712,-0.5385691658246171,-3.689269136740458,-0.3191794987931898,2.506207583414188,3.0983604722786304,-3.03824431797106,2.313627937893979,2.2823052368578973
112,1.1440453170617095,0.6566328339420869,0.22509310959227583,-0.3447824715343168,3.2836780992249635,-1.7874956840877942,-0.5649163738116207,-4.559728724376046,-1.1264646097682736,1.3574239455278172,1.483514001622813,-4.788626159701189,0.32303510582771805,0.5681337728679263
113,-0.03957809005041949,-0.2985420010174641,0.25819948961008293,-1.2717987781554059,3.1828581780155885,-1.7956095760498743,-0.477857795803678,-4.962714150976664,-1.7402813876285816,0.174697704652559,-0.15482670557961742,-6.071988627352746,-1.6123867029734376,-1.131811974035902
114,-1.1712677249758003,-1.1935080904047555,0.2652478310523253,-2.0461464407423504,2.818040079112083,-1.6281936921037194,-0.31727908193721444,-4.884886086833802,-2.1299356431682344,-0.941449253175285,-1.6700565254872548,-6.769612549432233,-3.2934478071384623,-2.6432909852702275
115,-2.127637686535957,-1.9252490827319644,0.2422912520347569,-2.5934998240021776,2.231577950364231,-1.3300473521533824,-0.13130494711401794,-4.36766994009261,-2.2946637097820797,-1.9056271238846998,-2.9359080407811384,-6.824537640513846,-4.5571873779287895,-3.8170706065882944
116,-2.809543728673075,-2.4141344882253595,0.18942075141978557,-2.866517286427707,1.4856596569110778,-0.9549847894790168,0.03270848517786254,-3.4984694254857396,-2.258965665950083,-2.6539921653053344,-3.858508989608177,-6.248372082095096,-5.29503423518174,-4.546797427594196
117,-3.1546773447593566,-2.6139510750140853,0.1108924452823729,-2.8500866468890065,0.6553764097968101,-0.5578243742269965,0.13662180755116807,-2.3961428176884403,-2.0645793420637615,-3.1472705998036625,-4.383869624410617,-5.119684299449821,-5.463274385904363,-4.7808647769358545
118,-3.1446253302636555,-2.5168636113572425,0.014661849441859715,-2.5622559605127253,-0.17928042233684363,-0.1871583423256471,0.1579093443095568,-1.1934011883342532,-1.7610191111307942,-3.3707759726803723,-4.500304654675011,-3.5741089665071573,-5.084781979248907,-4.526747701723335
119,-2.805502363287069,-2.152753390908389,-0.08862448472768937,-2.0508050196304386,-0.941653205514644,0.1201230003078509,0.09290453587430667,-0.01910172677012899,-1.3966897516254984,-3.3321898178802023,-4.23601161985186,-1.7874835362431079,-4.242252904487537,-3.8474280525765887
120,-2.202291687631055,-1.583275013712167,-0.187047794734822,-1.3860606798849056,-1.566042127370854,0.3419319036680008,-0.0436003360618939,1.0168540431389967,-1.0122216187275694,-3.0579923296583984,-3.6526032670924584,0.045689674078180136,-3.0643379614229524,-2.8506961684941072
121,-1.4279926085471215,-0.8917632365096341,-0.2690469415521747,-0.6510911148367702,-2.0039491101814653,0.4715172198840658,-0.22219523967472243,1.8340476466027051,-0.6369782068308775,-2.589310070109046,-2.835765829245702,1.7355353178395831,-1.7069473152266197,-1.6731130555235894
122,-0.5894230011766963,-0.17069078752773145,-0.325019379858406,0.06925025456366418,-2.228309237861205,0.5156676653324325,-0.4052807910216995,2.386550632051554,-0.2888500887345269,-1.9776814137959484,-1.8843788827590058,3.1187449578056663,-0.33249256694484264,-0.46110564836825263
123,0.20804827220875508,0.4913489380593563,-0.3486495781788196,0.6988647327170582,-2.235279710686229,0.4911715900599183,-0.5547605272542226,2.662536554443606,0.023322718203857975,-1.280941796484373,-0.8994137938643723,4.076329742131741,0.9100870916306337,0.6480400696560293
124,0.8745140154232125,1.0212064969941115,-0.33775828979577827,1.1791116294232906,-2.043414015836679,0.42034019068404466,-0.6394722619174481,2.679522159545252,0.2958893317580801,-0.5592047221570544,0.026227646091897275,4.545020636007612,1.901979916818952,1.542651933746869
125,1.3462815705098314,1.3696994671478293,-0.29454070302632035,1.4746029423477536,-1.6903448000713723,0.32645968369600636,-0.6409377571610978,2.476827729057002,0.5264616816516634,0.12917227915708882,0.8160170110141587,4.521105744559482,2.565935266855486,2.148485148183566
126,1.5919864903017682,1.5160668474172883,-0.2251616699172495,1.5755004284568366,-1.2274029671695605,0.2299382688248738,-0.5563950680086778,2.107008053616649,0.711120002110376,0.7316822899453573,1.415618461084449,4.056580984696768,2.8714166915949058,2.4345514307816254
127,1.6135024212568838,1.4680113237089472,-0.13878257527201093,1.4962603050590069,-0.7128704341198281,0.1456888355845841,-0.3986597376526118,1.6277894023596917,0.84348178055183,1.2056927873363636,1.7958984488515974,3.2485452045414522,2.83333983449763,2.4125952388022767
