,AF3,F7,F3,FC5,T7,P7,O1,O2,P8,T8,FC6,F4,F8,AF4
0,0.016512969632446837,-0.056765046203011656,-0.02330353015617008,0.06208789810531279,0.02469115251090539,-0.2219766197497353,-0.011053469084704002,0.6647282586496465,0.937675449528739,1.109668511017338,0.7015082705766601,-0.3319246786268128,1.0427818318183206,0.23991505660639392
1,-0.5047617529957305,1.2533997904204037,0.1373123373537922,1.2387871113787414,0.2067039361342728,-0.16881497741646478,-1.4984151751068058,-2.8837528947238686,-1.7224668788455795,-0.8551065009935951,-0.22117756971291308,-1.0168926691072249,1.3345044357400597,-0.29625237049919007
2,-0.9021490606543177,2.5413620018092167,0.27582685383011535,2.3601397531285815,0.4344996787870935,-0.134156372939331,-2.8565818835835968,-6.112862261555678,-4.157799605344097,-2.624815617419837,-1.0011500091188887,-1.5705016509800225,1.753860080930145,-0.6847761982862115
3,-1.122510251959498,3.7122927536046975,0.37495501022062605,3.3263780343702707,0.7242693673523267,-0.1481168866132845,-3.95268115299636,-8.702431612838936,-6.113551360412186,-3.993187852113109,-1.5377430389304145,-1.9588040850142319,2.3214225551426786,-0.8632761256394724
4,-1.1394359586535006,4.6753967645852486,0.4229649667948634,4.048433822848546,1.0786631179112673,-0.23318822785025947,-4.686385985943707,-10.416941284281371,-7.403562961741534,-4.8174550124465805,-1.7744381788971333,-2.1726520003659204,3.0140075971353086,-0.8066905650488692
5,-0.9568548200484279,5.352143087193233,0.41498933594153153,4.456981322512929,1.4845335179587351,-0.40062552501936194,-5.001000473655078,-11.130200700187048,-7.930765883711422,-5.035169101566678,-1.7062540054749245,-2.2273310427560875,3.7637244339892955,-0.5314996762776599
6,-0.6085154980189607,5.6836308019881505,0.3534190526631279,4.509699229578792,1.913144104257053,-0.6479529590170585,-4.888215333234112,-10.834858024709193,-7.694771357927338,-4.669156645034254,-1.3790744614967214,-2.158423676719005,4.465168372472582,-0.0936103962649682
7,-0.15333645887760863,5.636363842697106,0.24735408416480997,4.19595735335039,2.3228872422639535,-0.957940653353181,-4.386098319091416,-9.635980522442129,-6.785933650786554,-3.820169336522257,-0.88101821651955,-2.014470284997728,4.990007140554176,0.41993802035441047
8,0.33284297616962844,5.205882628488615,0.11120776425502026,3.5384058480580145,2.6641959587309914,-1.299309346068129,-3.5709422168435787,-7.73019446921316,-5.367203124994933,-2.648554283974372,-0.32712634971359866,-1.8474929411834085,5.2070114804263365,0.9043964437877463
9,0.7680856171574421,4.417913444926206,-0.0373304980262423,2.5912760632276406,2.886013470135373,-1.6292777861695609,-2.544525607836015,-5.373890500627415,-3.6468386217563524,-1.3478463025377965,0.16033638122313537,-1.7028163849400173,5.004615469368523,1.254023409220311
10,1.0763475009879921,3.3269240005060277,-0.1796890772308664,1.4355502393049027,2.942946622649044,-1.89788137664537,-1.4189921807044086,-2.84549173127534,-1.8463447628703338,-0.1143533597096976,0.4729561311662325,-1.6098065229920773,4.312515201326875,1.3797047507770321
11,1.1990142246750417,2.012194706610153,-0.29883738381708214,0.1714838567452769,2.8021092813485033,-2.0537680035912835,-0.30181493060534564,-0.4075153234562154,-0.16863069855018178,0.8826162635845358,0.5353140245196958,-1.575107816172364,3.1187364801060946,1.224833943542234
12,1.1043467938276441,0.5717148353072622,-0.3814137891370357,-1.090764721772933,2.448678101820363,-2.050940439205681,0.7168547554179423,1.7259899682447024,1.2287620682668114,1.5253555675444501,0.3190864379499568,-1.5796802097990297,1.479073334396652,0.7769333987450437
13,0.7934104094965112,-0.8856200049254662,-0.4192804952679878,-2.241457173964827,1.8893367635976348,-1.855700527005826,1.5727031780453038,3.412060692445985,2.25143571369325,1.7634784397425392,-0.1503263648103811,-1.580430790071698,-0.48320939047192807,0.07299917620757317
14,0.30147922586335013,-2.2489045368457243,-0.4103126973719132,-3.1815315853735386,1.1530569265459127,-1.4529023302090758,2.2307063914613443,4.5886390697266455,2.874542022699864,1.6184548324934092,-0.7959696223789235,-1.5165618719089746,-2.588120518314516,-0.8026138062353538
15,-0.30550437578182293,-3.4145238701450222,-0.35834103151644103,-3.8318059354126643,0.2890196116412758,-0.8505801679710182,2.683522967239943,5.270893090660327,3.137377814842315,1.1764448484755132,-1.500263442755703,-1.32000604516923,-4.619238848297487,-1.7278867043541934
16,-0.939158848729779,-4.295119846362761,-0.27228842587682434,-4.1402731327293685,-0.6381270118085427,-0.0821110416418659,2.945708273662035,5.535556424020725,3.1277185086495156,0.5707964011599723,-2.12323579788454,-0.928598588854132,-6.351091829356326,-2.5593884167832117
17,-1.5006415400245994,-4.827474755915112,-0.1646559949668574,-4.086833165691903,-1.5550998014293897,0.7946923192148793,3.045296412770096,5.496738141448761,2.959140758161689,-0.0427595521300422,-2.5253602901731633,-0.3000607068315795,-7.579860548167737,-3.15300105286927
18,-1.8948444036586278,-4.978584508874159,-0.04960016988631054,-3.685048958342703,-2.3880179283273444,1.7017981084674696,3.014641071243806,5.27796130797869,2.7457019350391123,-0.5140073702992922,-2.5914448804455574,0.5754638177241678,-8.152883737553882,-3.3862263570012394
19,-2.0448619658340372,-4.749256930385717,0.059106655556021584,-2.980769538273773,-3.07056414249625,2.548274013378272,2.882382148036082,4.985651035435969,2.5786744074376955,-0.724555898236737,-2.2517091560778844,1.666581131597331,-7.992339604172737,-3.178760656396281
20,-1.9046228718660505,-4.1746967570726765,0.14993249856901927,-2.0477219292595654,-3.5511471467287072,3.240030322233064,2.668029998564732,4.688824569769658,2.509511857988955,-0.6081918352483293,-1.4965019509804132,2.8974331503974873,-7.109131265447735,-2.5080884766017078
21,-1.4677123308421545,-3.321746794549765,0.2149957856488197,-0.9804224529588912,-3.798075862634323,3.6908938986531608,2.3800183048429253,4.408423795264966,2.5419456163940146,-0.16196884627455105,-0.382023322864924,4.151298286522686,-5.604334053795825,-1.417413687155988
22,-0.7708590429823102,-2.282753638089431,0.25083958357609426,0.11500714581037114,-3.8020557234643046,3.8336306704627976,2.0173042816689173,4.117818556714895,2.6343113356586225,0.5536569157061906,0.9742038495440608,5.28124236185214,-3.6574044968090544,-0.014268256767813688
23,0.10872456437576308,-1.1664046896699491,0.2584817212457847,1.1313208247191813,-3.5757358925511697,3.62943334979048,1.5738475802014098,3.753859067787053,2.711236987708205,1.4254407071634276,2.407734392914825,6.126958133222122,-1.5024233337157906,1.5405198940180254
24,1.062073751550464,-0.0863005016991537,0.24276616324933492,1.9709559873160167,-3.1504994161972064,3.0745098108985607,1.0447251022563404,3.235878640110248,2.6820669862795317,2.3066831347299894,3.729483463261347,6.5358731290774275,0.6043904704380862,3.05235601468032
25,1.9622802148291938,0.8515830973085173,0.2111509284733625,2.556092971354539,-2.5711118258987984,2.2027394458485827,0.43234913895341437,2.488621114032409,2.462195628394113,3.041828283464336,4.7525908558740095,6.385763840848293,2.4211410736653036,4.318411604084013
26,2.6815786136663267,1.5611004738801149,0.17215629464728663,2.836885032693794,-1.8891547740519414,1.083865175471236,-0.24869981053260742,1.4644512871358843,1.993058462792451,3.492090395854659,5.319788471527734,5.605645108684628,3.7551445873359977,5.155656304518387
27,3.109348706403897,1.9862476696638447,0.13374803200706187,2.796888434202791,-1.1563202018271468,-0.18271618865340006,-0.9693614566217633,0.16048999529136937,1.2569393788153034,3.5578570616510192,5.327079695704475,4.1917061845692904,4.490781055777649,5.427378419887854
28,3.1684440283459843,2.10811390551847,0.10193448347455338,2.4549566509850713,-0.41860669771684933,-1.4779039150015785,-1.6868718249981047,-1.3725960106928643,0.2838796147453134,3.1943336455798366,4.740103650964831,2.215563838778332,4.605814780156916,5.064275706545119
29,2.8274143356255617,1.9473328423603866,0.0798128545540062,1.863213351492282,0.28774595629087146,-2.675414143393608,-2.3485399790706185,-3.031771012557094,-0.8504295045218776,2.418181698666859,3.6006944829185596,-0.17695528384522471,4.17340496259375,4.076885563157243
30,2.1067217644718625,1.5614296461395585,0.06721685549482662,1.1011610061937602,0.9380860498354118,-3.6553623010276297,-2.897839121479168,-4.6725244966463375,-2.0351549470959878,1.304507298507534,2.0226630638732375,-2.7770286046471466,3.349231659946617,2.557315187252781
31,1.0778926711250307,1.037148064473466,0.06100974270601442,0.2664691503379656,1.5188554362423665,-4.317272471639096,-3.281695455528154,-6.127497883595143,-3.1410839223602065,-0.02482629684826784,0.17747661365502415,-5.333167092687053,2.3455084226334026,0.6697560983042541
32,-0.14442550269940865,0.47858388920022865,0.055953531214703194,-0.5365485628206808,2.0250961628889534,-4.590975786786512,-3.457669052241933,-7.229575420757167,-4.040444806914482,-1.4192420344495849,-1.7279774162871164,-7.578436374110896,1.3957680039191993,-1.3691051170989443
33,-1.4164822085443418,-0.0073766468747986395,0.045986480830138635,-1.2093938574160326,2.4566274911488026,-4.444153539620598,-3.399795670802419,-7.835551803922363,-4.626207725731681,-2.7206794656956683,-3.4782259364579486,-9.261273520297937,0.7158427603737764,-3.3171877458962684
34,-2.5835936242204673,-0.32633645667832784,0.02567212066407833,-1.6712117974777396,2.813779651334608,-3.885720930794591,-3.1021688202803492,-7.846606109830907,-4.827598530766648,-3.7846044234001113,-4.876747856033435,-10.175977752359081,0.4671552092448501,-4.937936029423715
35,-3.4999366156588425,-0.4102177407322911,-0.008446568919577515,-1.868448387421791,3.0936225827839197,-2.964768664278815,-2.579813423557644,-7.2225844668172545,-4.619461976237164,-4.4977507002450094,-5.7703659757365156,-10.188883298909989,0.7281607731196852,-6.030812783247799
36,-4.0472315867190884,-0.22761899495793872,-0.05684038982668591,-1.7810636862042573,3.2875055948040988,-1.7653105802118985,-1.866928869050328,-5.988315818841811,-4.024377664143617,-4.790377857513472,-6.067275679373766,-9.256727412772385,1.4785800237492175,-6.4572064436502625
37,-4.149793197762277,0.2108580141215208,-0.1165311265828574,-1.4244929075324009,3.3804518492558397,-0.39755667417748125,-1.0130411639172816,-4.231576052186512,-3.107781984850764,-4.6419219979346185,-5.746567228747243,-7.434727135034624,2.5991159844544494,-6.158278491868596
38,-3.784009821979733,0.8531466949503155,-0.18127883640902967,-0.8471420019240967,3.352585172769214,1.0132160824882226,-0.07790112689146955,-2.093591686469786,-1.9675040857360266,-4.0800342873998945,-4.858407591692836,-4.8732156523723695,3.8869886857783653,-5.162446283545591
39,-2.9811485452116475,1.6120960614040796,-0.2424141425204615,-0.12382740567325222,3.1823786515415837,2.3389247666380353,0.8739557100205798,0.24608558817047718,-0.7198789925676794,-3.1739416833917886,-3.5153676366228144,-1.8031602138163256,5.085208802113523,-3.581652718783925
40,-1.823329236487536,2.37681809757953,-0.2901956894511119,0.6538795437384218,2.8511755310174287,3.4607702545203156,1.7782055769577036,2.5880125949833293,0.5151362985165939,-2.0236959229176557,-1.8765165019968928,1.4877191000998387,5.921421662543593,-1.597099679969064
41,-0.43342330732240264,3.0274212473858593,-0.31547351559667736,1.3890505353512759,2.348197616139514,4.279969695697562,2.574793915802586,4.732235174490255,1.6276227123861118,-0.7471568957257425,-0.12671995487672094,4.685369722043581,6.150685418817083,0.5634969881359061
42,1.0396163506982352,3.4510932806505017,-0.3113734283615326,1.9910091062903104,1.6751570934957627,4.726178979176977,3.2109063732425884,6.496566457138815,2.5284682868875605,0.5334828186215492,1.5459956145365465,7.482759079188768,5.595904215969345,2.654018057409106
43,2.4379907316411424,3.557347206478718,-0.27469990614603607,2.3856720431411507,0.8496332694276654,4.7629585711252345,3.643019872544041,7.732228539947287,3.15631506654561,1.7041007220294575,2.972124174029382,9.612276304829338,4.179899961027741,4.439701942081146
44,3.6126583020058582,3.2904091488877385,-0.20679220527428693,2.523408093874512,-0.09344888647714635,4.389970250589434,3.83840194584378,8.335882467288009,3.4804926935898752,2.6688488731498348,4.018845389033205,10.873506431403294,1.944231860699828,5.724752246903839
45,4.439223440871325,2.6371704046920286,-0.11365658559369637,2.3836159706941076,-1.1026305427851577,3.641915063888744,3.776468706055436,8.257549552317938,3.500350297757327,3.3574728239537555,4.6027255112084005,11.15333791184629,-0.9482981900278636,6.374402908293262
46,4.830406559564034,1.6297714804852566,-0.005322134846613911,1.975717866651701,-2.1130902771577,2.5845056732900824,3.450289535735934,7.5042564971794725,3.2417785658075178,3.729458302860896,4.69580428706434,10.436333917169001,-4.228240108920223,6.328895794359644
47,4.743959171739939,0.34263151302375927,0.10549548056872411,1.3367541369773264,-3.0519125461244885,1.30799305104258,2.8682810096242783,6.139417617293873,2.7518569346296338,3.7750468396949746,4.324797394815942,8.804468478590485,-7.549570635924843,5.607968707066342
48,4.185534631414597,-1.1155296922061488,0.20521609059027004,0.5261776593016309,-3.8448916374728404,-0.08106872889603124,2.0558409297635607,4.278056593475741,2.0925097942726687,3.51341113520545,3.5639942751832367,6.42655584874629,-10.53143263904933,4.305727048578255
49,3.2066473474050765,-2.6135123160817186,0.2814119961593817,-0.38126953040385003,-4.424078177679781,-1.4690373843120224,1.0564248854281744,2.078052110555252,1.3338862010599828,2.9884623682941642,2.523155625182921,3.538844402031118,-12.806044423944012,2.576999359531175
50,1.8983646742569567,-4.01171701149374,0.3246943495963292,-1.3035870547278496,-4.735143370061956,-2.7445625649081737,-0.06856266646244795,-0.2722563314772678,0.5479719590305936,2.262888476305397,1.3322361171371973,0.4191807003134674,-14.06636574359328,0.6172893325128147
51,0.38172333021501587,-5.17673193281614,0.330162683188332,-2.159474518730676,-4.743626306067454,-3.807351527394855,-1.241660434249901,-2.5695030795089453,-0.19723236176866404,1.4111038091378891,0.12502367974687714,-2.642221717336763,-14.107082040233799,-1.3608915706175406
52,-1.2039707653979328,-5.994754450839595,0.2981804637026397,-2.875401739037181,-4.439250152846093,-4.575641220635856,-2.373426785528851,-4.61280858674842,-0.8427423737722606,0.5118269200630727,-0.976226283666148,-5.372111012980359,-12.85334480362078,-3.1522648528095423
53,-2.71379427558815,-6.382467916623594,0.23434762835245815,-3.391227150466394,-3.837731061933452,-4.991856280496909,-3.368769549984754,-6.22200573600903,-1.3426448186668087,-0.3590125771073187,-1.87336238252354,-7.540446115434275,-10.373360462626014,-4.5807044443038665
54,-4.009751715112343,-6.294423631154568,0.1486706478478366,-3.664081369487943,-2.9798252193904204,-5.026130791468928,-4.135187469934571,-7.2548793129224025,-1.6669912268627927,-1.1344141219113901,-2.500809524255737,-8.980869181394482,-6.873114636196054,-5.516448556162972
55,-4.972318309559437,-5.726461650294578,0.05406003648815449,-3.670487894145862,-1.9277161440519892,-4.677583324914289,-4.59216979229201,-7.621551626639426,-1.8033469433183882,-1.761009341536012,-2.8292675693353355,-9.603478883591162,-2.6739351300669214,-5.8869821352505065
56,-5.510255874585463,-4.715166908997935,-0.03560780578972093,-3.406884543542051,-0.7591828416617012,-3.9734318768065884,-4.680667594708062,-7.294234787823646,-1.7568535829454992,-2.202035130679375,-2.864635480810711,-9.398950455199794,1.8241123796898269,-5.680865187347718
57,-5.568132283776756,-3.3337464882199166,-0.1075611301112739,-2.8888200195303906,0.43974008941850007,-2.9661947332579586,-4.371364696262759,-6.310943628363136,-1.548759449853543,-2.4384987719502034,-2.642783315233063,-8.434085964768318,6.188163256619503,-4.944683527080332
58,-5.131108732744132,-1.6849989023626828,-0.1520167817172433,-2.149130699152321,1.5827355492826536,-1.7293304423715985,-3.6704829695570838,-4.772396710495325,-1.2135158228218208,-2.468663498248774,-2.22128491307435,-6.839852542135505,10.001861336514,-3.7740870978592698
59,-4.226681604612339,0.10778569022310974,-0.16359400336046925,-1.2353700956969171,2.5908981331845373,-0.35172225154650044,-2.622073602086377,-2.8321479219526386,-0.7947042427611398,-2.3061515657053713,-1.6695230712156874,-4.793758545985533,12.911781387619572,-2.3004675817804787
60,-2.9231978202793076,1.9110994790772253,-0.14205290262185877,-0.20669568542879466,3.3993228063038203,1.068580462805881,-1.306155072319754,-0.6808704312822924,-0.340220572179931,-1.9770745614970566,-1.058659931329531,-2.4989401233464847,14.665277987151812,-0.6751620864589177
61,-1.3251243776203885,3.5918035485184125,-0.09225952391057231,0.869653842500317,3.961945516490479,2.4309715049927503,0.16739550657770497,1.4734813754004692,0.10273984907106398,-1.5166478965168937,-0.45283455061006117,-0.1625341196453331,15.135370870223667,0.9468568873689293
62,0.434746501266498,5.02725458512201,-0.023397747658969785,1.9222094281960167,4.254240974875066,3.6388865161235864,1.6686964645743114,3.427316980146013,0.4923091714209499,-0.965725524601216,0.09735964862326384,2.024211484295712,14.330097976415914,2.4220127997554504
63,2.205741388585742,6.114313243848517,0.05244064171413192,2.8793880500887186,4.273656786050776,4.606059905531815,3.0604176693135585,5.002280064617503,0.7956519458093321,-0.3676081230064782,0.5584977988857287,3.902060003309133,12.385843699747667,3.630448686222375
64,3.8317351696247366,6.7766935970104845,0.12206821004869962,3.673795399849884,4.037927865775553,5.262133878647871,4.211597319188538,6.062868673101506,0.9913558473460118,0.23464934499706175,0.9149130195976095,5.3547583922414725,9.546192471717445,4.48470486664497
65,5.164667483770649,6.97022955309703,0.17314331617123915,4.246587445570082,3.5816408166586577,5.557334607573675,5.011090572025841,6.528791943637555,1.0703203500231797,0.8003509559204927,1.166581542465712,6.314246432071822,6.129595474370965,4.9343514415546315
66,6.078060109705469,6.685756781719758,0.19595564629383214,4.551695988221596,2.9515827970145394,5.465955459214605,5.3790723700892045,6.380789451355984,1.0351829503213235,1.2927511422553855,1.3250062594651957,6.7602689093666335,2.4903574963699353,4.966687703253752
67,6.479341584713752,5.949447728458209,0.18480201545096983,4.559652811121004,2.2014996582284936,4.988423865669546,5.275290448617231,5.659532958568455,0.898531444274761,1.680282156647402,1.4080379252521074,6.715236465653485,-1.0219764668679734,4.60404244840748
68,6.319779023155718,4.820592940330925,0.138767371808317,4.260689122025316,1.3868971561197172,4.151781527759677,4.703202745373231,4.458134713016394,0.6803038597015943,1.9376196931007452,1.4346466703651253,6.235669845589826,-4.0998649023734215,3.8984941222936444
69,5.600920366764052,3.3869814691844637,0.06181956974216274,3.66675378945991,0.5604480653439751,3.0084777740792346,3.7096534248887894,2.909561535197073,0.4048482218542456,2.0467623621802242,1.4205620478753422,5.401801596171792,-6.507414434042103,2.924949331575914
70,4.376662261219895,1.7581805594826803,-0.03777082353757336,2.812095910052076,-0.23157180030729296,1.6334609630937007,2.380258707978615,1.1707885608259385,0.0980913475060925,1.9982050415006634,1.3754558811859303,4.306882952411399,-8.099438981473163,1.773472466187261
71,2.750376484353297,0.05714284849311159,-0.1485778559244812,1.7521064674536637,-0.9515821225290599,0.1196494192929176,0.8311200412047285,-0.5942409431239479,-0.21484113014495598,1.7921414599332577,1.301993199963871,3.0474846295495763,-8.828498899032642,0.5415827158426999
72,0.8669472753465539,-1.589318421340676,-0.25754981362443236,0.5602234156950229,-1.5716967534237845,-1.4280315570943838,-0.8021843896843897,-2.2308547063073645,-0.5113706926476801,1.4394774989595918,1.1966912472116837,1.7156652271273891,-8.740114207788052,-0.6730077191186105
73,-1.0999211514884923,-3.0605435995790136,-0.35169001350679907,-0.6771173427537719,-2.073571940005157,-2.8997487255405523,-2.3771766761781143,-3.6074190967405935,-0.7725608815082198,0.9623221731991929,1.0521845735516335,0.39341198752062223,-7.9578182553142405,-1.7789721991600749
74,-2.9642089896286086,-4.251798364894656,-0.41964861425317157,-1.8672627019545815,-2.447389650013386,-4.1885839683372525,-3.7574006354510505,-4.625457722961461,-0.9836717880418628,0.3935900065399366,0.8602640795661287,-0.8506647480672962,-6.660840348569881,-2.697179428831102
75,-4.546429783805898,-5.083008098440567,-0.4530132476984047,-2.91935883440624,-2.690331932671362,-5.198561269437485,-4.824509387313293,-5.225506708730191,-1.1343440820577306,-0.22457975603050062,0.614978170488279,-1.9627078676468535,-5.057852477623043,-3.365696535120253
76,-5.692895471035388,-5.50564480863094,-0.4471448507985198,-3.7528461469283623,-2.8049032794719655,-5.852270837841725,-5.4884792973372685,-5.3886339423083776,-1.2185673525803622,-0.84370560433748,0.3151579385876154,-2.9035402591024395,-3.3603411742650895,-3.7438897698849485
77,-6.293181445835877,-5.507013698210054,-0.4014839204918171,-4.305480069738783,-2.7973994304789196,-6.097436983501253,-5.6951144730421115,-5.134000143393104,-1.2345144882939525,-1.4130137957917273,-0.034072827489263546,-3.6476314714250893,-1.7588059095362114,-3.8153994905143587
78,-6.293540489328534,-5.111335997153325,-0.3193379758616362,-4.539846110565798,-2.6767223946839946,-5.911787319242637,-5.430252175342803,-4.513162966412791,-1.1842277591539407,-1.8842461823559096,-0.4209701489369447,-4.181496578895746,-0.404244059531616,-3.5896281251253037
79,-5.704291145980961,-4.377276004825947,-0.20723799199799905,-4.447414199632231,-2.4536267426558735,-5.305663031917263,-4.720353961256105,-3.602019388510951,-1.0730665183456456,-2.2165874184255046,-0.8279151341800554,-4.50177826818109,0.6035884406665482,-3.1013048958442497
80,-4.599816049019586,-3.391909315187434,-0.07400666311628408,-4.049427025315779,-2.140375305473881,-4.321969233475676,-3.629463549578516,-2.4913695627777557,-0.908811351812984,-2.380961306342459,-1.2329109737861508,-4.613146926609686,1.2206790235033174,-2.4077473483688157
81,-3.1107099864692564,-2.2615521463658173,0.07029333592156865,-3.3943230282250454,-1.7507022543607433,-3.0332941076047977,-2.2528225700865914,-1.2771000274454896,-0.7003877632675231,-2.3629976149605874,-1.6114192691557399,-4.526112187303127,1.4564843172286066,-1.5836630601239312
82,-1.4087027565335144,-1.10031582602358,0.21536913070604394,-2.5518985298935353,-1.29993830411403,-1.5363046112499033,-0.7077423024629032,-0.05094939473334694,-0.45631524386740835,-2.1641883627869136,-1.9381670776278612,-4.254881759812401,1.3660442575314165,-0.7137052573047444
83,0.3139292587566159,-0.017637412120802946,0.35153721838156715,-1.6049239314538355,-0.8051457397402298,0.056177225378124813,0.8773948618450059,1.1072611859762183,-0.18316207585280084,-1.8010885114348303,-2.1887029538428275,-3.8154937162583726,1.0380802421339284,0.11656449197835983
84,1.8678563504744476,0.8937148232953784,0.4703164606664442,-0.6393463111299312,-0.28513115562562946,1.624735860700459,2.374919944168502,2.1351899665606724,0.11557015222349182,-1.302787373887114,-2.3406671774490055,-3.2245252340814146,0.5808395687507248,0.8302556879992374
85,3.089960332782019,1.5676159225610926,0.5647556584506548,0.265547333743179,0.23975969454041737,3.0536556562986,3.6692509079337645,2.9907991344873057,0.4396570224594148,-0.7071941246202226,-2.374901621176094,-2.498685643373153,0.1073942256469644,1.3679704954420566
86,3.8631782849289062,1.9711801301034308,0.6295282737078877,1.0456146617790762,0.7481163517116884,4.240900705000746,4.666670817041242,3.652205356643181,0.7910660339666368,-0.05687091542679385,-2.2766077277108376,-1.6555004003672888,-0.278109851204262,1.6945416321090498
87,4.13016266521302,2.1070338872279315,0.660864309722697,1.6578152605022458,1.2182128969740498,5.106711761625741,5.302482348816126,4.114685981789355,1.1714195426893343,0.604832757390507,-2.0367396779208624,-0.7150838946376865,-0.4920574162036417,1.8025865980398024
88,3.89886059083913,2.0109154523999893,0.6564088031956322,2.0828820145309965,1.628993765887659,5.599865474904266,5.544812105561676,4.3853824296934,1.5782096968399848,1.2367464337738894,-1.6536941499109057,0.29728486968430695,-0.4799532859632966,1.712233863717352
89,3.239289770082101,1.7449326080386547,0.6150958682030137,2.3244913669221305,1.9612194042910143,5.700897107632031,5.394762705907307,4.4766468096690835,2.000386425981608,1.8016432546451453,-1.135158942682351,1.3483660167756308,-0.22143956149266403,1.4669892500925266
90,2.272088155185113,1.3874628471552861,0.5371073370506949,2.405288056566885,2.198665340730062,5.42196101623766,4.883105521336265,4.399299730415238,2.414312881231339,2.266862292025934,-0.4997685419803018,2.3947519393658983,0.26852728970695977,1.1263675219858922
91,1.150623495536448,1.0211871897518645,0.4239508364651013,2.3606137836117265,2.329252046303154,4.803443740685537,4.064194782812036,4.157222763173661,2.781301459169214,2.604184429438935,0.2219434495899211,3.382139856026715,0.942327162357328,0.7564826373019238
92,0.039362908439059,0.7210178690801533,0.27865223404336675,2.2311190171126953,2.345984283511301,3.907886629690925,3.0081764616220914,3.7446245754117933,3.0479165161152744,2.7895790248767582,0.987844275778824,4.246851683583374,1.7258514351652354,0.42014699231050995
93,-0.9083303940160986,0.5436649556496667,0.10601974290867251,2.055548480069832,2.2475983668204074,2.8121464809065633,1.7927825505685029,3.146953878026248,3.149908828022761,2.8034802823052467,1.746186780511917,4.920031823072826,2.527591513174956,0.1680926326334678
94,-1.5698546454210585,0.520293427622778,-0.08709356531499889,1.8648697443546518,2.038850090635143,1.5989568668603258,0.49598966371751824,2.345797880426332,3.0200424410792066,2.6320879321036696,2.439438990523775,5.334438894434042,3.2497207796292584,0.03267641518865359
95,-1.8679001458417015,0.6532035727976253,-0.29162211028687823,1.6785885006179728,1.7304171771881296,0.34910029286613864,-0.809430371300347,1.3272830146304069,2.5992662557875694,2.2698402866777214,3.009735015415763,5.433144377390568,3.7999739397542096,0.024917885317505353
96,-1.7781825012152603,0.9168139611072678,-0.49631385444550646,1.5036302967674553,1.3384285108214669,-0.8647583402318638,-2.058891259121572,0.09262989755256602,1.8498158769009392,1.7227555811290343,3.4053129310437993,5.17888662883336,4.102936110394148,0.13505505402148482
97,-1.3298131496872818,1.2625525265764896,-0.6880366281065087,1.3356642511336814,0.8836606459937126,-1.9818765489638808,-3.19649385177563,-1.3312099461999765,0.7680934928553754,1.0118959005690724,3.586972285179086,4.562442572208428,4.109308564657589,0.33613660542671464
98,-0.5988376569885878,1.6266890014998634,-0.8524206133119949,1.162307239480244,0.39045752878823964,-2.954660099808936,-4.1736060143586835,-2.883309134343791,-0.605246154362842,0.17590449387907006,3.533426792966466,3.6082894094031293,3.8018743344394568,0.5896474535745895
99,0.3036278152069857,1.9397712713126278,-0.9748464508448579,0.9673667584584736,-0.11456517143144486,-3.7476172203157043,-4.946526099310261,-4.465323428753148,-2.180531841893704,-0.7284938509167787,3.244509359526355,2.3760976117351302,3.197269575147334,0.8519004600615643
100,1.246660882281175,2.136213687378655,-1.041731696047116,0.735203988073171,-0.6039687487218601,-4.33480697371159,-5.474459052835592,-5.944687352375298,-3.8215920491631716,-1.6289081020707974,2.741513748587612,0.9572096048164952,2.343249504000986,1.0799689718248926
101,2.0960120746251083,2.162727468731391,-1.0420092925945044,0.45442150939486,-1.051029236365825,-4.6968410064904145,-5.718971762425342,-7.165232337513864,-5.356457184290448,-2.4429871797217535,2.0644763574332172,-0.5338796006224271,1.3118390429961686,1.2362555492517913
102,2.7297844764157895,1.9846325433368999,-0.9686399052698331,0.12035399990843444,-1.4312950450986706,-4.818557899548096,-5.645743665831094,-7.964657290626452,-6.5957716897018495,-3.087107900928703,1.266808731725703,-1.9720747446058624,0.18945287131989827,1.2912957927865465
103,3.0517284201645487,1.5895558067256086,-0.8199641210145896,-0.2638148289851867,-1.7240853093621609,-4.688292327816137,-5.228849763369138,-8.196858224266858,-7.356964580754752,-3.4870140091656987,0.40825207025367743,-3.2364620080646795,-0.9343861919651457,1.224939636279786
104,3.001112984411864,0.9884885776963013,-0.6006875366259898,-0.6871627374622139,-1.9138370900793875,-4.299235447050178,-4.457117309753271,-7.755915808634032,-7.490938331592162,-3.5887835822252443,-0.45249954670163733,-4.224979243223614,-1.9778378434058903,1.0264816236529433
105,2.5586650284459687,0.21453889222910136,-0.32230691464842215,-1.1320023544096125,-1.9911987495048975,-3.652807880380638,-3.34142859947795,-6.597811811423999,-6.907203500951126,-3.368191489089328,-1.2640783133177493,-4.866536991036856,-2.875251163764999,0.6945032255914024
106,1.7484779946178841,-0.6800953001289837,-0.0028317923994243344,-1.5752885593803774,-1.9537640779381216,-2.7633625268143387,-1.9213517305793426,-4.755884008264871,-5.593212870257679,-2.836603597941449,-1.986449353392907,-5.128544716175529,-3.5820652785069798,0.23708821115436346
107,0.6360467860069612,-1.6283973937073242,0.33426890350274036,-1.99012023468185,-1.8063528837438168,-1.6630391941227973,-0.2692957440564918,-2.34669965507831,-3.6242235701013845,-2.0420084890208665,-2.592016891224169,-5.018617597703045,-4.075540186664788,-0.32729220425253697
108,-0.6772935493675133,-2.5536393953773895,0.6618697476714653,-2.347190319995922,-1.5607718898933152,-0.4053301936201357,1.5094238633852928,0.43564290467566963,-1.161289039322618,-1.0645889731458809,-3.063917602114022,-4.580326128558217,-4.351642043924651,-0.9684391732873374
109,-2.063185395987817,-3.3750930807458044,0.951611587017376,-2.6162550541965577,-1.2350343787807314,0.9340362713667455,3.281664112741703,3.3369879669901126,1.5632322378464627,-0.007211534320388545,-3.3922996541960844,-3.883973944459833,-4.419225699130347,-1.6433367226397522
110,-3.3778924211228603,-4.014246250601786,1.1767162789212857,-2.7678498581139035,-0.8520740897269461,2.259914518628002,4.896884834028548,6.0706281727867175,4.271261713962615,1.017827123191606,-3.569914303675911,-3.014307312147333,-4.293218957288872,-2.296320246350332
111,-4.476158019478307,-4.401444070603229,1.3148869750553087,-2.775514065469748,-0.43805049832392523,3.464633909167514,6.202142647469824,8.351336697459235,6.672420151473127,1.9037111296436209,-3.5885531235545454,-2.0575759757470604,-3.9886855225210396,-2.8615026156744165
112,-5.226374594226291,-4.482751816741621,1.35094245370775,-2.6186746581567744,-0.020396599261298894,4.4385314952547725,7.0599041006964285,9.93117325461821,8.500627543934804,2.5632232529010563,-3.4376767943178614,-1.0903691906391262,-3.517376034888762,-3.2681014821481207
113,-5.525790408406379,-4.2265946008966,1.2788343195775573,-2.2860982079659142,0.37420647545728347,5.082885316664819,7.366208596087833,10.631827994000613,9.548578142666438,2.9397269843932174,-3.1060169354546527,-0.17214118610116083,-2.887710443797084,-3.4486581483980503
114,-5.31411848655356,-3.6294452858445014,1.102748015965807,-1.7795113264215172,0.7217390160376219,5.323375712783117,7.066381196860422,10.368657811086674,9.695009848776639,3.0132457704358155,-2.5861015711297437,0.6575709638797074,-2.108204176199956,-3.349323699122458
115,-4.583683299299238,-2.7196073926881,0.8370896708346817,-1.1167048890043125,1.0024704170191994,5.121883180024574,6.16564767446459,9.162775550365224,8.920754473467806,2.800799543826032,-1.8807518620906396,1.3773386225354014,-1.1933669291184683,-2.9406110101898286
116,-3.3842820704690144,-1.558081932073355,0.5052978817044994,-0.33327396964926387,1.2021817514304332,4.48450625039851,4.732632085663046,7.13935970888468,7.311271124447985,2.3512370051979365,-1.0098609605110356,1.978580764680437,-0.17031407342001512,-2.2264923074747998
117,-1.8213451602468442,-0.23569285834734952,0.13757237365177347,0.517820530250151,1.3129122334609045,3.4641542195502195,2.8947216653206493,4.51243784683979,5.045419729964486,1.7357938572804792,-0.015412501956439218,2.4587120062864467,0.9160459165908262,-1.2496425939912539
118,-0.04676582066701608,1.1339074812437329,-0.23224236298479772,1.3694208613893453,1.3332098366562994,2.156865370589897,0.8254977519991623,1.5583992757532286,2.3722687166663974,1.0363007566330849,1.0371452469753122,2.8148002863857986,2.0012269729318315,-0.09107256038694059
119,1.757157194875984,2.425080839908344,-0.5702611019825518,2.1461634173865805,1.2679085288167227,0.6919886996855058,-1.2743462246805268,-1.4179166461300368,-0.4205812961206755,0.33322867604838646,2.062386237566723,3.0395495897545657,3.004082816494061,1.1366878792060648
120,3.399039193579622,3.5138868259898186,-0.8462168948749477,2.772808527046725,1.1274834703677987,-0.7826248376662333,-3.200148144216824,-4.119768433520686,-3.042585924302823,-0.3044304090699948,2.963431354591964,3.1207003773862256,3.8346677025449885,2.302475635520808
121,4.702306835160529,4.292936524501585,-1.0367236964504516,3.183861258356631,0.9270514369341546,-2.1184253348261946,-4.767361377011069,-6.292729271803994,-5.234828506564445,-0.8260158566136488,3.6445090367470985,3.0439691304386853,4.406088219684409,3.2738057560510074
122,5.5282841894849595,4.68530347316684,-1.1277341329108757,3.333013680385628,0.685090968565306,-3.1844258784590713,-5.833265255705621,-7.752170988464924,-6.799033232222701,-1.2021449915604696,4.025504221581904,2.7986679821696048,4.648339725620109,3.935929891795027
123,5.794912909191847,4.655283257546025,-1.1158832977032018,3.2007714897691297,0.42196170325544236,-3.8832592589842627,-6.313304457522884,-8.400786115424738,-7.617504568971537,-1.4239485842476363,4.055786040513106,2.384391539320029,4.521454333059188,4.20939921674384
124,5.488015346645719,4.214101064812937,-1.00855195963474,2.798778306779482,0.15831078290856224,-4.1626726366875335,-6.189836165695526,-8.234472661228963,-7.6619387710930225,-1.4994785333010594,3.724501192292573,1.8168120677772615,4.025177286675261,4.062944515056863
125,4.663070130000795,3.4193573705618285,-0.822649656447163,2.169817004319325,-0.0865313751784462,-4.020795956884766,-5.512170862045145,-7.336575622852191,-6.9906925551471915,-1.4485732823548327,3.0650310430099763,1.1307708089423907,3.202889121749076,3.5191873479076814
126,3.43696764117801,2.3679730435053306,-0.5822875690702948,1.3831765254281636,-0.29604606896639457,-3.504481413561695,-4.388053240969772,-5.862011434070052,-5.735655541314058,-1.297518920649472,2.1523515977205023,0.3794570525262272,2.138520559608463,2.651927813453096
127,1.9708837236885897,1.183479697282423,-0.31565924321912103,0.5258941310889108,-0.45778004066643974,-2.70108181138923,-2.9679497332067735,-4.013995987884075,-4.081145896825072,-1.074577597098231,1.0933945393919384,-0.3706189377475357,0.9465574795183991,1.5752787326257878
