,AF3,F7,F3,FC5,T7,P7,O1,O2,P8,T8,FC6,F4,F8,AF4
0,-1.0643981645550522,-0.5365774513092229,0.0150385687256846,-0.7339130368385905,-0.10690029951052889,-0.42928288113703145,-0.7015355600326002,-1.3308698329190394,-1.3233554687847442,-1.3082194394721853,-1.1092531168560682,-1.2264866723447962,-0.5093238462186983,-1.1039357856072745
1,-1.8346874317026403,-2.002265960169345,-0.22678086341207382,-1.425836462277072,0.3855692379526978,-0.4261243193567808,2.865919967591132,2.3302413651756906,-0.0464035146017011,-0.7132504981112898,-0.6152246107486198,-0.18938224997305037,2.728951720720314,-1.3926389154480245
2,-2.4574747686953935,-3.259357119657501,-0.45269380750121113,-1.985189726033705,0.8924602696769447,-0.3566792714177691,6.1823422478487196,5.8061983500640775,1.2409186251037971,-0.04353430892890284,-0.03284664873592904,0.8715655341981526,5.86329889320359,-1.557004580457689
3,-2.852103083106417,-4.158172836578112,-0.6492762616972483,-2.332005599635583,1.4035445292643478,-0.21657593809259673,8.918750945504351,8.777698546842664,2.4325440490677686,0.6550356306337378,0.6029390745590271,1.8893594825867908,8.691229728349887,-1.5701272558502022
4,-2.9628487673881403,-4.593196630794673,-0.8057750893084599,-2.4131362867236477,1.8990883762632789,-0.01307362282924841,10.813133943495815,10.978564825564535,3.431685288993325,1.3324812245976254,1.249827145970167,2.7992277825641896,11.01994579339227,-1.4218300639249064
5,-2.766560535729871,-4.516355602163173,-0.9145645275495086,-2.209846811679534,2.34986093935557,0.2356186050423821,11.700426341513158,12.22321147288722,4.1592863706434455,1.9375262482547908,1.8599803756366495,3.54282769522035,12.679976968918718,-1.121089615726712
6,-2.2758355944210544,-3.9423627249412574,-0.9712742789493368,-1.7403361847173289,2.7194601964959926,0.502770323504284,11.529634082829284,12.424816977361642,4.56116166921619,2.421542294656368,2.3833134066976465,4.072510684243728,13.539448112226589,-0.6955317441954264
7,-1.5373626882334368,-2.945534998304749,-0.9746368181233627,-1.056897079201214,2.9686986212205735,0.7569269171815403,10.366124309145672,11.602210948889573,4.613081562053877,2.7433193462457095,2.772029257595936,4.355259836998046,13.517615163241105,-0.18804124424509253
8,-0.6258329234075276,-1.6487882820508257,-0.9261361404451612,-0.2382943028938822,3.0613794651889665,0.9664802848634771,8.379211356329261,9.874811526450538,4.323100525707914,2.8739281560789642,2.9858097969363997,4.375752518481068,12.595889055324601,0.34890906968373797
9,0.36552181023681635,-0.20663304907339328,-0.8295574336044655,0.6213184737319354,2.9704946395783542,1.1043036234394281,5.817208319643416,7.446380686584023,3.7306129492130196,2.800725601003534,2.9968001995153126,4.137968803673553,10.824447320591059,0.8601867797901849
10,1.3362698417173426,1.2152193245956684,-0.69053369311102,1.4251421616762678,2.6837453889913547,1.151741216604606,2.9737863144152583,4.579724022262937,2.901970298006797,2.5295908555533706,2.793480247590375,3.6648951562740426,8.322801802667263,1.2949781162168779
11,2.190359118086251,2.4606883602813654,-0.5161623046762983,2.086182484587182,2.207357952587812,1.1013538765819113,0.15054426976930094,1.5655694149881496,1.9229570168926735,2.0847677652016507,2.3826950919576575,2.9961535305212257,5.273338391941202,1.6126866937906386
12,2.846426538097962,3.4017670735347068,-0.31472756992496315,2.5376373402244417,1.5674288642749772,0.9580182918234978,-2.3790034479902795,-1.310443671518818,0.8889209684540915,1.5061571507872484,1.7894744670069123,2.183759870881653,1.9077742293831015,1.7869282481891546
13,3.2456820484847158,3.9522808306863384,-0.09552253168241502,2.739910046534245,0.8084395368793759,0.7382302189820088,-4.399289777519942,-3.7985582163515943,-0.10621473902088698,0.8444345858157141,1.0547045442387963,1.286588526742793,-1.5124740541343993,1.8072400147229808
14,3.3566915978894043,4.075490717598267,0.13127486473957536,2.683561416506024,-0.010949165793412513,0.467727450955128,-5.772831093131041,-5.709760925018654,-0.9805712318919914,0.15482855631437253,0.23111342113315195,0.3643887358697096,-4.720046538457844,1.6785896161081832
15,3.1768824241624305,3.785029096113193,0.3547411727727863,2.3881751721362807,-0.8242610577154358,0.1777896575070402,-6.448686986200131,-6.931902417304577,-1.6730658614610703,-0.5093400301676673,-0.6217136940625604,-0.527711508548054,-7.466849664478734,1.419145413336448
16,2.7310206665657866,3.1395927055899544,0.5634381876194652,1.89769298846311,-1.5648150485616403,-0.09924410398797338,-6.4591145364968945,-7.435556536501863,-2.149061525964038,-1.1022536574372843,-1.4425183104664927,-1.3433998348365257,-9.54774323777795,1.0569790145687725
17,2.067206325462812,2.2325995319913585,0.7457966671752017,1.2731955837451046,-2.173474632835108,-0.3345944560981849,-5.905997421391988,-7.269561177213139,-2.4021767506696796,-1.5894823575215808,-2.173118188217926,-2.0475603156498816,-10.819879889887423,0.6263873395993378
18,1.2510795728843855,1.1785485060413472,0.8906836960631462,0.5843279940366414,-2.605416458241844,-0.5071332878366991,-4.939955137509066,-6.5475812940285385,-2.452155445859086,-1.9497448228906578,-2.7623524716815457,-2.6167340663611394,-11.215443287834175,0.1643809107922207
19,0.35895745348326813,0.09806517403710231,0.988142883893621,-0.0994065222554965,-2.834960939600421,-0.6063491583693289,-3.7357883559678253,-5.428148678310375,-2.339336915387547,-2.1746236102809076,-3.1691381745456235,-3.037955399621656,-10.746409205172538,-0.2923400670816073
20,-0.5294361996369058,-0.8964227234947483,1.030252710211283,-0.7163982897963062,-2.8578128844329527,-0.6337278078660394,-2.468020104765534,-4.091300729602158,-2.1167827595262443,-2.266720048869878,-3.3647625878677143,-3.3065594023481824,-9.500977972427842,-0.7098275354926288
21,-1.3380737595814822,-1.7127140153160798,1.0120099682823314,-1.2188995506647748,-2.690453344908231,-0.6022909972349624,-1.2897981527784295,-2.7150877528278707,-1.8414074456419096,-2.236961030599857,-3.3346026576158017,-3.4236861577726474,-7.63232828465193,-1.0588122610624484
22,-2.0010674583498624,-2.2873467274483072,0.932118824933413,-1.5766982188435599,-2.3668410207741646,-0.5342833174047644,-0.31748412644587254,-1.4548719488932464,-1.5654815335627013,-2.101771987170789,-3.0793742983037022,-3.3941434599615774,-5.341178572957156,-1.3162383990021713
23,-2.4680191833804868,-2.5899061920874584,0.7935563813746538,-1.7783128148991167,-1.9329598418866996,-0.4572637097263412,0.377911125611097,-0.4276186843352328,-1.3296571262540233,-1.8806371955140653,-2.615819030536229,-3.225064270809668,-2.8542257272634886,-1.46648072073973
24,-2.707889237177438,-2.622990116529003,0.6037960985377347,-1.8298233378655742,-1.44003972345449,-0.39911607692822104,0.7724412190565441,0.2975428804662797,-1.158285040070189,-1.5942694482183084,-1.9765274084292852,-2.925484417339286,-0.40083738252466355,-1.5022096943151824
25,-2.7110667196191134,-2.418208723456557,0.37460164588121475,-1.7517062467664766,-0.9374490363318145,-0.38270662638986813,0.885022705317891,0.7021502983396596,-1.0573585518642665,-1.26332161473552,-1.2084882364124525,-2.5066701410926138,1.809573734059032,-1.424768024235618
26,-2.489446856878828,-2.029041895350848,0.12135246053329762,-1.5742413138034321,-0.4662940013143891,-0.4210469870374681,0.7688528683936231,0.8150883805200917,-1.0150284121920263,-0.9073931909966152,-0.37001958905911636,-1.982832074222838,3.607224428180991,-1.2438930256849752
27,-2.074504683122728,-1.521709663491395,-0.13807793538642674,-1.3321945591628883,-0.054656595331102314,-0.5138350710251165,0.5002060603725107,0.7041492909634692,-1.0043546257026614,-0.5440693914752454,0.47400072687131106,-1.3718182826353225,4.876748880983869,-0.976691610395842
28,-1.5135798793610606,-0.9654022060518295,-0.3848071712860522,-1.0595418252280226,0.2848348109371111,-0.6461128000702788,0.16627319615791653,0.463829442099457,-0.9878124941487038,-0.18787101716963142,1.2582861936784908,-0.6954761925064413,5.565646420511576,-0.6459300715728878
29,-0.864811162322989,-0.4232326579878892,-0.600652009842077,-0.7849687136623631,0.5547557723568107,-0.7894966362418733,-0.14659092564017673,0.20085073768876713,-0.9230280865761813,0.1507756265312297,1.9239258682339029,0.02044389404146485,5.685553274456458,-0.27788173700877866
30,-0.19132883861368455,0.054890370796336,-0.769874791289183,-0.5287576105522601,0.7700261456492743,-0.9060317230170838,-0.36322080236219106,0.01890334722729609,-0.7692257855349274,0.4662203868783663,2.424733096404191,0.7467821027363537,5.3062361268976055,0.0998898339880767
31,0.44461176070837194,0.43660778166159214,-0.8807618459733042,-0.30145762194457154,0.9529318196089038,-0.9542541206759497,-0.42793827618642055,0.004068787540440603,-0.49386752844651965,0.7574901511849981,2.731995810095319,1.4516768881013673,4.543014852372584,0.46040454316662166
32,0.9869171491493396,0.7082677064115455,-0.926832292356244,-0.10445097408481288,1.126879164597485,-0.8966014968861123,-0.3103782631420133,0.21233371946842522,-0.07891216115063583,1.0270552679095406,2.836660686789673,2.1012985611034485,3.5391339574178677,0.7784900255106959
33,1.3898818616861504,0.8730086863334204,-0.9075095954935029,0.06778454437813038,1.3099684370721878,-0.7069816215258953,-0.00856166225335307,0.6605353493971287,0.4739728228336773,1.2783755903543987,2.748453101426333,2.6605319865251174,2.445314317514403,1.0312693139651652
34,1.6211121631500383,0.9463809883037242,-0.8281482653844555,0.22421813666983553,1.5095373664226652,-0.37716916084262564,0.4509868868324375,1.3219345397871816,1.140009895672787,1.5125354529442567,2.4920854007024587,3.0937252712679855,1.3992093425870855,1.1981085057525804
35,1.6631672120975067,0.950517919894026,-0.6993871415245208,0.3733491844876273,1.718703432322778,0.0791992801109028,1.0161894396543374,2.127321601240256,1.870504623806692,1.724684328576211,2.1013840232025376,3.3658189916893706,0.5076479736999434,1.26048464991559
36,1.5141504041092235,0.9080899733290914,-0.5358888310616529,0.519681219939339,1.9156358804511464,0.6259260093046752,1.615379055076632,2.972068929013043,2.5952941161895047,1.9012850870652516,1.6126947673472127,3.4442798597173456,-0.16571082425246217,1.202381267150127
37,1.1875861711685431,0.8372657234053409,-0.35460958896690115,0.6613903186781654,2.0658580437111014,1.2072228745246456,2.165942883449478,3.728847804013731,3.2287993871736798,2.0192212127366473,1.0591510337096228,3.3022065415918154,-0.6053831090412545,1.0117718723326499
38,0.7118782134673312,0.7486573810471813,-0.1728121182366054,0.7897735750885057,2.1273807551379393,1.7541127390940026,2.5849299734092037,4.264881998178715,3.679530329767492,2.047568205828054,0.46722371375748284,2.9227218077285855,-0.8408732680590956,0.6834811592083595
39,0.12947360111382525,0.6447884096116507,-0.0060743114803002785,0.8907036629031313,2.057975703183065,2.193430018676273,2.8005005781447374,4.461745186214492,3.862261718795699,1.952307188697335,-0.1435790951972722,2.3043446072898313,-0.9357634773231917,0.22325637898232348
40,-0.5043947448500978,0.5220683299028586,0.13344712465876257,0.9478788262608748,1.8234927921516597,2.4581246752983312,2.762758056264991,4.235000985110313,3.711449920491276,1.703545489352424,-0.7578190823573125,1.4665398490735222,-0.9708958375164329,-0.3476608291938179
41,-1.1237641781327412,0.3747010428889661,0.23826955202595312,0.9472280985538132,1.4058755704078734,2.4973214226559572,2.452350570853142,3.550621466529821,3.193938418249723,1.2840704474438136,-1.3589052221476765,0.45420727156637597,-1.0245955696272384,-0.9886569992694071
42,-1.6553260718699363,0.1994983123695645,0.30618788532430224,0.8814986032748453,0.8094788069507869,2.284584920706607,1.885338991479089,2.4352467587223634,2.318750703551409,0.6974887142847762,-1.923166478072058,-0.6603616409732644,-1.1535680124135437,-1.6380359762523848
43,-2.0236355937683994,0.00031816037140016426,0.34014944845146455,0.7538986044053292,0.06446072618342703,1.8230886771940704,1.1132309272984782,0.9780239876931406,1.1418997385902274,-0.02603581546506791,-2.4152486280320127,-1.7794419135042778,-1.3781699879079286,-2.2148922869721654
44,-2.158385035762534,-0.20913471621819066,0.3474199976563444,0.5797551539998829,-0.7736012020428862,1.1468374055148742,0.21774720314660334,-0.6770619289833985,-0.23530489304222926,-0.8282324976759948,-2.786774151541545,-2.786669660840309,-1.6751380340123585,-2.625537467948145
45,-2.0035027624528445,-0.4051069876457581,0.33815860492307526,0.3854806165342745,-1.6281795633407314,0.31767664716116967,-0.6992783794870965,-2.3479437685659357,-1.6750447076222859,-1.6265054933111593,-2.9795941990905006,-3.5587892832606207,-1.9796096581128353,-2.774632614571178
46,-1.5272345583955143,-0.5566089954163806,0.32360242271660866,0.20468193098769308,-2.4100242834692884,-0.5815523154288172,-1.5296066011812441,-3.8383027416021473,-3.0183037093754064,-2.323200675387901,-2.933931033288403,-3.9814449453125156,-2.19658864134703,-2.580125464550789
47,-0.7317638960817382,-0.6309680176057882,0.31411967628643844,0.07189208152445044,-3.0281874348764197,-1.4567870984153013,-2.173932678662022,-4.965093582357631,-4.10493627233554,-2.8193677230017333,-2.6004663623250233,-3.96706152201923,-2.2201752664376087,-1.9900032244629655
48,0.33951123688969465,-0.601155279651028,0.31741231541457754,0.015021704621174,-3.402358685126512,-2.214101089401812,-2.556465899591157,-5.585513165304978,-4.795727654790775,-3.0309620820853493,-1.9542519243667407,-3.472025487773762,-1.9572502716559061,-0.9980001301151127
49,1.5990550251241535,-0.4533768774326706,0.33713407975395127,0.04807544402855842,-3.474701685118862,-2.771082102533782,-2.6363448147385777,-5.618994759638248,-4.993094273493857,-2.9046808270924633,-1.0074898076816603,-2.5099722574091614,-1.3511945330807726,0.345022426436684
50,2.9183389082219944,-0.19316531778192222,0.37213537753635273,0.16582680333993655,-3.2193338581902355,-3.066697867218352,-2.413910551524118,-5.060427052767913,-4.657032894834284,-2.430378720470552,0.18201533194991182,-1.158168771266502,-0.40089453529086116,1.927102404590853
51,4.138015735122097,0.15166960518007291,0.4164595569507693,0.3419230937156965,-2.6478497503080463,-3.068368157605302,-1.9306726688872595,-3.982134225633762,-3.813490821062634,-1.647366174536469,1.5094690924500123,0.4452002026841174,0.8291534035631757,3.5808008706433503
52,5.0849413618350185,0.532363717620993,0.4601084068413407,0.5313043540739196,-1.8098306024116433,-2.775400125073287,-1.2628649234036549,-2.524001406014202,-2.553432420621693,-0.64282916611767,2.830364631593687,2.1136577300336135,2.2104152373944457,5.099123385234743
53,5.594513937623253,0.8851103262926607,0.49048419658476516,0.6769632388391031,-0.7880348433990867,-2.218484466810866,-0.5096088939151533,-0.8731629734911821,-1.0223486712505203,0.4580193680363483,3.9764013340053252,3.6340728941152767,3.564301003545636,6.26058017354979
54,5.535509041908667,1.140904387159349,0.4943170714241054,0.7201205918730226,0.3111973058894413,-1.4555024733183888,0.22233536243782787,0.7634930716221385,0.5984632367231902,1.5089059741061146,4.778233478164423,4.794677176585557,4.686979613782051,6.860342865210323
55,4.833639057337141,1.237743033300695,0.45981326154926094,0.6120575018346721,1.3710169852554777,-0.5643690778493484,0.8346453314157727,2.1894727060196657,2.116126789744734,2.3640276401788185,5.091661099573027,5.415426114100316,5.381307585823438,6.742936107063091
56,3.4897079988173996,1.1329519796031728,0.3787210142775284,0.3253310113862994,2.2787413862781105,0.36603223048536926,1.2516271219262727,3.2464798742474725,3.3522465470714393,2.9006203932113834,4.8228615934181,5.375922624025999,5.490601421981879,5.831093279512918
57,1.5886250591938338,0.8131849971721061,0.24801360491700672,-0.13795497512692698,2.9399953073902396,1.2456153625646393,1.4301951421103287,3.8353319026244717,4.166803775378937,3.0387017650945216,3.9480550287750016,4.6362085103447725,4.928345522252365,4.145532444795631
58,-0.7033038572008166,0.2999306792468133,0.0709343900106011,-0.7427133896959393,3.2902786572983507,1.992380136050375,1.3641310313009234,3.926722908644836,4.476246331000223,2.7545044206637774,2.5236813050581897,3.246687806464685,3.698356650075353,1.8115217371714654
59,-3.153615651841416,-0.35087983194407973,-0.14276633515879458,-1.423303595986875,3.302343981497544,2.540226543967406,1.0821946901171327,3.5604357498446286,4.26310364433493,2.085156878424059,0.6846432076062954,1.3451212938479629,1.901373886960342,-0.949939808019064
60,-5.490174636695196,-1.0554820044870843,-0.37746103215075166,-2.091747172873459,2.988445176900129,2.8445844204083683,0.6407896455146239,2.833687144185974,3.575866674903166,1.1236745373868402,-1.3698261624645798,-0.8592667247631852,-0.2737325641636594,-3.846014799264001
61,-7.435580383383187,-1.7142224780555957,-0.6130790533051472,-2.6505124730073524,2.3973233155666436,2.885482067793013,0.11283753968133202,1.8811913571447965,2.5194656947231855,0.0050182519518478155,-3.4009531823001384,-3.112381141863207,-2.573331524221442,-6.548104517218477
62,-8.744597296053657,-2.2268958424155536,-0.8271736896452688,-3.007724713443194,1.6065831601170268,2.668003119448018,-0.42489240366345715,0.8508826358026323,1.2381722318551076,-1.1144627251769677,-5.1622474153294915,-5.1485655125746055,-4.713653332458222,-8.735028004000645
63,-9.238908070517297,-2.508831040388412,-0.9973682782162239,-3.0921421203480923,0.7117521811523158,2.220355494035301,-0.9036287849957046,-0.1201993119647071,-0.10611343140340242,-2.0807549778515964,-6.433449163263699,-6.7255396026802625,-6.421353479102084,-10.136832467024888
64,-8.83366326191753,-2.504894143053313,-1.1038822759392832,-2.865240605161986,-0.1862904047029277,1.5899763578670272,-1.271593360478467,-0.9256589474720713,-1.3566332877609246,-2.7651226069478936,-7.051261632414671,-7.655659991710411,-7.473614435307243,-10.57245694706049
65,-7.551435241726833,-2.198927591754038,-1.131833670185026,-2.3282655298400377,-0.9937152459549337,0.8382178761482587,-1.4988389910476811,-1.5019970990177245,-2.382066560172335,-3.082520672853053,-6.932029520119822,-7.82889776003979,-7.731371550143635,-9.97531996165772
66,-5.521106985900147,-1.6169675571959408,-1.0730482630252636,-1.5230301103131672,-1.6343385331944102,0.034208168144103004,-1.5775442229333168,-1.8318280149159325,-3.0914175646679567,-3.0025890688472496,-6.0828590548030395,-7.22439501502073,-7.1603157590367426,-8.40277118371721
67,-2.961610287395592,-0.8237069913594314,-0.9271725913958361,-0.5263799730904429,-2.0571618207224756,-0.7515252187939653,-1.5183056561546397,-1.9383172359145333,-3.441623643974352,-2.5516733906984417,-4.599595152879394,-5.909414638985623,-5.836286006175067,-6.027919287398279
68,-0.15286206672373698,0.08711711613595748,-0.7019748618911654,0.5606224979303925,-2.240137069922213,-1.4531288678708305,-1.3437176477112793,-1.8727406584802595,-3.437324785540672,-1.8058919970159362,-2.652231423642343,-4.026569615828596,-3.9341821779740562,-3.11517773945321
69,2.601694730174674,1.0066725185630143,-0.41281393435175684,1.6268330146204817,-2.190018532140009,-2.014725460341687,-1.080960707298936,-1.69825545670686,-3.1235721104379084,-0.8767892560111262,-0.4603410710428456,-1.7720312844809574,-1.7021745624753086,0.016536892631933378
70,5.015217489972861,1.8268679893635684,-0.08134685296946505,2.5660107159593273,-1.9387001108967192,-2.3945649658029704,-0.7551671738801643,-1.4735043326851514,-2.5733788458123446,0.10768495778151708,1.7373696367913003,0.631346570489219,0.5746893490014305,3.0371146053076634
71,6.854170382938622,2.455399373357983,0.2663795877969378,3.29016541436174,-1.5368565315728875,-2.567753445131449,-0.3850078699576325,-1.2394750099867975,-1.8727480879980085,1.023452301357503,3.714517229372715,2.9615808377229573,2.6157588165651124,5.6483342031512045
72,7.966181397411992,2.827603880061721,0.6022546398007584,3.739231023446559,-1.045965108011683,-2.5274151090206143,0.01866670302228544,-1.0121773468477033,-1.1060330170261459,1.7683726956113393,5.284723762433614,5.021715143262165,4.18454881572444,7.6202298805593145
73,8.295168195774997,2.913425504027516,0.8986197762426449,3.885841545458542,-0.5298692660623061,-2.2842851650817284,0.4510525283144937,-0.7823722930078584,-0.3441760545110526,2.275203838534205,6.321629911146582,6.6575204042762595,5.1209966735518915,8.815572080965893
74,7.882003503390097,2.7187663051961666,1.1307437638899855,3.734972835443427,-0.046968882388291146,-1.8648742859306213,0.909145326870524,-0.5220625068616931,0.3623888280853417,2.5176244996486665,6.7688335836720235,7.7671360648402095,5.36152599359477,9.199421573215862
75,6.85135509150368,2.281528471782806,1.279039918570766,3.319160837298822,0.356080596557458,-1.3084721948239497,1.3862481371879414,-0.19603593189413648,0.9854389212910626,2.5088426812224833,6.639148689410587,8.302625080564795,4.944260234650765,8.833257325290749
76,5.387489378691738,1.6635308755449243,1.3308366680872428,2.6907204528224042,0.648563353987598,-0.6633493024250264,1.86674693369144,0.22428323579402124,1.5156657068349964,2.29367525219788,6.004346325648888,8.264795364270904,3.999085528532423,7.855674831358673
77,3.7034089018381042,0.9400512466646166,1.2815492898851466,1.9127402878122042,0.8175156059242804,0.017443434140922098,2.322626700861307,0.7478817130373394,1.9557504549322542,1.9361074948046346,4.977966157398101,7.693572591609607,2.7245580109124914,6.453675549889831
78,2.0084706091753324,0.18892627630828748,1.1351456850548214,1.0505834453958656,0.8671904979147965,0.6802919145355536,2.712854221110806,1.3551152977207956,2.31183000398566,1.5050225912393245,3.694649563708931,6.656563888657111,1.3555311545446806,4.829805888894962
79,0.47953132249537284,-0.5190478369423033,0.9038531407341408,0.165240439964501,0.8164821311661687,1.2749359386606889,2.986184014101338,1.9948005350231421,2.585574442326772,1.0609325460855923,2.2896514206894265,5.238232878909866,0.1265864886205894,3.1707010648167766
80,-0.7602339675049548,-1.1271490082385978,0.6071154144083467,-0.6907237340647971,0.6948209188241238,1.7578675139815176,3.087266416705942,2.588441110109886,2.768843257252704,0.6461492433287338,0.8817593611340553,3.531432585903058,-0.7632487992927162,1.6219589611095113
81,-1.652195157057006,-1.5965719621418553,0.2698763545738883,-1.4745623740164515,0.5371769926085759,2.0950957894353865,2.965275815033421,3.0411775981239266,2.8422389749484016,0.2800096721691846,-0.43808412852956025,1.632110356606043,-1.179431251450517,0.2728760533176609
82,-2.2019777361557504,-1.9071153008880064,-0.07966814653298993,-2.1526119132106416,0.3788472033754039,2.264243797823598,2.5837429063345216,3.2577091106448646,2.777973736844319,-0.04031117505337495,-1.6113957005816477,-0.362962125722132,-1.0705358961702731,-0.8472992392421417
83,-2.4689931731996153,-2.0552921373195128,-0.41265016459583265,-2.698357426627237,0.25066037192734136,2.2559777153540406,1.9299499385139667,3.160408124295048,2.5464847314371637,-0.3339896554686426,-2.6102316252966915,-2.356358014005177,-0.4742776916374342,-1.7619588671891078
84,-2.5482725044910834,-2.0507758443325947,-0.7021982302139423,-3.090352994965293,0.1751289575931328,2.074753867727349,1.0221784750731928,2.7063138141860237,2.125370751191879,-0.6272935591164817,-3.4300826447158363,-4.249433289582407,0.4895420690853158,-2.5307568395545474
85,-2.5480963581663123,-1.9121843613031317,-0.9259274031162943,-3.3109088251193133,0.1639217335580412,1.7388126190385693,-0.08670595193936881,1.8997371581629674,1.508644926785554,-0.9430464985712378,-4.079701754758513,-5.942460414171021,1.6378057419079592,-3.22779005076818
86,-2.567317249924076,-1.66308942901072,-1.0679865568866072,-3.3461118058264163,0.21685186192106126,1.279280877339985,-1.3104129031205465,0.7978398485204662,0.7141271507341246,-1.2911757351669084,-4.5703136479084145,-7.336587826743032,2.751662488439752,-3.918563520872709
87,-2.676059458996246,-1.3288771865379707,-1.1204314328263019,-3.1872973405535805,0.3223895686804426,0.7382097557710636,-2.535584374040483,-0.49233836550189236,-0.21292242200709352,-1.6624229649219622,-4.906529680085036,-8.33820604926323,3.6089372849401697,-4.639948024483422
88,-2.9027360025607223,-0.934760304996738,-1.0837579047193704,-2.833643880504129,0.4595399962788068,0.16541325807903268,-3.6330580235167274,-1.825510723075544,-1.2011451326558091,-2.026615720528422,-5.080770402132229,-8.865636120686874,4.016867605315376,-5.386656452225449
89,-3.2291849718790577,-0.5049215632694248,-0.9665260602044577,-2.295211473429133,0.6007930908245425,-0.3858909611718033,-4.472965709149558,-3.0370482260883898,-2.1596601014380354,-2.335953477891938,-5.0721988889715695,-8.857419581638167,3.840761616560016,-6.106563432071285
90,-3.5943869324428146,-0.06251383396190101,-0.784121050624713,-1.5955603179599127,0.7157647427022319,-0.8644179065679689,-4.9418930082344,-3.966460802973683,-2.989091857241278,-2.5327467285898675,-4.850251924672426,-8.281006398923818,3.0248162345432266,-6.705681751407945
91,-3.9058855774979975,0.3699080231588064,-0.556812353018909,-0.7730971475365039,0.7751093356708839,-1.226645236898762,-4.959806953088792,-4.481851983079833,-3.5953468592143545,-2.56015860847771,-4.3819885923963495,-7.140392037931761,1.6024187703792714,-7.062028755463828
92,-4.056885931198092,0.7699763360171016,-0.30736769858752283,0.11950285722441764,0.7542890852770345,-1.4424102534354404,-4.494225476578722,-4.501410764703337,-3.903823790634115,-2.373905281264248,-3.6417964336970665,-5.481277388735772,-0.30536707791827383,-7.046197450639737
93,-3.9462002539007304,1.1154932815149536,-0.05853391893642821,1.018109764213264,0.6368271413764257,-1.4993913558110972,-3.5692240259718195,-4.008314984249736,-3.871559145319834,-1.9526767161532401,-2.621595519758778,-3.3925926196966714,-2.5029297606250935,-6.545383823667479
94,-3.4978474363444665,1.3850253513559345,0.1692949975360714,1.852088989654953,0.41674010329937927,-1.4055828052782213,-2.2673807805962825,-3.0563410881196176,-3.495095222106376,-1.3052665850450507,-1.3395972913992744,-1.003675767974936,-4.74320159555923,-5.487049465093149
95,-2.677216913151305,1.559147266475835,0.3599425290695675,2.5508908402981625,0.0999317573930042,-1.1890466538699878,-0.7236248976130573,-1.7648703139866329,-2.8125612695933393,-0.47299213634921555,0.1541050806462076,1.5230546404531118,-6.757826707286394,-3.8583835741849013
96,-1.5012476656289735,1.6222088233926635,0.5026473540865317,3.0514722902778737,-0.29557629894465703,-0.8945849944530828,0.8889187031705933,-0.30363492625493677,-1.8994480841897596,0.4731792774521029,1.7763666313505206,4.003532449840668,-8.290636394179538,-1.7182637293092684
97,-0.040958918427832836,1.5643778842527414,0.5925008076159525,3.3055730743047493,-0.7406095109064126,-0.5774772448300187,2.3797496120970445,1.1308013912166874,-0.8586451308519044,1.4404612026708834,3.4148485441755128,6.2466801754239185,-9.130234411478657,0.8005773512141066
98,1.5842214943729966,1.3836446412417207,0.6301434231099589,3.2858557671597324,-1.1969497008811512,-0.2949890630697708,3.5659674541650386,2.3434520002173267,0.19370508678864576,2.32586457540358,4.936788259422172,8.07095285141822,-9.137569972148698,3.5001262803862025
99,3.219697117139431,1.0874513382885616,0.6208403486946085,2.9900523329045354,-1.6204633931486712,-0.0968723730207685,4.297995826945986,3.1699379023437784,1.144274545029882,3.029814109124633,6.201855798339545,9.321229968726579,-8.264956237447663,6.135840544382443
100,4.694766115849006,0.6936285942887143,0.5731294145616237,2.4425039086441114,-1.9650517316077925,-0.016422938546577726,4.482208696892486,3.501631656939416,1.8979706950597615,3.469678544773099,7.07765514818899,9.884369935685989,-6.564025718633991,8.443527500871491
101,5.844880706504002,0.23036646096302324,0.4972755106637919,1.6927941747996458,-2.187148308524932,-0.06374429661838071,4.0967637475173015,3.302872788544587,2.390279425782767,3.5911729823854657,7.455978256167156,9.701758419144337,-4.181493743326565,10.171039486010455
102,6.533951702243013,-0.26497894354956303,0.4037684868663691,0.8115170422456365,-2.2504111040968096,-0.22263257674018455,3.1977286848956084,2.6173431039506827,2.5946484306437867,3.3759552664342984,7.267690967705165,8.777351936700182,-1.343161716861842,11.110620339489234
103,6.673465589959623,-0.7483418114026205,0.3020713711300051,-0.11645151855649302,-2.1301825003342194,-0.4519601769088447,1.9139250683970879,1.562328417062386,2.523889100684459,2.8443488480193113,6.4941687410514195,7.1800504501433595,1.6718733285055885,11.127438017051912
104,6.2355691927122905,-1.1726284835609166,0.19976800685411425,-1.0005204248123858,-1.8172454066168764,-0.691679296922371,0.43062300097412043,0.3114901764236038,2.2255875250537778,2.0528746497346244,5.173520232067014,5.039725789688258,4.563542100525374,10.180166281954714
105,5.258097608370231,-1.4924125673775208,0.10218379660919448,-1.7539093258370426,-1.320401021878426,-0.8727217671545059,-1.0359712112612727,-0.9313787116237319,1.7724999847499676,1.0870402121108953,3.4004159636515707,2.5368645069647906,7.045531199914645,8.330423859113726
106,3.8406741926046517,-1.669231636774055,0.01247063592528636,-2.3031119214205864,-0.6674461210220861,-0.9292975858420035,-2.2698911885747592,-1.9636442480375635,1.2496954231945516,0.05049612953049841,1.3191158209029687,-0.1134952601896152,8.877977890702445,5.739334207819329
107,2.1323356936395186,-1.6768810241432694,-0.06793123729369752,-2.596227735368804,0.09575958178005563,-0.8115452926413953,-3.087604740806669,-2.6153156976066514,0.7406665013757462,-0.9478660398356765,-0.889830021937729,-2.6821215682845634,9.893995011730619,2.651239619677513
108,0.3124273711169796,-1.5059563313579036,-0.13860298443528563,-2.609148804279903,0.9082741413111775,-0.4962830938324785,-3.366197271528762,-2.7757599547744056,0.31469357338679543,-1.807086275042228,-3.02785978690579,-4.948187030065382,10.016769420132745,-0.6335628171315658
109,-1.4324413936738551,-1.166846358471593,-0.19940880209365988,-2.3487535060373363,1.699020986547675,0.006188810437488012,-3.0629569069884037,-2.4113727035804455,0.01741845615778499,-2.44583669845135,-4.899567910762382,-6.721607138776311,9.265311943415186,-3.7935753246961545
110,-2.93197555363722,-0.6904617093790922,-0.24988489907698075,-1.8525413933872468,2.393374489526157,0.6506917320463672,-2.2230062502281935,-1.5713271229832053,-0.13405411647736945,-2.811186575894856,-6.33417332319384,-7.862465323407222,7.748524878111225,-6.5237115100499175
111,-4.052836916612193,-0.12622188965857978,-0.2888910846564866,-1.1845361679462307,2.9208059977999348,1.3617430590719544,-0.973471726301773,-0.3804014415539487,-0.15102982527066178,-2.883425893096801,-7.2045434707698,-8.29508039852673,5.648845398207625,-8.570671617086496
112,-4.713390491312712,0.4627970307375942,-0.3145941560441311,-0.4277603580710319,3.2227982886790896,2.04363013736321,0.49515521049632794,0.9800481294835092,-0.06842750589615716,-2.6765097086409324,-7.4412692938346074,-8.014855942308767,3.198068984922647,-9.761302996253628
113,-4.890592878215539,1.0071805465463164,-0.32477451591378353,0.3259147640294426,3.2600948952597966,2.5945181346673865,1.9576973437279581,2.299991301608442,0.06359073576507694,-2.234287793551815,-7.039911082938853,-7.086953166675041,0.64885531900076,-10.020224208768164
114,-4.618367538991463,1.4401030882013461,-0.31737414737787994,0.9872997453269798,3.0183186857162383,2.9223631302849475,3.188551967093771,3.3730888193929642,0.18994288390263778,-1.6232420825593754,-6.0604606124714016,-5.636923523503821,-1.7542414992473843,-9.374612199549224
115,-3.9781905862523117,1.7066144499231048,-0.29115101026108825,1.4812601718571654,2.5110965975758908,2.960016143468201,3.9961085136138608,4.028385302297018,0.26105938096495424,-0.9228909560928602,-4.619146186343098,-3.8345508714122527,-3.8006037938121033,-7.945963673816355
116,-3.083819123830534,1.771829084542679,-0.24628369375393463,1.7563202250371197,1.780070427325262,2.6769742214602488,4.251843371211585,4.156325996445078,0.24167407242671196,-0.21527149585673738,-2.8737675326440657,-1.8730984422437946,-5.333336939781499,-5.930525228971004
117,-2.062927551986912,1.6266101827613433,-0.1847835269378693,1.791064899587705,0.8915383839245863,2.085753220796986,3.9094797528605074,3.7250496050262307,0.11660463552412867,0.4250526440545284,-1.0046159920719555,0.053227454998189226,-6.261149118265993,-3.5716367586016244
118,-1.0387423742741047,1.2896562838565804,-0.1106125077814729,1.5963345158394697,-0.07008462877284534,1.2417317321641628,3.0112430337192913,2.7845233483738046,-0.10725921831271626,0.9391815972476386,0.8064196990007528,1.7706000181657222,-6.561657048180665,-1.128211410884935
119,-0.11454084241637297,0.8054410475690613,-0.02946269031926536,1.2128196481904727,-1.0113405531264403,0.23639018308666623,1.6803717957212083,1.4580773315759206,-0.40286089571153105,1.2893311525585827,2.3958141782461038,3.1429599748021153,-6.2766140958167,1.1561484157176858
120,0.6368389672095548,0.23814189602490612,0.05178516970254504,0.7043768217733586,-1.840283883293739,-0.8150458107768617,0.1012915983906109,-0.077077188590501,-0.7282252487923768,1.4610562456734302,3.634944034353183,4.083437048467533,-5.500523332786088,3.0793326781190493
121,1.17738664162578,-0.3375978297218841,0.12584815400912946,0.1480787147054803,-2.4771884553397623,-1.7896390940141362,-1.509164062905444,-1.6170374088476314,-1.0339873067116834,1.462240392984411,4.441326821331911,4.558753155054414,-4.364747284259668,4.49916403404538
122,1.5022940540454346,-0.847632593067891,0.18595225812906718,-0.3774386994733739,-2.8639749812972504,-2.573948786631156,-2.9347254236082283,-2.961659637269381,-1.2718395557059758,1.3192972609472806,4.783535976810617,4.586652545850457,-3.0195057093772695,5.342467165269671
123,1.6334644141066248,-1.2292084295493753,0.22672221091377273,-0.8034747301928012,-2.971040043128781,-3.07974239987817,-3.991536364387573,-3.943443037020059,-1.402478534581081,1.0713891286783426,4.679713225970064,4.227423543423311,-1.6160790140803296,5.604661331035472
124,1.610048144334939,-1.4399613268211244,0.244903983410487,-1.0807743182914693,-2.800486412174414,-3.255812506253916,-4.553908340096391,-4.450432582357116,-1.4018014468700193,0.7636850838738551,4.1904821300440185,3.5713447335435644,-0.29117714747739054,5.3411433306223115
125,1.4782015693586261,-1.46350943527474,0.2397996261463473,-1.1855628779955,-2.3852450072644,-3.0941535079744713,-4.57015709520124,-4.439840706811575,-1.2644555877342385,0.44073023026410885,3.407746762208257,2.724286775300277,0.845106521052808,4.652734622695641
126,1.282099121238934,-1.3107341736220048,0.21334175111250167,-1.1212335909048572,-1.7841723074942486,-2.629680979557616,-4.066448421948854,-3.9406918982711767,-1.0043116653879958,0.14087175935769575,2.4412442761000337,1.7936877859467204,1.716949473256427,3.667977751843132
127,1.0576665842620163,-1.0166278779468316,0.1697955773664866,-0.9155912722330988,-1.0738125639377194,-1.9337186343770296,-3.1386066439872673,-3.04560986853852,-0.6519389347061791,-0.10758429187180496,1.404777046928272,0.876736789555637,2.285845814426008,2.525059575630895
