,AF3,F7,F3,FC5,T7,P7,O1,O2,P8,T8,FC6,F4,F8,AF4
0,-1.3645423110674426,-1.0905800183587944,0.013574807451011115,-0.9376487599112975,-0.23736465526642866,-0.06997897986365287,-0.13958882155246805,-0.5835075300119144,-0.5968099094779469,-0.8323195340212772,-0.8112135841887512,-0.2858665268935976,-0.3240681184221768,-0.644833198214318
1,-0.43840722723268283,0.4083842722609104,0.568571577547138,-0.03680641312847073,-0.2213389023323535,-1.9144170527437692,-1.0595547200223976,0.200332110286528,0.195648008389186,0.3835570398719935,0.5140990179067473,0.18282499732459745,0.9327336192782999,-0.4430621773186486
2,0.40670696642763876,1.7893089834036136,1.0539901015812938,0.8265844654442317,-0.1879988789385076,-3.582891177725045,-1.8888154980720133,0.9943857416451471,0.9502951977360381,1.4822867560382458,1.727814314059226,0.6804308774202794,2.0299209382651155,-0.2509953201306764
3,1.0687613238623994,2.916502357606361,1.4171197736364964,1.5847355966433898,-0.1292181029217496,-4.922910695927004,-2.557899572713882,1.7155206858989454,1.5458961859611127,2.297381999297301,2.6967531875300876,1.223557909252235,2.8140349049152498,-0.09265191015435666
4,1.477868598718767,3.6887851104892535,1.620971380428841,2.182761986261625,-0.04171706938227401,-5.817388440169131,-3.01492385127559,2.2877728973035754,1.8864557076644477,2.707771215040698,3.3212678263506197,1.8164313221264201,3.17860272981792,0.01924247447067338
5,1.6044211491383495,4.0499547257756365,1.6485327866038615,2.583079658669375,0.07186139855003691,-6.196229276796012,-3.2305980442867828,2.650986508314851,1.9151535025703401,2.654715994959537,3.5463109088023774,2.4457117192669084,3.078782121976685,0.08479786866464066
6,1.4610611804511178,3.9931981823163833,1.5043538744896385,2.7677463307836434,0.2027893268920224,-6.042406897953394,-3.2003566977932922,2.7674000422915865,1.6222255448004523,2.149314922999576,3.366359865876177,3.077850130722044,2.536823630073576,0.11576202830437844
7,1.098470674995208,3.559136710980826,1.2132922456017747,2.738663388010555,0.33708617720622663,-5.391959089601215,-2.943443767667861,2.6254843873803684,1.0458081816491884,1.269721396035055,2.8238322895521737,3.659764714647428,1.6377219359112756,0.13191542646300922
8,0.5959090587734707,2.828078708434621,0.816642534620175,2.515827586945548,0.45730404930491114,-4.328084806616705,-2.499202625436805,2.2407197489479342,0.2658451946975101,0.14874767103625672,2.0015632833633505,4.123235082582488,0.5159165044248146,0.15588456875501652
9,0.04817416805383927,1.9078122820611898,0.36622851725512506,2.134025133762424,0.5450815746418538,-2.9702319597312976,-1.9211982251461632,1.6533823026595356,-0.607829048707013,-1.0460903441569174,1.0106918445407809,4.392864305879038,-0.6647978490611107,0.2074967483181152
10,-0.448902850437339,0.9187838677209094,-0.08269087866288202,1.6384766081870799,0.5841421622340133,-1.459636853627697,-1.2700641485682673,0.9237453630097603,-1.4513259714748223,-2.13701392941559,-0.024183248592419826,4.396829477603775,-1.7350703619762735,0.2988496092818567
11,-0.8122373733574363,-0.02126830297247218,-0.47870126139791885,1.0799721956411892,0.5633000744188209,0.05685067420386833,-0.6060890010081549,0.12535408282389812,-2.144085237247994,-2.961304569000191,-0.980510776809421,4.0790477882432175,-2.543997928619456,0.4310804427496231
12,-0.9826080663993512,-0.811230649565168,-0.7806926121872659,0.5100020843605709,0.47898462639886646,1.4426877690628919,0.017477222527446285,-0.6628070501524586,-2.5853249956340605,-3.3939101911112175,-1.7519800076321461,3.410953825383151,-2.9799255224308197,0.5934503779809319
13,-0.931694601325939,-1.3774193371334356,-0.9626328955298117,-0.02369237176359675,0.33681902351517135,2.5854489044132736,0.5595873879675999,-1.3643749447733682,-2.7073322246843636,-3.364248569059907,-2.259761593423448,2.400916596303046,-2.9852151323925584,0.7648913344295126
14,-0.6643145942957078,-1.6801430428023854,-1.0160507316539116,-0.48082789239426893,0.15189796122636123,3.4070077371990073,0.9944897581565452,-1.9130614389759713,-2.483919646365984,-2.865055545689663,-2.459681649736952,1.0994757254566412,-2.5631108735921715,0.9176882137712806
15,-0.2158916581431443,-1.7155343881310385,-0.9499665105662929,-0.8313488911124669,-0.05241802883665842,3.8690846440275393,1.312519193192891,-2.258803915456993,-1.933141286818488,-1.9523351683565424,-2.3448360258780547,-0.4009550666220843,-1.776009762708309,1.0225676761035956
16,0.3541174130240727,-1.5128187121887056,-0.7883859856198427,-1.057171082361646,-0.2471586038042212,3.9737724023949696,1.5186699181374579,-2.372127133054544,-1.11420916335106,-0.736764013611188,-1.9437767840765896,-1.972534734813308,-0.7356752741588525,1.054207032577269
17,0.9715740459603519,-1.127767611847142,-0.5658192781377461,-1.152902482096605,-0.4015891287538411,3.759295664052298,1.629309997121099,-2.2464655807973783,-0.11934793531069977,0.6319198895031943,-1.3149364026925028,-3.4643044893538786,0.412978154037243,0.9961107623676041
18,1.5582277270804268,-0.6335069135608825,-0.32155915493760473,-1.1255981025105648,-0.487771926759199,3.2918445959479095,1.6676153641625016,-1.8984074215307105,0.9380603217783687,1.985125567208818,-0.5383249494510332,-4.719127250159578,1.512099156400507,0.8439426000167816
19,2.041913242824031,-0.11006843261623978,-0.09360677163835249,-0.9936221180581475,-0.4852024392724186,2.6547756471273902,1.658443740608588,-1.3659767421595952,1.937329246711295,3.1573111149121105,0.2942898938370688,-5.593191679477569,2.412261884875862,0.6067173661098787
20,2.36500129410089,0.36591559765813647,0.0868479555540881,-0.7846906692746783,-0.38479206150485634,1.936739540878833,1.623426070361082,-0.7051639373092559,2.764522462335068,4.0066271905262525,1.0895176276430558,-5.9754490040684045,2.992114730502688,0.3056762425512161
21,2.4901313894537678,0.7301497284010651,0.19959891303577404,-0.5331744087606349,-0.19149217324796627,1.2203498562037232,1.577018328033043,0.015038421404956728,3.3250732194981154,4.431707226495816,1.761738847099996,-5.804167102659811,3.173813207804684,-0.02890054410353668
22,2.4027582440541027,0.9373229336938163,0.23768551805788138,-0.2767730864450566,0.07499778408413128,0.5728419175380455,1.5241251515723975,0.7188035949598768,3.553678260954576,4.382686375971337,2.2409360160172853,-5.078037113776314,2.9323892770841247,-0.36233364679342994
23,2.1105554969879163,0.9649212354963971,0.20748688104113958,-0.052742787032137264,0.3817319703184122,0.03981529438235187,1.4596808150933536,1.3304992133203235,3.4206233955266234,3.8654072888417277,2.4784128612030254,-3.8599285289161545,2.298056863145108,-0.6608037939751885
24,1.6401679194139211,0.8140520135517811,0.12672961381571743,0.1060505823109499,0.6861838788018809,-0.35734346121148663,1.3702702405076108,1.7821402134088489,2.9341702869258874,2.938712362296532,2.450132703988443,-2.272365182901209,1.351383270514544,-0.8963317836280444
25,1.0321300654896874,0.507491325545668,0.02080710496895043,0.1748877475736203,0.9416738723500864,-0.6203225855559762,1.2375331468076647,2.0207013619666356,2.139063389193809,1.7056002704378461,2.1576613487716045,-0.48494121511870114,0.21215756728483803,-1.050668262312893
26,0.3349406510361667,0.08546707563212161,-0.0819452479529604,0.1403444805440531,1.1038471617955579,-0.7695362521220309,1.0427771646881787,2.014588935188088,1.1115601860265611,0.29972893310869947,1.6269106346571465,1.3049589054712094,-0.9764456073636332,-1.1174923896857925
27,-0.40071615942770744,-0.400100156687818,-0.15523493388502593,0.0024194437929016812,1.1372854768342595,-0.8375076709072435,0.7719941543028976,1.7584741771962835,-0.04837148135205519,-1.1308032282364275,0.9050294100531282,2.8957980507378887,-2.06626611149735,-1.1026084047779456
28,-1.1267704317436371,-0.8920802021202733,-0.17926096401339287,-0.2247006306591202,1.0212706273725736,-0.8611990541166168,0.42037689475939055,1.2756851694127336,-1.226903096976796,-2.440310399960922,0.05587224263155432,4.106879104179361,-2.9227287638367536,-1.0221545356025126
29,-1.8010438429164906,-1.3345428488224216,-0.14394291284032473,-0.513455808536067,0.7538041991153942,-0.8745757562287854,-0.004509028408971374,0.6174854420859899,-2.3073866769950895,-3.5010479100028236,-0.8455056415810844,4.80142454294398,-3.441253533426944,-0.8991582603750023
30,-2.388827414554858,-1.678422396416927,-0.05046360118081632,-0.8253643852472259,0.35320989441190864,-0.9025636229515482,-0.4815428371195867,-0.14113807613630358,-3.181698920875008,-4.215812183344763,-1.7189130413307996,4.9046417726385245,-3.5595351499987764,-0.7590443385040662
31,-2.8629536802142375,-1.8859645523029724,0.08905952310586797,-1.1149872038872348,-0.14303110640735203,-0.9572614667027513,-0.9771928388750286,-0.9091102875618209,-3.7609755379684797,-4.526502390282064,-2.485294398311341,4.414252549555386,-3.2643186884481543,-0.6248842959477418
32,-3.202855547848255,-1.9337065263415794,0.25365992677037186,-1.335093565635871,-0.6821819676748733,-1.0368602745633473,-1.4489568642343287,-1.5897193233617177,-3.9848052111686942,-4.418076872361341,-3.0729107310132906,3.4018907168770833,-2.5920374195091545,-0.5132301663895762
33,-3.393265273799557,-1.81394044148322,0.41698181830025705,-1.4425349305136368,-1.2024743939452271,-1.127264413005924,-1.8506912201560919,-2.0927385198254207,-3.827968742387626,-3.917857016872878,-3.4231520422509902,2.0049371318375337,-1.623454693797392,-0.43128164258162227
34,-3.4232015405110037,-1.5347529544343643,0.5515347138410482,-1.4041765212762312,-1.640898178444813,-1.2059755844206248,-2.1390863213479205,-2.3466513289790916,-3.3039043027274717,-3.0905832421856987,-3.495677766414016,0.409620646370606,-0.47316214453958394,-0.37590370477356727
35,-3.2857287541458953,-1.1188109520330882,0.6330634301805067,-1.2021369776418542,-1.94154266727623,-1.2474488236533814,-2.2803075312757364,-2.3092096499505197,-2.464293697971774,-2.029989134455732,-3.2725247442092353,-1.1725947976589315,0.7246491769145545,-0.3346791880478313
36,-2.9786900026996226,-0.6010836223948016,0.6443614506295746,-0.8375718690543004,-2.063342094857541,-1.228910854263479,-2.25572021011821,-1.9746366795148322,-1.3945084441494509,-0.8479184926410724,-2.7607653583206146,-2.532355510609787,1.8323649184035087,-0.28880548770940184
37,-2.50627975825179,-0.025679150791348238,0.5779644419311007,-0.33232985079390126,-1.986092766279982,-1.1355772812234755,-2.0656897269305734,-1.3761571570535216,-0.20510499478329852,0.33783886936343377,-1.9932815883626158,-3.4899200532134187,2.7251523674030422,-0.21729541160498655
38,-1.881017808632101,0.5580360352296473,0.4373506459858503,0.27198093777037863,-1.7137936126906703,-0.9643259838497147,-1.73069556896996,-0.583159927171089,0.9799344525257703,1.415768490891667,-1.0272829191835184,-3.919113950024968,3.305352917967363,-0.10168907524669164
39,-1.1254910544884258,1.0998455589154852,0.23651278371136,0.9176652207230254,-1.274705971483406,-0.725161022739052,-1.2893944279136371,0.3069127314938798,2.0370231754057975,2.2917271678014095,0.05963595516485902,-3.7644158288011456,3.5134814690661376,0.06961774655667462
40,-0.27319437158434706,1.5533642126691847,-0.0019874179094939,1.5371178114092359,-0.7179930477864227,-0.4401879802429922,-0.7937494349905839,1.1810170838803224,2.857256955398246,2.8978500764485835,1.175828320981316,-3.048719519858114,3.3346550762319778,0.29824986791688873
41,0.6320652602764546,1.880643292168575,-0.2501536193827029,2.0608745309706378,-0.10731358646742467,-0.14025276542579282,-0.3018327130679285,1.9256292099355208,3.3593473513806686,3.1984013519703445,2.223907521965158,-1.8705599856861292,2.799776946838399,0.574522211106407
42,1.5384639256507668,2.056257383021025,-0.47839157743311855,2.4265582312012075,0.4877759003944919,0.1401986534871408,0.13067520525836324,2.442365822439843,3.499416101951805,3.1919778682167825,3.1102783578773088,-0.39104208369663107,1.9813659400573624,0.87814889518452
43,2.390061232021004,2.0703689187821355,-0.6594819627923625,2.587506615885751,1.0013881679047882,0.3691659778985094,0.4589937410389429,2.661786852425603,3.276195866830059,2.9098363094657707,3.7548491226987895,1.1878360952386025,0.9845018967948448,1.1808537093026048
44,3.131847578269114,1.9302710208170935,-0.7721292096659639,2.5197981718394082,1.3804253254717291,0.522994946631706,0.6563863031080273,2.5533014729454826,2.7307844602611415,2.4105389103611676,4.099736330511959,2.6505306224035454,-0.06609913604370884,1.4503902834206939
45,3.7151880698060618,1.6600029663404505,-0.8036125978920847,2.2265180003526037,1.5918568162742432,0.5910731267822746,0.718708722792563,2.1296834386733137,1.940882884323309,1.7715592014354584,4.115792971494063,3.797189354563543,-1.0414165505704653,1.6552240296115008
46,4.102764476347173,1.297825997564282,-0.7512146520645666,1.7384295207245042,1.6270081201564477,0.578427586972347,0.6654797297410363,1.4455223632654035,1.010274269007792,1.0788901408143439,3.8059920482531133,4.470687776099881,-1.8240978603493625,1.7690183338987429
47,4.272155722683712,0.8916289208212752,-0.6222873612159066,1.110709513935604,1.5021599023264527,0.5056499577759909,0.5371060046206806,0.5898518986023034,0.055020863794006725,0.4159824463772805,3.2050694813501455,4.577657752556973,-2.3231859514466735,1.7741285231029256
48,4.21742851373839,0.4926684822105763,-0.4330097127578029,0.41599824944922137,1.2553347612552819,0.406002673361438,0.3885040271362549,-0.32594390857106154,-0.8116577909786381,-0.14654661064584634,2.3753334613424055,4.10056259216139,-2.4857931506667774,1.663530959392369
49,3.948491962651619,0.1483841128593781,-0.20606363863880922,-0.26537622716307335,0.9397611061669323,0.3200345768367594,0.27997204963527905,-1.1831695505117856,-1.4936895699936519,-0.5590840142154573,1.3991086785123232,3.099182940852941,-2.3041943564217466,1.4409591661277412
50,3.488423463758242,-0.10470640660510128,0.032412483305472244,-0.8566233230356667,0.6150464702171392,0.28847908475675194,0.26667337402295915,-1.8716351453730122,-1.9236635952791101,-0.7980098886773758,0.36880993138125373,1.7014424588388282,-1.817279924985616,1.1194114174225613
51,2.8693939792565337,-0.24689174909328684,0.25615832344207756,-1.2954628192016884,0.3374700446459745,0.34454688330711547,0.38839763287447565,-2.3040343889082493,-2.0700443389217056,-0.8668927160001244,-0.6239676627636568,0.08507050128002806,-1.1059377723150656,0.7185428311398712
52,2.1281054521853138,-0.27884971255657814,0.4419672051173154,-1.5430895727992922,0.1509481961028892,0.5068935662717681,0.6612997215094445,-2.42695692202843,-1.93926527982249,-0.7938281586016596,-1.4987791907840404,-1.5470857361134647,-0.28267616381072175,0.2616705164921546
53,1.301724897390341,-0.2221117258436667,0.5723032027909978,-1.5896260582532797,0.08011245749687114,0.7745025875364715,1.073056885626058,-2.2271791750785153,-1.5726742413858437,-0.6254249645945491,-2.194609574490464,-2.9944383220542856,0.5234191752840595,-0.22685629766753446
54,0.4251336757593226,-0.1160493118641006,0.6370564333978967,-1.455091276770948,0.12658968567016213,1.124472087962804,1.5823731361160922,-1.732613421629576,-1.039059260632067,-0.41843255650561173,-2.6749842462122726,-4.084806882175625,1.1845786901781512,-0.7233468687328034
55,-0.4700587530161717,-0.011602135149571176,0.6342629705284282,-1.1856425916484836,0.26905027083216504,1.5132652211035198,2.1230856305484243,-1.0080564189202152,-0.42407192062232857,-0.23033638856574673,-2.9293456953139696,-4.6957706894784,1.5927369166059964,-1.205278667566043
56,-1.3547723748840266,0.03743122350507617,0.5697605114745241,-0.8456425667204694,0.4669801276427549,1.881446036129832,2.6124054653382793,-0.14653973729875155,0.18180589388463136,-0.11036076090769828,-2.9707725274678642,-4.7685241773488825,1.6758130877672883,-1.6507811724344525
57,-2.2005018943424934,-0.01578743858633511,0.45589125783477186,-0.5068206676727319,0.6675365697485043,2.1613660070002294,2.962174137600731,0.7424422282860845,0.6950641201010893,-0.09219560960168208,-2.8307183301716474,-4.312746804170663,1.4094191846262119,-2.037596469919451
58,-2.9770182243242145,-0.20183491295256084,0.3094814376229889,-0.2363061327891318,0.8143648456704945,2.2867805327061657,3.0915391701594515,1.5462965525868744,1.0492601265087056,-0.18943109060380398,-2.5518908954186577,-3.402339678767417,0.8220702730094928,-2.3422183045372984
59,-3.650723466573943,-0.5278922519204107,0.14940819047493292,-0.08550772102527308,0.856957727502385,2.2030353849327766,2.939219019158065,2.1627103504324516,1.2023212223064796,-0.39421104481524627,-2.1806030218868484,-2.1631386444652194,-0.007142111500868437,-2.5399035726058523
60,-4.1845248032798334,-0.9741429832358637,-0.005899997326927882,-0.08167090568870802,0.7590778507412517,1.8763217349588786,2.473569622260257,2.51158240288649,1.1404369382003114,-0.6790976973524343,-1.7598830291741168,-0.7547087588209698,-0.9583515993599985,-2.6060347132619017
61,-4.53973117228584,-1.4945259004116234,-0.14069643612342375,-0.22348342612366906,0.5049361022238538,1.300579607473263,1.6989733025220906,2.544281275038453,0.8783864908601106,-1.0016693533650567,-1.3243676418733947,0.6510569658444653,-1.886993393113179,-2.518941569256615
62,-4.6799732222620385,-2.021955451802851,-0.24360774572565033,-0.48141558463583495,0.10219714018512945,0.5009269748950127,0.6575963500967887,2.249315132917932,0.45654187627123466,-1.3110239081017205,-0.8975832066285435,1.891613514884775,-2.6439716040245487,-2.2638613865833004
63,-4.576618988424884,-2.4773750746093266,-0.30859922362898307,-0.8026978689525611,-0.418598689397426,-0.4670343289331298,-0.5737795579300129,1.6538562238328252,-0.06491343837270899,-1.5551739883560292,-0.4917439787646688,2.8329911048427654,-3.0970720024063887,-1.837333947688285
64,-4.2147216459958745,-2.781350613023686,-0.3351384029267743,-1.1200885594600527,-1.0080349328733236,-1.5221022381664002,-1.8914591308663953,0.8209473846252149,-0.6138063992212158,-1.6882980041853775,-0.10974669623791719,3.384370973998944,-3.1505427743281786,-1.2510869773519853
65,-3.59828586379193,-2.8664494381404557,-0.3275933436662325,-1.3629863501802388,-1.604543527038056,-2.5660087546956136,-3.17606014641534,-0.1573784291226469,-1.114966708635667,-1.6769282040111333,0.25131072826879597,3.5065494050163895,-2.7599951883287814,-0.534420703626211
66,-2.7536340235115984,-2.6884611824878952,-0.29400440102331055,-1.4690872632001029,-2.1427466622532445,-3.4945281503424184,-4.305795618769885,-1.1704173186689457,-1.4994478067662287,-1.5043690977616753,0.5959636317932615,3.2136799189057745,-1.9404263387611376,0.2657332725448156
67,-1.72990598731532,-2.2346357955192624,-0.2444482409954778,-1.3947228401261889,-2.5620866754838887,-4.209693352198367,-5.170090930671695,-2.1014952595739143,-1.7130057504952763,-1.1729050335495035,0.9264785464044919,2.5685274282305244,-0.7661407860208869,1.0875443950123338
68,-0.5961981908647735,-1.527536777447501,-0.1892602075421353,-1.1222548072842715,-2.8144194111103746,-4.631475987612161,-5.681801833595578,-2.8416427256838532,-1.7228888437398253,-0.7036406563189678,1.2399884897909095,1.67220498612516,0.63749330969328,1.859777654356841
69,0.5645469782326756,-0.6237734226356924,-0.13738869589429858,-0.6634000802625213,-2.869477695320147,-4.707348072436494,-5.786520243329999,-3.3026117174287193,-1.522095091105555,-0.13409621970528346,1.5271680892653394,0.6499217480633673,2.109346702838904,2.5094835126894233
70,1.664172024251309,0.39232010243930915,-0.09512150661557714,-0.058034932314666735,-2.7175253813812175,-4.418442808495002,-5.4678781641243,-3.4275758226772717,-1.130470532704879,0.4860707618541904,1.7726072030975468,-0.3653871911658391,3.4727792319476984,2.970846953153731
71,2.6192213056329896,1.41918436202585,-0.06535480381252315,0.63123930161652,-2.3690360008454383,-3.781527746805016,-4.748327276792954,-3.1980662884088416,-0.5923632993254717,1.100645027158349,1.9566993434631201,-1.2495593546995354,4.558044183302888,3.193858299633245
72,3.36062585936958,2.351168598754982,-0.047482529122512246,1.327824917230834,-1.851740205941955,-2.8466212147376964,-3.685501018058948,-2.6361506648444504,0.029004867816467977,1.6530291363790404,2.058589397262729,-1.9019305701000255,5.223793665840946,3.15140543656398
73,3.841635705608522,3.092338751713798,-0.03788443528474861,1.9517316358225685,-1.2057951222668193,-1.6907216277706885,-2.364860883503923,-1.8015015901426326,0.6597982550991895,2.092265112327265,2.059574706197561,-2.2566519003660037,5.374827151131703,2.843587215207285
74,4.04276120052126,3.568908953964655,-0.03090108920639212,2.4304202646246256,-0.47806629242527593,-0.40866933202762373,-0.8897951045926468,-0.7837301319208846,1.2253674183762302,2.3782062295044777,1.946345651944063,-2.289368294565657,4.973834621992497,2.29848308929617
75,3.972993064899437,3.738492158893056,-0.020117532669334613,2.7083119315887028,0.28345113092128327,0.8974716244981572,0.6293950311817135,0.30895432988566557,1.6602072702399304,2.4852900827460873,1.7135707409502874,-2.0185443978221578,4.04579901439077,1.5692028978393893
76,3.6672008703640246,3.5948957951398115,0.0002587050375505409,2.75369075250759,1.0341994035836306,2.1289958106584344,2.086150830217515,1.3631666908379114,1.9166152463180415,2.4045801681804138,1.3655280377789674,-1.5013171084462078,2.674779350858274,0.7276644015413003
77,3.1802366796310797,3.167899973150609,0.03414336713175224,2.562196465285314,1.7360390533412404,3.199710276977977,3.3866718695266687,2.273980250576861,1.9707608867967183,2.1439926139190475,0.9166952513084068,-0.8243903158345633,0.9938189901784504,-0.14392225178200926
78,2.5787762417357745,2.518221398969934,0.08263770423943005,2.156645652788355,2.3584441581469777,4.042612180026753,4.456378496054478,2.956917804359383,1.8252712107868097,1.7268658711427747,0.391376879340398,-0.09110831186632055,-0.8304423199594726,-0.9625487951530559
79,1.932227874637128,1.7285598443665307,0.14355059968300518,1.5834432096571622,2.8780900635064226,4.613537455735506,5.243388078483378,3.3567526623961466,1.5079890262468012,1.189221704034976,-0.17746741469027716,0.5936241276511414,-2.6163336312787155,-1.6534875213184206
80,1.3040867967328125,0.8921407137045649,0.21145765892214383,0.9062716460103561,3.2773213062618476,4.891772961250224,5.71907776164791,3.4521114527727867,1.0671755802233553,0.5761716426443079,-0.750031099712365,1.1385454530582932,-4.186575452322754,-2.157737962866811
81,0.7449176371810481,0.10043725573097247,0.27829873426910184,0.19802179000838793,3.5421730310921524,4.878111809997022,5.876246689150469,3.2555368549674895,0.5639916541478849,-0.06206930544385891,-1.282011854859807,1.479214291402046,-5.38636656671711,-2.4370097495907226
82,0.28776682635289846,-0.5682431397926871,0.33443888529769406,-0.46796371655344543,3.660649372496482,4.591170372036629,5.725685928712456,2.8093392766780756,0.0634987183017525,-0.6741775058808914,-1.7274998058624758,1.5871767377352313,-6.098332523539955,-2.4759077934278326
83,-0.053664591897688796,-1.0578634990532494,0.3700496068280959,-1.026303848818706,3.6218404501097643,4.062921568252218,5.29206785549609,2.1781299493411295,-0.37439718123034044,-1.2114682854245236,-2.042448513221393,1.473612032664923,-6.253087313099003,-2.2814818249245508
84,-0.28420911512055597,-1.3404184694016965,0.3766169198352482,-1.426764203534562,3.4162220713354814,3.3343258486958716,4.609977241101224,1.4393037018478656,-0.7027050551438571,-1.63127446339892,-2.188740272914191,1.1866893542244255,-5.8347607636685845,-1.8806863352055085
85,-0.4242473348351977,-1.4178157167911514,0.34835846605300136,-1.639527560198401,3.037185880991002,2.4516977763681873,3.720665844567087,0.6728883083593233,-0.8927511117550655,-1.8999301508667426,-2.1387183523025,0.8028059397330195,-4.881392279090341,-1.3164951570279144
86,-0.5052065318335649,-1.3198485958296704,0.28333694991569247,-1.6580823720066875,2.4835536825601014,1.4641052173366487,2.669791476231633,-0.04789696616841904,-0.9366130175553131,-1.9953617753243833,-1.8798344205615103,0.4128763311784925,-3.4805273444923146,-0.6434078646707563
87,-0.5642451782276513,-1.0986906811973998,0.18409226694835934,-1.49948402171797,1.7625900689688512,0.4217484143313263,1.5060806946024023,-0.6642837620847407,-0.8464931568799897,-1.9092400776095941,-1.4188065606457638,0.10573830702997399,-1.7606629637098627,0.07709082924803298
88,-0.6387604412567055,-0.8207171058687708,0.05767673892010547,-1.2019709037370696,0.8928791300471954,-0.6250073608182749,0.2806023722788469,-1.1370699414504848,-0.6514222471879028,-1.6485439905219124,-0.7844841188801902,-0.048639924291970574,0.12060776135992343,0.7808234564417303
89,-0.7612377135634482,-0.5567263231685743,-0.08493946808330549,-0.8201544265158175,-0.09360594516042182,-1.6264086888452878,-0.9537925021195021,-1.4488782556096143,-0.39205033771852627,-1.2362752184252872,-0.028556724947619724,-0.013267084939168405,1.9907654371280021,1.4049261094591199
90,-0.9548423929450941,-0.37178803111966746,-0.230033979888086,-0.41824600201865786,-1.1508342716375253,-2.5343435053888603,-2.143300682572805,-1.603603885200076,-0.11447600314138923,-0.7109949962123161,0.7766115425402063,0.207038425318567,3.6777564885650738,1.891692169436291
91,-1.2300660109335568,-0.3159708521899105,-0.36272433147249505,-0.06201723643621601,-2.2198662275279304,-3.303913367189867,-3.23456767703667,-1.6234058106778582,0.1359261877520229,-0.12487421149996286,1.5433843112089758,0.5639072238108847,5.025423742043846,2.1923946374856143
92,-1.582681545688961,-0.4171001630411667,-0.46877620508362144,0.18962073548888547,-3.2319849963132845,-3.895608584505044,-4.176748399146674,-1.5438168559574297,0.31987186422181724,0.45992979150929697,2.177333412780649,0.971451118643166,5.907729432055049,2.271110045047422
93,-1.9932100138590148,-0.6764605796506284,-0.5363818825851473,0.2924275403937902,-4.113681194770097,-4.277905933152151,-4.924087643731895,-1.4076710774964916,0.4081830551577993,0.9765472632969017,2.5880631256862423,1.3194476694280077,6.240533567228785,2.1083698068153587
94,-2.428018907990505,-1.0680022425097446,-0.557663167944377,0.22305746229766316,-4.793059660451123,-4.429917012490225,-5.438697042665468,-1.2585831649491968,0.3842241144855146,1.3600405390440897,2.701135040981571,1.4918166278690606,5.989814544879867,1.7042682234058995
95,-2.84204578189192,-1.5411719731682194,-0.5296894333644121,-0.017128726384139682,-5.206973689418843,-4.343614238185524,-5.693111030733443,-1.1346831062719835,0.2448209266065446,1.5548767257777845,2.4695160326690435,1.3875687055279267,5.175477230284822,1.080527131261446
96,-3.1829780553666205,-2.0270286284673897,-0.4548691069619397,-0.4012199171835567,-5.308015749091981,-4.025171826169304,-5.672222330982253,-1.0632386463376415,-6.272306147891423e-05,1.5224579777693847,1.8828714740812489,0.940886255385197,3.8702691663246327,0.28099011765395954
97,-3.3965537140311626,-2.4468850061197243,-0.3406617597668956,-0.8790862947019472,-5.070446396339861,-3.4950781329986227,-5.37432164998599,-1.0567121747384947,-0.32853563912946077,1.2477720434726516,0.9731713787637873,0.13699276141407082,2.1937724383789323,-0.6298997283349148
98,-3.4325091272375206,-2.7224066750694456,-0.19865455906974483,-1.3827173685252538,-4.494241801334642,-2.786876779204698,-4.811159169991394,-1.1107033398732422,-0.7085740767034473,0.7441497536540618,-0.1845529312160109,-0.9790140817161684,0.3019026612636203,-1.5709046028381621
99,-3.250608827647274,-2.785929203972655,-0.04313650315386752,-1.8340384313761282,-3.606670151900051,-1.9446325864202516,-4.007147111529895,-1.2041066742117374,-1.1002485793048127,0.05516643611676485,-1.4769110681410778,-2.3022213574910944,-1.627219988835673,-2.4500845155613704
100,-2.8261530663481795,-2.589741204883533,0.1106276204173637,-2.1543717497155845,-2.461126339877972,-1.0194417279364845,-2.9979705510978873,-1.3016365744050875,-1.4584026265324375,-0.7470661690051577,-2.7622461760619688,-3.6774194596168317,-3.4097975790160087,-3.1728695721044375
101,-2.1543721314113613,-2.1132124646871673,0.24818498771455297,-2.2744846814904696,-1.1333052886053794,-0.06546262704720612,-1.8289232419922028,-1.358622703280712,-1.7359150169494044,-1.5675901067113476,-3.885322547458793,-4.917225399152143,-4.873783706079711,-3.651479480431856
102,-1.2531833790673519,-1.3669026676494245,0.35750546855009646,-2.144049782274763,0.2848815420837657,0.8640024231120659,-0.5532238042959854,-1.3276690015858483,-1.8876714662836978,-2.2981185347086366,-4.695129568707639,-5.826612363533929,-5.87558235355211,-3.8147722981861376
103,-0.1639101644527455,-0.39313644177567175,0.43021080523168853,-1.7393526260200396,1.6929903961442343,1.7199059140612012,0.7695812508905439,-1.166443547262425,-1.8752313650649848,-2.829617074064053,-5.0637812255193575,-6.230588150697363,-6.3143949759133005,-3.6174105131530787
104,1.0502625381511403,0.7370642307930726,0.46227964084006895,-1.0682313682169975,2.990520497254641,2.460018729596264,2.0752059856371985,-0.8455894013727656,-1.6719329741117623,-3.0665964115583204,-4.9041756660495635,-6.001154397080034,-6.142763897278473,-3.047172526357856
105,2.3081092858754615,1.9303850600892627,0.45416601636231835,-0.17151000880457243,4.085321746157094,3.050544799641174,3.2964413962803185,-0.3555837888779591,-1.267895954870916,-2.941301108135746,-4.184048631402412,-5.079608722865348,-5.3721760431357755,-2.1293312290188147
106,3.5162532087827567,3.0802825059812577,0.4103556713455637,0.8794328523015449,4.901126462194476,3.4668700700330533,4.3655120977623785,0.28862545352877766,-0.6741323953629892,-2.425739821874358,-2.9343279960737947,-3.4907376479444006,-4.073022421717163,-0.9272631593787837
107,4.576705762122423,4.0777337936677105,0.3384642225513814,1.988877784727876,5.383530554207259,3.6936750723482987,5.217244460085196,1.0461839791124583,0.07515030746387584,-1.5395539882226172,-1.2502619048890533,-1.3464344891676827,-2.368717414880623,0.46117905962730055
108,5.395462188220067,4.822523434460591,0.2480409855135812,3.046225796056222,5.503942470551452,3.7247022676633246,5.79315298905391,1.85268842706205,0.9229082314945626,-0.35210143424305695,0.7153916987142975,1.162350932635299,-0.4243341752320606,1.9115296629720215
109,5.891420814223596,5.23386355732095,0.14927199659088733,3.9377572022329206,5.261242693263584,3.5624381815237576,6.046294667045309,2.6263888129939725,1.7928476750736086,1.0221729281073242,2.76683859277539,3.78483445032768,1.5693253272870247,3.2842794402295112
110,6.004808633344395,5.259222162190639,0.051771435714431865,4.559414622386595,4.681126625251524,3.2178653888533786,5.946453172604141,3.277666322577906,2.5963198815809516,2.4350697406356936,4.686066786569102,6.238703140500803,3.414781944145345,4.439099727623046
111,5.704271577186826,4.88042686199803,-0.03638530063063549,4.829150677959944,3.8133162922065447,2.7102987152628075,5.484970975600085,3.7206248832449997,3.242001900009346,3.7216184027589017,6.257740278044655,8.244052371277748,4.928183595193097,5.250225935932506
112,4.9918332021148135,4.116394956112874,-0.10929186112859318,4.697361433466851,2.7270002140582226,2.067184912786319,4.678411586380944,3.885186811525087,3.6472466780777166,4.720683443183922,7.295185749441843,9.558575777085775,5.958732308602635,5.621221169112187
113,3.9050458179914407,3.0221796905589393,-0.1634756882441021,4.154082138205495,1.5049798464192725,1.323650270942907,3.5702473463240243,3.727874979752828,3.7495302004650966,5.296439308548452,7.664142071166684,10.009290690167918,6.405061661737778,5.4972702474167265
114,2.5158584106894786,1.6843846249358516,-0.19782734156658252,3.231943226106224,0.23705797007388113,0.5215500929444723,2.229942014183199,3.2395547103809545,3.5162209919830474,5.357627432535754,7.301040606357417,9.516400193678317,6.226601289919085,4.873326054384757
115,0.9260058954592592,0.2133533224715132,-0.2132658576834022,2.0043436818074634,-0.9867967049810178,-0.2921835957760181,0.7491121851865112,2.4488031135717607,2.9510118138556565,4.871661229372093,6.223147687685166,8.105846366603934,5.448431156520048,3.796837928833026
116,-0.74092855449428,-1.2671387469168038,-0.21223279622245442,0.5788480133646063,-2.0830194720216375,-1.0679932697388026,-0.7651431306654084,1.4202147202098578,2.095781954192374,3.8712823751448346,4.528878472835755,5.908580976187395,4.158820779789527,2.3643992170541
117,-2.3502404956027605,-2.6317052446522866,-0.1981113936991666,-0.9136093662391642,-2.9803339390261336,-1.7568948642849431,-2.199229373186503,0.24772905950389268,1.0273311716717355,2.4525078254648545,2.3878662978316374,3.146372521928236,2.4994995622686185,0.7123949009352143
118,-3.768700188267488,-3.765522505826851,-0.1746578154582253,-2.332589440256019,-3.6246052469550545,-2.3142110334932946,-3.4434686403359462,-0.9561605918728084,-0.1507768366208794,0.7638795224306045,0.02177273533875168,0.10583014341789879,0.6496136741231409,-0.9974765896658038
119,-4.877769431552136,-4.5756184305249255,-0.1455132280867537,-3.5435269333182804,-3.9823855129778596,-2.703478151320622,-4.402779048485135,-2.073823061317122,-1.3202460169758021,-1.0116658200382067,-2.3218521991662193,-2.89601538823316,-1.1948290269766757,-2.59619726757713
120,-5.585975565952343,-5.000076676487623,-0.11384293502503297,-4.432799229389932,-4.042935616869041,-2.9000619639436915,-5.006344760888491,-2.9966449408419233,-2.3623188023413144,-2.6798594069071977,-4.3993082626973985,-5.550024641291116,-2.843569033926866,-3.9267645054128737
121,-5.838930426310396,-5.014118878791044,-0.08212562889343042,-4.920615673467612,-3.8185676227308085,-2.8939782983700377,-5.215053197572331,-3.637954961893678,-3.17229339906966,-4.0598748953034995,-6.000143097945522,-7.5920376965021585,-4.133949244605152,-4.862401429028613
122,-5.625639166312418,-4.632318151638436,-0.05209307224458334,-4.9700546637214265,-3.343225576402116,-2.6914584329138345,-5.025702734768032,-3.9429692314580644,-3.6722558877890195,-5.007304964876855,-6.972246382981041,-8.833782733824947,-4.94922206377215,-5.321227996165001
123,-4.980113818004155,-3.9066000661987745,-0.024798684423562978,-4.591013358374037,-2.669322907113171,-2.314925262633481,-4.471360883882339,-3.894491519172626,-3.820270148105448,-5.43207501793146,-7.239232545512983,-9.183530692331821,-5.2309308359246565,-5.275386067920925
124,-3.977857420053643,-2.920166396529627,-0.0007749899005109468,-3.838469144643715,-1.8629887024296106,-1.8012401254118535,-3.617728189534556,-3.5137479703795327,-3.6147988627733554,-5.3087723981939785,-6.80777223281642,-8.653889487400956,-4.9837516404505235,-4.753334067542036
125,-2.7274496985203127,-1.7779776196409844,0.01977110687056857,-2.8052055256097375,-0.9980381686065042,-1.1983117402910166,-2.5558701231329146,-2.8564300487761636,-3.093823499107221,-4.677999246901334,-5.763961772033392,-7.355967571168329,-4.272204514592168,-3.8349671048880007
126,-1.3581517771861848,-0.5948855853778588,0.03677639099710476,-1.6099241418412908,-0.14915759030177284,-0.5603934599887116,-1.3921515867824867,-2.004659766058649,-2.3288866604222447,-3.6387032134744914,-4.2594006157541715,-5.481068378303871,-3.2097843513196467,-2.6402404605710585
127,-0.005046993544457457,0.5171537507590083,0.05019279993361935,-0.38233202607776323,0.6150492049884355,0.05740336556428831,-0.2365858063633613,-1.0560978695954701,-1.4149917223095543,-2.332794997651917,-2.489137044044673,-3.2728162746111225,-1.9421498447960575,-1.3129193341893788
