,AF3,F7,F3,FC5,T7,P7,O1,O2,P8,T8,FC6,F4,F8,AF4
0,0.03236594859188273,0.0771938692297824,0.06857055300727177,0.013628818471734935,0.03496517501380196,-0.006507929134881599,-0.00644183100884062,0.07273030076864635,-0.02703222428141697,0.08497323988871718,-0.009368990702080256,0.033786000435349406,0.02474215460377729,-0.007161423415515474
1,4.055606753171292,0.644989667159453,2.7786601451859063,1.8328242311005043,3.5273567708725597,3.973338673106581,2.4353739213035905,2.146489803896175,2.215242240277933,2.772862649964368,1.720892154154336,0.29747670460132475,2.1783645408011765,2.347109755424917
2,-1.3268345142731859,-1.0072095379051091,-1.07438919898548,-0.7069902222188762,-0.8155073832857317,-1.2826822238563411,-1.018840298847796,-0.7817535734100994,-0.8230338822387461,-0.6565927847591957,-1.362979021399362,0.15724330903119385,-1.4656884462617716,-0.9100118664361296
3,-3.3020611558683393,0.08335608845568215,-2.136992487343747,-1.4868633718473272,-3.1736802584268893,-3.4611790690790762,-1.7538389501977978,-1.7279072882470357,-1.838263351264533,-2.512025863201733,-1.087036917391707,-0.4460976841594299,-1.3932954405944857,-1.7728783406768527
4,2.212156232398206,1.4502281530570373,1.693637040910647,1.2328229257066396,1.441157498608731,2.3227030209681314,1.6511911321629535,1.2465624803246487,1.504333682889029,1.1399653205216316,2.4111030245262097,-0.21402054766339132,2.435543302127834,1.5824347855572782
5,2.086954457207204,-1.1803476861076794,1.165630064912524,0.8970133367568677,2.544977904996907,2.5360434129653853,0.6239893636212962,1.057873660035969,1.1802784415034455,2.0946550859344684,0.057633108796198436,0.6564130142035416,0.19046794699454614,0.8197608731519114
6,-2.4504563149488257,-1.1517401812862125,-1.7482840004664506,-1.46574845332046,-1.7889681276518012,-2.9016888928059674,-1.6335125862406175,-1.337418833593769,-1.8912244112221368,-1.5139996754005287,-2.948609408631487,0.08785358957510218,-2.7125730621163804,-1.8513324292650484
7,-0.7809612833533986,2.186941313929211,-0.21322921589777816,-0.17851161376615135,-1.7513350892798019,-1.411983385331744,0.5577938086396501,-0.3531836226820385,-0.3775783614981756,-1.548301241043715,1.0871370553747686,-0.7792563181380117,1.005053975937944,0.30473982576862785
8,2.0273338853305956,0.15430568536708705,1.2788865018316085,1.3201637047171433,1.7734873297611817,2.9065943235745406,0.9386945549915433,1.0526429654610487,1.9098848977625182,1.751177768691123,2.9481956627588497,0.13636361455103332,2.3564957118868404,1.652676252690766
9,-0.25726731867017455,-2.6827388994990327,-0.413426817252955,-0.5073873948395546,0.946939950560738,0.3652980044365493,-1.377861906019228,-0.18227755585647312,-0.3880625100924277,0.8985791941593024,-2.0748200633960217,0.7360487607331961,-1.8459687180252826,-1.3624335488412016
10,-1.130377195604198,1.2377506548128236,-0.502557490374351,-0.7738289461768996,-1.3694657364077376,-2.3608118172085404,0.22559871542146825,-0.49674947475468817,-1.5686456372472024,-1.8051580934779525,-2.5232665896922124,-0.2962219946481663,-1.63633242541606,-1.0251984055996701
11,0.798431391100042,2.444792716592729,0.5548666258406001,0.9641502933277601,-0.3163607170347426,0.325108833561857,1.5402965268520967,0.41072490019101776,0.9239955508360461,-0.19077229922006994,2.721032867320658,-0.5839308385400762,2.2022576349002434,2.1294812828541585
12,0.0544023035669099,-2.5957832600008546,-0.29433415485163494,-0.09951916404177086,0.638406270152338,1.4386437330733752,-1.4881077593232688,-0.16926302531192436,0.9779420807926025,1.616398085722539,1.8622039077127561,0.263564320553256,0.8620972806230205,0.10252541296408148
13,-0.789324678729747,-1.5094428736579435,-0.22609807389848194,-0.9975297520400237,0.039317966048609744,-0.4555037309929622,-0.957695788469385,-0.2767688224766373,-1.0839265948745693,-0.4869602258607609,-2.9590856247201573,0.49037185153404805,-2.1659713681729404,-2.436782664409861
14,0.9120734563297292,3.534989605521242,0.8686774093517757,1.1083509962644296,0.25735829359806567,-0.4385341251104556,2.433130632126578,0.7759555759821423,-0.3359509867970986,-1.1398580328577215,-1.1532380319551054,-0.038660723295380464,-0.22651215643699163,0.9065114991595058
15,0.3246994135946167,0.1255717550608334,-0.43054889260704154,0.48394021704508383,-0.23518274382324833,-0.02712399203478657,-0.22718727316269832,-0.20333806488866701,0.8243285035441632,0.9934230226488261,2.8167603153941774,-0.6314073691022521,1.9345762484130886,2.2063240452530035
16,-1.5668538731395947,-3.840429091905411,-1.087870724701648,-1.9635709689962062,-1.0731987574715067,-0.29338791145998305,-2.727919735643305,-1.174978718194193,-0.12581983286454057,0.38999682944185005,0.5368951385125954,-0.23525729982934931,-0.25204965661890066,-1.7533566212990503
17,0.4221857272189018,1.3633840556163472,1.2282292938545352,0.5548425052948177,0.9050992978350871,0.9838379602116997,1.6892863583829378,0.959263724346084,-0.23039883568313557,-1.1549091878117002,-2.366816320835834,1.0774156945656708,-1.659830783134008,-1.477682188247409
18,1.8189677945246827,3.50891296557684,0.9345448948802223,2.3571678946111847,1.543003976432956,0.4755354211523489,2.22153000904147,1.251939475971554,0.21780718743992175,0.5161947895908009,-0.10163564153856049,0.3482922275092985,0.6652532941755686,2.2039560191068275
19,-1.2669181274122878,-2.6492918050205727,-2.0076866194218095,-1.916369123350199,-1.9016499289732665,-2.1060629270955853,-3.0200653097328716,-1.877378923662816,-0.5040136453601531,0.8244439279985,1.6886493934703615,-1.7385470606915474,1.362364570693335,0.4104230405764277
20,-1.670442930984893,-2.7056061721851523,-0.4640027147171633,-2.077030042795369,-1.468672726357266,-0.00039458060681901556,-0.9893539034411305,-0.9349203050691125,0.14362411859791593,-1.348037679524829,-0.09060908399864212,-0.1437933515931028,-1.0872043478253353,-2.100977504312439
21,2.052869133038932,3.5481181824306423,2.6675008825317015,3.2572778093294055,2.95223095647891,3.008807531878523,3.848529575240735,2.805242535062041,1.134462548395637,0.03507569562200578,-0.8651152097320384,2.403318551360775,-0.9605095807433407,0.7480488120174168
22,1.1824582748147496,1.6676490925843648,-0.25245641185676787,1.1023038033211543,0.8018070788818495,-1.0080753986964062,-0.6889625349804867,0.2087979781029234,-0.9088007352291565,1.806712119004662,-0.018011660571615982,-0.3927473636149665,1.4775903444507203,1.4106826175011282
23,-2.660674150482712,-4.01957388562462,-3.1468725593123676,-4.20262044438988,-3.7389302733891983,-3.368328522163049,-3.950342311996616,-3.5607063865771034,-1.437088228967829,-1.2819006041586425,0.008753023247567583,-2.844300766135197,0.38362422935812174,-1.72245946718469
24,-0.4488998589612318,-0.6050670553254479,1.162231645170992,0.37347360752772546,0.3232739348989767,2.224073700917279,2.4133576161463073,0.8639592793538907,1.9085387319095894,-1.6290863468983179,0.47011568298629375,1.127379954493745,-1.6846797559088937,-0.23547284158045473
25,3.0032160354788617,4.122257868282478,3.381475039169551,4.475797207460735,4.005924446433034,3.049387009505239,3.3112281815454137,3.958397553864925,1.2685066623176866,2.5866839634737526,0.7159542037207474,2.924870207188484,0.3149403192202094,2.2758782279122105
26,-0.413300399961478,-0.35365594024401426,-2.2197006725595156,-2.0040010016916434,-1.624908732117405,-3.233973333317169,-3.7831880078835924,-2.126210079120571,-2.895067890288279,0.7184639001913892,-1.2444173695194312,-1.8490627002439177,1.550352446091831,-1.207724456513305
27,-3.0237062170302873,-3.939815015156493,-3.2719734061772665,-3.9884024184117095,-3.647637629987098,-2.164095802981286,-2.1229544174044093,-3.859126848085302,-0.6039799002105889,-3.5140136882942024,-1.112803303689878,-2.6474091771798727,-0.9308093251627444,-2.2625753299378637
28,1.2616580985515338,1.1506902151227942,3.332324733328789,3.4026879393169907,2.7632949817327392,3.6905457496116836,4.511879942779079,3.3317869990161495,3.5941539804798404,0.7576100060731372,2.2021806437932394,2.3667544110469896,-1.0501147140444311,2.628943432877239
29,2.7085299402130167,3.528773431126183,2.705100203225872,2.8570865156493856,2.7415278438651836,1.0331660187410947,0.7154846689349281,3.2325824557350384,-0.4439224638204755,3.6850609848563756,1.0291324925446594,2.1282604598512442,1.2001076865710436,1.6625267251049407
30,-1.9293435647947594,-1.743831613513917,-4.306231940370892,-4.253356207354765,-3.444790738849343,-3.442211533257707,-4.49739447350422,-4.19282386619886,-3.765157227930893,-2.3684477567120057,-3.0809892688088034,-2.57548297075563,0.3696541292317107,-3.716880408331348
31,-2.1148944314624365,-2.924114491991206,-1.6372939734817924,-1.3568289401096978,-1.519518035100192,-0.0660031873451281,0.5453333809237287,-2.2053371207977706,1.6261505105064198,-2.9622705514280088,-0.4546811110624442,-1.5316705707747416,-0.9647058039477507,-0.6009422093947466
32,2.2500889059081035,2.0607479983486736,4.852169019975291,4.382912375835446,3.5031133517514816,2.5844268840027804,3.830946197037509,4.470435791256308,3.273367123316484,3.55397467674133,3.5689341381531854,2.4684798835560926,0.1508126421356098,4.204006220032195
33,1.396448411152911,2.1955313658772937,0.1984714681199911,-0.15613687408160778,0.29824272393772094,-0.38839164100830775,-1.3562079745981555,1.0573979844777757,-2.59128386026298,1.562535121176118,-0.4188618538050742,1.0093106240809677,0.3090198148771194,-0.6530203445964787
34,-2.1161297353520845,-2.0121211432831387,-4.686391964588365,-3.7901438912621845,-2.938556890442791,-1.4174381394189384,-2.753527096842867,-4.079287440702867,-2.165415662561512,-3.857278985639812,-3.440571328410666,-2.112314771078276,-0.1924748496224953,-3.9469740194876297
35,-0.7958147971489244,-1.5018583523266609,1.2650532928001006,1.3242686395506291,0.604803358436056,0.16059314896648147,1.5445084197947452,-0.14584738086064997,2.971066686131971,-0.01721844836152906,1.2320439417168985,-0.6698052826119161,0.43144500367340605,1.728697957434336
36,1.5518235566719203,1.5689452777938577,3.6934538459984902,2.6424819109162425,1.9158085192563137,0.3341292544113883,1.5846495877750355,3.152508835149311,0.7120932360004786,3.152518399284391,2.6866042751957124,1.616716694623469,-0.34226677815361495,3.0024062120892276
37,0.5780557115917911,1.0800469200491205,-2.2731156532234635,-1.8634225843643597,-0.9503594082966071,0.6898182289415506,-1.0993072900627487,-0.22688906290328603,-2.5127799209764548,-1.0338733163684397,-1.5905249655965261,0.5703494785798617,-0.8191212637340332,-2.252869713967689
38,-0.7572006800620451,-0.8518139887870669,-2.05478983708338,-1.248286841067173,-0.7277939936940936,0.3156643673545224,-0.6444834099242248,-2.020244199871325,0.627799800729768,-1.7423604170374467,-1.559443797789912,-1.1151706094165732,1.2324251102503117,-1.6551903519468905
39,-0.9127031502097455,-1.1452170401527606,2.409438113936098,1.633322645449287,0.6418725673052867,-1.9041127636097304,0.16968832295828756,-0.056707105992732536,1.2131670720937364,1.132406346904642,1.241243654576303,-0.7097126600411551,0.5499516845110745,1.9878700403402392
40,0.07125665256925501,0.15303647046433103,0.24333944540752245,-0.0011657423294391305,-0.26999232319038624,-0.3371405954005501,0.17959390300172168,1.0961106933131115,-1.3421213599787638,0.2518256104297233,0.49603324613092115,0.7471796218652023,-2.018087903173264,0.3592251835881745
41,1.7587190429665396,1.7476697062903495,-1.538619756236337,-0.6942530680122945,0.23447627069889784,3.1166729525215673,0.9672914569255083,0.8670835829984427,0.6175477424607463,-0.23076822404682582,-0.20474360780766362,1.0162928250070793,0.35930644247145566,-0.952495005696274
42,0.15903603542059272,0.15663453965847063,1.145481026236561,0.7275515480230235,0.7510871079402772,-0.25440270671033577,-0.2986889594933105,-0.7167184450521837,1.063026415034985,0.6479754092971525,0.056311573278812095,-0.6247488337952649,2.2268680397948404,0.4118989951698852
43,-2.830377356175819,-2.681619603732232,-0.0855718816888571,-0.6776301778348327,-1.410526835897336,-3.97650256688266,-1.9713919158467104,-1.8700529423236771,-2.4171544844089556,-1.2670828262452645,-1.206867802365003,-1.3482806792923272,-1.5475666328824491,-0.5431808267809515
44,0.24532283115224018,0.19107700537009253,-1.6554262460348004,-0.6873040795716688,-0.5221070167997056,1.2487530731697365,0.9323636000963268,1.007175776966165,0.2559827104485442,-0.5538208992154446,0.16661383616023573,0.7832377267536017,-1.625682084862239,-0.3533884330858227
45,3.6929865204482932,3.526761920450791,1.8982837364656264,2.0468805986440564,2.4949909073312195,4.2588448447164815,2.533882886351888,2.658460108644548,3.558004779064958,2.686618423242396,2.502541048177769,1.5291367327095857,2.4726067528460702,1.9873548247518218
46,-1.1719781531971878,-1.1924684013202254,1.1884747876235542,-0.12246979364938196,-0.3922656459284947,-2.318648899447739,-1.8390058826721696,-1.8340627658374606,-2.274425694004777,-0.47961811510780666,-1.1234608635042473,-1.1442451971419214,0.35729004165720646,-0.5291997936119731
47,-3.9625028920655496,-3.8275134630055736,-3.2631311602707758,-2.952196954187463,-3.0917558272859185,-3.9314751196287365,-2.4813651437164324,-2.914787091210834,-3.5919612525930713,-3.3994140521519096,-3.2092413181058985,-1.4198327897190062,-2.676722147762265,-2.8577153652009626
48,2.234531202486731,2.525511183613501,-0.06010112745505244,1.431000146295907,1.7265429514259076,3.1334659846638697,2.672504460548577,2.865694461108698,4.359389145941556,1.9739383853917558,2.4752123083683815,1.5276370345345653,1.1152086747946797,1.9018752074944918
49,3.5087498497513496,3.3229628320976827,3.7570003527328764,3.0773408402654154,2.9471672858596785,3.154000279314538,1.8489882084823026,2.5338269240816884,2.4476514690914297,3.1143477979587892,3.06639270907056,0.9951832052590274,2.0139613248445816,2.8341523202695678
50,-2.9446904394447255,-3.6745969166192785,-1.146147188188105,-2.7704387190384367,-3.045026148198891,-3.4692504261735766,-3.101719609643283,-3.710852185667549,-5.816171841781698,-3.266200096855255,-3.722738941749767,-1.725606132967947,-2.2263566515414257,-3.2283411907177486
51,-2.5423181664949945,-2.0963263229107314,-3.3555697674489062,-2.3855133018310446,-2.0659540196007895,-2.210875707483105,-0.8816737018075512,-1.6547014118038708,-0.4835605016517482,-1.9956647185042078,-2.129776408147291,-0.37406248768870026,-0.7212686514110594,-1.933006704836404
52,2.957250477072282,4.171095971590251,1.8551983788937876,3.6465666582069343,3.896953456999076,3.2761910624146338,2.9396769304351817,4.074562639073159,6.1621081115568215,3.82516944476436,4.412144066784078,1.60760325252913,2.5730255640711364,3.9875100831234342
53,1.5220973020405049,0.5506136662467735,2.42367032935436,1.1464136478374647,0.7326087111609341,1.4033306388600393,-0.052297000686444904,0.5923561289494995,-1.6407882277898145,0.5546238449484426,0.7368563283660362,-0.22835505771028652,-0.6990389611545724,0.49629115382775385
54,-2.2530966408792374,-3.8202522953081397,-1.7684161219202195,-3.73461285121962,-3.998536458110513,-2.680371140220489,-2.2243268053613496,-3.8660182313351945,-5.3213682970846135,-3.480965094669929,-4.313379389872206,-1.1952200634467636,-2.09067474208681,-3.88168526605548
55,-0.9239569585003041,0.7829585904744651,-1.5156633921577247,0.16785993339347346,0.5887608449140058,-0.9415775322615528,0.6074845041965098,0.29819154864043923,3.2282347466805743,0.6168626615415617,0.6483736232382873,0.6105160720509522,1.7192324544804818,0.9585802926036968
56,1.1547257254072492,2.789577597565986,0.987181594189796,3.0108345960277374,3.358085123239435,1.9219059823571536,1.2076833104341749,3.218019024214707,3.647950673179636,2.459953231910363,3.4910393879671138,0.6560482673095444,1.0588179093178804,2.9411900193142695
57,0.9955140428932072,-1.4994882744283378,1.0918259766238794,-1.0764513968360978,-1.4430872362683391,0.8782347591285948,-0.6042365841603878,-0.765248074958045,-3.8250662673908122,-1.1233802735941827,-1.632994272985297,-0.695388353014485,-2.0226776226713477,-1.9535688750173732
58,-0.1630102403786506,-1.513816503125602,0.06678100791482276,-1.7576375381788307,-2.278559572883428,-1.255984247900581,-0.25194755481039144,-2.4162693554403036,-1.7628326241491656,-1.2271090775235047,-2.2409032880641466,-0.21218766045886492,0.054921308653421624,-1.4864800140895094
59,-1.6312416099035678,1.5007870255428903,-1.300005337502536,1.2864870216767208,1.5792060258057221,-1.10624276876147,0.10215696400132443,0.7533525931017332,3.3897819604891892,0.9147505240037781,2.038398289486604,0.5730421235515645,1.6212290897060626,2.2292336096890266
60,-0.2958525904113436,0.4746614086762116,-0.8841774216964332,0.439590714272472,1.2282136112898354,0.8567336237445096,-0.32287960340626437,1.7726823458645964,0.28164529351532214,0.23747296881427643,0.9343586270736144,0.013720491135447162,-0.8221266061239405,-0.021739641328872305
61,2.431970190997048,-1.0138422901657471,1.9306445246904975,-0.8066019660233132,-1.059935493510035,1.4175118601485075,0.6297867012478402,-0.4127157533676934,-2.274048732412914,-0.2502680114850044,-1.9269136907954532,-0.44473368002531516,-0.8085796009727699,-1.817346114013488
62,0.07799604810237323,0.023925317517247364,1.1249377271509322,0.49331777052348524,-0.6344478705723443,-0.7605118507321652,0.37165368710500263,-1.4953529978889897,0.4375277601438193,0.2679628283462905,0.14322943093971804,-0.053456709942248645,1.0347516851196579,1.1690841143595214
63,-2.9099645944282995,0.4533230681381381,-2.5528654363105288,-0.06827793657627437,0.23421060956276898,-1.5944352231772847,-1.2311521110000374,0.026626007053916285,1.033999653221963,-0.47545176885199913,1.5164669570525025,0.5007526836595014,-0.007506814347889592,0.9932152553010077
64,0.6201167196453619,0.02567586523454167,-0.7673958818285669,-0.7894011331520104,0.6943675238450534,0.8669730989786543,0.020684620351228717,1.6052943787750966,-0.4105141929819399,-0.32922688372079323,-0.8807076935519769,0.17617319964705558,-0.7595916727531102,-1.7328994165483367
65,2.726760509823113,-0.21221224352356943,2.742969251636557,0.8892878071566088,0.41736301379553375,1.4959957814334979,1.4012427784338923,0.11183824658543332,-0.1717971739681279,0.9368621488791143,-1.0461139380995232,-0.8080705935946401,0.49622238107397354,-0.14438706252504344
66,-1.3727950770802015,-0.36518369543292023,0.08922805279269587,0.49015549689743465,-1.2883353244135147,-0.992127315006304,-0.5819591547145592,-1.9310662941559664,-0.035427916244251234,0.18866186805513227,1.3272635976299703,-0.17572768117710158,0.2603709489533556,1.738497497439305
67,-1.8432553638420317,0.4866649980986405,-2.2817670804392782,-1.2442352690636211,-0.49351712687007915,-1.1065431849173544,-1.0176586902378082,0.17529464698602865,-0.06566493004746674,-1.008178404595259,0.670589618987265,1.2775139996477347,-0.524457483579031,-0.38402440620450407
68,1.736542156013355,0.6151254082206011,0.48577269492236236,0.09885947784975219,2.0338802986971354,0.9487397040242083,0.9703082050958767,2.1830628051176477,0.45489439085401234,-0.13227136334188688,-1.6086138512789239,-0.08359543661187621,0.15158153637562014,-1.4188524364657316
69,0.5169766590773683,-1.2075718948526397,1.2345971172124077,0.9267812613792722,-0.1544479765190086,0.5327130449046888,0.17462746436861837,-0.8749731137948178,-0.25691582104948885,0.7720164201130189,-0.42998747538516097,-1.7266743991087532,0.16579717185843418,0.40991597045359074
70,-1.4484990316383783,-0.45349355589012497,-0.5816998411879123,-0.5438897301191868,-2.4517595516621777,-0.6220968959816272,-0.9117576586933375,-2.0766962835803575,-0.49986123105827884,0.34480616477015436,1.837341740500561,0.5990782450548141,-0.2537781091392425,1.105153498499728
71,0.8352865200015894,2.091940377839775,0.09863185557972969,-0.015967417446757007,1.3604427651270699,0.04635507539237009,0.8685316755791745,1.788268972200352,0.8583583529426965,-0.427329419440064,0.28730615606585774,1.991329140550421,0.3803443435645228,0.0364262273138461
72,0.5176310487246143,-0.2511724960939624,0.014226772308164517,0.46527946451188734,2.1673230387012317,0.012883589358138344,0.2974416055784598,1.4507429842690747,0.04943051603596153,-0.8478097585591721,-2.068522644758881,-1.2528809280364792,-0.023348230581740858,-1.095647851655482
73,-1.8257981960258944,-2.7756265816526264,-1.3154973981632831,-1.1626023537773462,-2.7116533311964224,-0.4542816238604201,-1.7976879492210205,-2.61273248456859,-1.415288856085743,0.16519582249349377,-0.18840171696474897,-2.0095651239766816,-0.8984873548314765,-0.7419364689707086
74,0.819059612813409,1.3984500339309813,1.1612822779027803,0.31081070371027564,-1.0617113561406077,0.7689754200852407,0.7971246870066703,-0.3285244260060633,0.7958660459144399,1.5337809127314166,2.309624354836928,1.900767656995639,0.6139905521859277,1.5512354912299404
75,2.2368141245253654,2.9643076377163213,2.056776576281847,2.171094748496368,3.709283462138451,0.5874827450785535,2.3570730423889867,3.0612010949808233,1.711083488844859,-0.08461794082950842,0.09799391184382596,1.827781540005373,1.2360004711782442,1.39850571013386
76,-2.229816974279956,-2.710186396217672,-2.6913774376779345,-1.6911767033155753,-0.681910528273307,-1.5568337078855334,-2.1669825571082804,-1.1007796900604598,-1.8239037488249616,-2.255573446077905,-2.5553402884825047,-2.4589160227520908,-1.3815579228511996,-2.4493559782877505
77,-2.0559450330979385,-2.5431934560067146,-2.1129227079237025,-2.6271040221450694,-3.952607185110738,-0.44976507229615426,-2.4148015350832814,-2.9613236981027966,-1.6861099327214584,0.18368251666133598,0.003920336334436531,-1.5356407796768559,-1.3251018959341656,-1.7112033693652677
78,3.4269318666444075,3.8493174538142094,4.2202581995915835,3.3615413108499568,2.6438572225663854,2.202559087007716,3.565809948563807,2.5620094630722217,2.8393611791820583,2.9076970042653683,2.808897344620668,2.9303322828479876,2.181282898696786,3.601860436805655
79,1.4147532716664286,1.6084192004552942,1.4688363748174298,2.3344666524727136,3.2789526165217824,0.13528483306646927,1.9639285377495894,2.2970278739567536,1.3880052585444338,-0.4103782819473891,-0.14568712041174692,1.1849410872345278,1.162891861961266,1.4902198697072797
80,-4.241362634637538,-4.553062054393506,-5.39958903660479,-4.90922854439621,-4.3122361295239715,-2.638100867991877,-4.77671905852838,-3.790166511516082,-3.7307770290966,-3.454773889002595,-3.072791567695529,-3.3608023199198045,-2.890718270000764,-4.721016312812692
81,-0.4908875937951608,-0.41385233113565834,-0.2897066534213883,-1.3320280651969354,-1.816919083732091,0.23136061508276626,-1.083004193353446,-1.188719829965233,-0.8840799524647327,0.7251967536952777,0.37515046585371054,-0.7529002171289252,-0.7850053696549059,-0.7032228121861098
82,4.616045038062565,4.728030134046633,5.982303136204466,5.9652208779704035,5.25367243347115,2.892262140394565,5.640007953245543,4.6013995763135025,4.454139396040059,3.9048658215751875,3.3229758553132482,3.7646666456041658,3.4127467949688772,5.508460827493785
83,-0.5596215188819712,-0.7417460224621211,-1.13732096803846,-0.1440592280744113,-0.05895029348322052,-0.5657632437831919,-0.10171404691094728,-0.16258016573272988,0.20976327193599859,-1.1316478908277947,-0.7415671312533328,0.17368444903724697,0.25697514916883435,-0.5199322546293167
84,-4.554482229133725,-4.469935266110314,-5.881767612776142,-6.311617192837377,-5.255404201132697,-3.054350850054731,-6.0504364135250235,-4.921557792914276,-4.975007803957822,-4.260076635330016,-3.4955136898079835,-4.078383153010059,-3.677324899863568,-5.742248949461657
85,1.6108654046770037,1.6387665817773627,2.4881232758535323,1.7555289560652378,1.8555433437248754,0.8662798048162293,1.428336164790723,1.5363569819252088,0.6164229084259394,1.6614879449407234,1.259568145181482,0.5877290045724818,0.32245923764963735,1.9273926775030206
86,4.080971733250744,4.0004589415931475,5.184953558306908,5.924895267628256,4.392176742233798,3.2048035919249616,5.95708262461393,4.7786459528704,5.233497666349935,4.4825938252267346,3.50356696520166,4.176779922684485,3.6593220698983098,5.340379745799654
87,-2.538308281667953,-2.217061979665704,-3.4929934558721536,-3.1725218075757797,-3.1292758235313394,-1.204549038099872,-2.69845691054733,-2.7399514219210532,-1.5409681619348412,-2.332732072643656,-1.8829388818443265,-1.473273646188685,-0.8308040482385272,-3.219250508959445
88,-3.245238722502201,-3.5503632188841077,-4.115389269424635,-4.953812657400907,-2.9920085161132324,-3.351364972139837,-5.385138324554318,-4.275428931317108,-5.16541371524098,-4.4954565632433,-3.2777913689572955,-3.9431470370000077,-3.402187615724978,-4.3838384227605625
89,3.2011061864012826,2.5744791510807006,4.008365657107115,4.161865747324299,3.6352923701743545,1.6671536453193219,3.6966480761369906,3.636685227112201,2.444094849103993,3.109815049244356,2.508836614451551,2.3250520901641267,1.1580458560036826,4.13460040944753
90,2.1587815043646668,3.245892504793666,2.9552027750709184,3.6514089125177374,1.5095973140325474,3.408350033330521,4.464292329907162,3.5565239433849096,4.7597284247272125,4.213999401092408,2.806170450980283,3.3499576901770607,3.0201475843027037,3.091602380518355
91,-3.468879639940599,-2.883689711937847,-4.042552469594724,-4.629948822878631,-3.398250919576969,-2.2778300424401294,-4.248391151974513,-4.15653843592657,-3.164688338214617,-3.8867050230723827,-3.01139090788114,-2.9417249984616256,-1.2547517689583125,-4.5243311029827185
92,-1.0184508370404248,-3.057790254122618,-1.9535144834160258,-2.290488079000202,-0.3559481756283642,-3.2364844001090396,-3.4251885786318055,-2.7788253875636633,-4.101688332783104,-3.591438342401333,-2.1511892172086124,-2.50128643464662,-2.6626580403086995,-1.754894246594093
93,3.2856079761962866,3.27142820564084,3.7250584253337187,4.615731261305107,2.6740227824293807,2.9440497003456256,4.296069395540873,4.29441372313327,3.569679027219093,4.500194202349454,3.2871545744500583,3.169275994701237,1.159856401320167,4.386144044853996
94,0.07781271202735808,2.8420641342517716,1.258101810733399,1.091887043024319,-0.243509334368341,2.7295893125675836,2.537514572335395,2.0888481228143663,3.3624071607604673,2.6605569199663854,1.437087485151258,1.6098808460306069,2.4534197353616936,0.6525145428670849
95,-2.7281658688786923,-3.728857641865152,-3.2362716656346064,-4.247068266493538,-1.8212986650856993,-3.4663445887822384,-3.943586454525107,-4.102759913377378,-3.622700070544677,-4.771829408179658,-3.293282253695807,-2.980108447231747,-0.9863672359809411,-3.853036936423936
96,0.43662716768378323,-2.4509264309820846,-0.8966296076174886,-0.18515104101805585,0.3014540556037712,-1.904244529576987,-2.004326408048006,-1.60490240083136,-2.7345666306241916,-1.554646732642361,-0.8136166928250781,-0.9155882240806666,-2.436503785842055,0.024931821804238103
97,2.0109945227689114,4.1075275510464015,2.733424197376493,3.6829732068833723,1.1453664034677207,3.6198717071564546,3.4264669274436392,3.682855935788819,3.407793223494022,4.569421225079942,3.065969220181512,2.4991968531161257,0.8695921616988943,3.142811969796591
98,-0.42562880659504354,1.8493081295346612,0.8067206568869687,-0.394367873842123,-0.01536835806517417,0.9366047325679087,1.8668664743829249,1.398434196494244,2.3486878802205866,0.4926193014769723,0.4081919386101433,0.5807774411814687,2.558847910358943,-0.21956219263403448
99,-1.41550032719605,-4.206374064437973,-2.305052797939027,-3.062596991294993,-0.7864456539606481,-3.274041618781983,-3.0056977073554974,-3.171076308092315,-3.091505330597663,-3.8672829866429224,-2.7118774808231065,-1.9577333150227987,-0.903034388643794,-2.4858908112265214
100,-0.024814486134897965,-1.1656269860456385,-0.8905060158204423,0.6808243185122949,-0.3563643659699738,-0.11144070702785733,-1.9817315132476516,-1.4733068439902983,-2.215413082496958,0.27691755798879014,-0.28046924416591945,-0.6130429054900803,-2.6982114816611835,0.008463303852095944
101,1.168094379548669,3.900020663340921,1.9649611914826903,2.473267431851473,0.6970759223369176,2.482773302979904,2.834504093253924,2.7104935855150596,2.84037241292048,2.775052917541601,2.369647286972843,1.5876688552911409,1.091743785690238,2.052206602331588
102,0.6717158118371355,0.6427926200238114,1.0653330479178116,-0.7388249170099315,0.6246203960534757,-0.3014262347544867,2.0979389090327554,1.7540486440680476,2.2261137907482333,-0.5560394120808174,0.3976503811656211,0.8600199037159088,2.724444512763893,0.43665075694823274
103,-1.3284694538400117,-3.231991512866627,-1.6764015064365936,-1.9425831131337667,-0.7067661748234656,-1.4841632255147497,-2.8741555330311437,-2.4052214350360193,-2.7344999870093707,-1.5130891161558995,-2.1497904042131997,-1.5052090015123585,-1.3451662944156864,-1.8995171010123122
104,-1.2285756637113718,-0.5148855032822719,-1.2942858152897587,0.6228029435727698,-0.747340439089533,0.17787826837335072,-2.00245918923139,-2.1021602122798377,-2.2163526461433465,0.2651496836379425,-0.6491859560507637,-1.0907065291008349,-2.5680681868627153,-0.9217628349533938
105,1.755504230049412,2.416069004981285,1.3908350480995333,1.45570539173025,0.634248090891527,0.5998547455515537,2.916585454458564,2.27462958084821,2.7238503633357687,0.3414900175061221,2.079290159919082,1.6493522655737745,1.5170699480403318,1.9646214552622665
106,1.5099322889376265,0.879408349195847,1.591881501907041,-0.34874434738610793,0.8268561434319489,0.40015063432620385,1.6542374216478986,2.369054957997678,2.0641312552597064,0.5370994560000357,0.9042050722433848,1.1281436718091002,2.2644151316402312,1.310010060459858
107,-2.1823442854841653,-1.7435143925579693,-1.0892746200221148,-0.9938288481292067,-0.39330492145088514,-0.08939538437892341,-2.7131523702582503,-2.239831089700616,-2.658089406880895,0.5193864483872227,-2.087339786477562,-1.8227095758492042,-1.4810291278232008,-2.108540897394899
108,-1.5242809170567748,-1.637212630281488,-2.003684354113022,-0.10663231695872272,-1.0348621291894353,-1.1909012896893527,-1.2221900348670753,-2.4663887372344213,-1.7701522634909017,-1.6866156252475648,-1.0854308133726767,-0.9563958740802349,-1.9465268181359625,-1.5716844668206054
109,2.3684096908829577,1.4490127008385387,0.8145848524164082,0.5785333410698119,0.04609266216187557,0.04474318976061666,2.14176125541789,2.1650893198750136,2.3838067979978885,-0.9348399792417723,2.0524750845739286,1.8234517606275882,1.209270560250158,2.201664551807567
110,1.4533640358245625,2.5312310620181426,2.560725252761959,0.7710777531664247,1.5011769465699332,1.913169611790746,0.9921501269341155,2.4112946169042995,1.4671786200076673,2.9693104434637436,1.2114546601989342,0.7261842150397325,1.7798633146870733,1.772979332033439
111,-2.2410393444577315,-1.6090488344195044,-0.6764203962666436,-0.2943902957790802,0.22016210755782004,-0.38041282561799183,-1.3108236251381213,-1.9404496989760156,-1.8578019820272078,0.8567959866314178,-1.889498558671999,-1.5899957276957937,-0.8106305127089356,-2.2046896419718314
112,-1.52137237621563,-3.257057799558492,-3.2211006331364356,-1.6174194962616855,-2.2165507836790272,-2.3639055707409073,-1.1867330484920313,-2.3099544161759527,-1.3399098458052523,-4.16018335712476,-1.3704736246885059,-0.641725296190506,-1.8629794735325913,-2.001216435854983
113,1.9344625707278957,2.1211935807449973,0.8097765248529767,0.2631896797914199,-0.18764297018323325,0.9082516668476364,0.5254406228563526,1.555095543400587,1.2014616514492376,-0.3077561718689928,1.6166986391333436,1.255847773307947,0.4938268549397201,2.1904593330575897
114,1.8311791492968605,3.5812979565426386,3.8304964098704355,2.514322545909983,2.997931752419845,2.468858367313945,1.8033986799641575,2.2817534123195484,1.4947078964442926,5.034623264556786,1.6356211000575474,0.7961329150142559,2.1459640854921505,2.267877225852221
115,-1.692456833272862,-2.761215226759225,-1.2883359137397625,-0.5672685610723984,-0.2636664072801219,-1.4343738348256383,-0.12042519412141728,-1.10759703541021,-0.6464144430728772,-0.6147767322800678,-1.3472222850089646,-1.0621275299099622,-0.45897107316608543,-2.2800593926941093
116,-2.276025991173248,-3.410840400390327,-4.142521356870401,-3.23181156109548,-3.5442109199952396,-2.2583434756586214,-2.5776010738315653,-2.372425786151653,-1.8643312811439348,-5.380330665131462,-1.9829697113622795,-1.0726996382673533,-2.4230851758785965,-2.4584474221485744
117,1.6911871117769453,3.2740454829447496,2.0310201069669436,1.1584214168011047,1.0549118228024312,1.816824379993495,0.2519192401097201,0.7394858575597981,0.39171316548336504,1.7087387253767428,1.2011023568334773,1.17522201092776,0.7676713789608506,2.5248754631507375
118,2.5942088036273363,2.7969493909184147,3.9177966789055776,3.5247249658407096,3.571539814600335,1.8119259844073203,3.1102098746288593,2.5196425576194317,2.224875203474021,5.0490144740290335,2.282030461942573,1.1967756671225205,2.4247272594970704,2.379767115877719
119,-1.8992235588025002,-3.450527882017979,-2.7675050833855193,-1.8165033342362356,-1.8963640335978977,-1.968490391855723,-0.7779180264531751,-0.5359753817243132,-0.46355106877396984,-2.6553356420411007,-1.2000275517119787,-1.5358273611098636,-1.2707201999733937,-2.8156868429459148
120,-2.5403629265725947,-1.8968335086369699,-3.0686177619766273,-3.266436614177651,-2.9711739434236835,-1.2230709985179982,-3.095884246321139,-2.600055393295909,-2.3306244133893275,-4.049272669135619,-2.3778431633397226,-0.9192079859571772,-1.9740134297304066,-1.8912445369279445
121,2.07532236501564,3.1692586146988675,3.114323472563663,2.2095409694227195,2.391821337330367,1.8370213337703334,1.315037422742674,0.46680588899660225,0.6820545212362129,3.0808759404663655,1.2299033238935646,1.857681194342158,1.6550601831886065,2.8971705587344596
122,2.062720715784226,0.9245112898837239,1.7665158867787847,2.555543150589882,1.9049131564303514,0.5988751770466246,2.515692948450107,2.525114850829175,2.082071318854443,2.623191763628218,2.2091238239412725,0.2099779371001179,1.1195804288434734,1.0375408666396848
123,-1.9152981078526925,-2.4117933065148756,-2.750735203723072,-2.0487504717283334,-2.224694415516031,-1.4023988515227295,-1.4519308341370256,-0.4133087854130718,-0.7724507801382052,-2.7044905965179775,-1.1100595658995638,-1.7945619801818031,-1.6051368989618593,-2.50098772621991
124,-1.363937854282394,-0.10564075723733449,-0.42748514340643146,-1.712716320577643,-0.7701688006815993,-0.06867622400810316,-1.667152194802876,-2.312600680850497,-1.6052838824482323,-1.2250811937622985,-1.8708807311430977,0.6793709336972579,-0.1513844317927393,-0.08293841257543898
125,1.2556724005038122,1.2652490013681008,1.6074775057437676,1.2591652616481124,1.333497863894548,0.7014284472966785,0.9944576385395462,0.26171580784581466,0.5510553166210217,1.5054889563842064,0.7243131333952125,1.1706551652171626,0.9928982311090915,1.5227201534090407
126,0.7973087184501831,-0.3669613423906988,-0.4484362830683452,1.1425745252000468,0.032201154772288784,-0.23325087409826772,1.001491170392582,2.0773621271450935,1.1763988625699824,0.3666442113199054,1.5666903093322853,-1.3411786363696505,-0.5309804943851478,-0.5955301140035875
127,-0.19818428369272884,0.08766477822762964,0.04966899699568541,-0.055401398227073066,0.0264284740058893,0.1492181213216316,-0.08793381936717673,0.009829739804716882,-0.05326567757246063,0.2025131070443701,-0.11627513840708971,-0.11569538520965907,0.024639219954185332,-0.12418875350183538
