,AF3,F7,F3,FC5,T7,P7,O1,O2,P8,T8,FC6,F4,F8,AF4
0,0.05633065509959586,0.11575817780428546,0.12027649625096276,0.019840527761386815,0.018404642001235937,0.06857003351875485,0.050711663103753066,0.03804271439895992,0.0642401686012194,0.11293162364090403,0.12993226260000698,0.1310475712245074,0.11294784632980767,0.13442071008942758
1,4.537948878383584,3.081909817126273,5.589956873275006,4.63764650785534,2.4770414388195183,1.7228608131967682,5.17733831158474,1.9411769072822178,4.604659739649331,5.5484425485533375,4.2896075043418325,4.125562302729764,6.532084340232912,4.5465738236903315
2,-0.8893354500897608,-0.5702400896058616,-1.0436031352080208,-0.8054519959987474,-0.33392217569082894,-1.2852573408621613,-1.40492462035579,-0.26146892086707985,-0.9041584309896477,-1.4293988198602872,-0.3960548143018687,-0.2919610790990632,-2.074364725082031,-1.169389836367029
3,-4.306779356130238,-3.0279510950730963,-5.561422869799424,-4.468969852699327,-2.398459630841063,-1.3780108352190663,-5.106455997626972,-2.207361315951514,-4.575105736842978,-5.228417220559509,-4.509405504036271,-4.468839306639293,-5.834355171157409,-4.78602722033312
4,1.636116675583386,1.0159985961931557,2.051200563606798,1.5484927725081459,0.5934334353866554,2.295286569013106,2.8411962939842756,0.6887319898798626,1.7980219801038497,2.6065695928051515,0.9155080901334616,0.7428349627234556,3.6911496281734357,2.5138081996554416
5,3.8697075746993805,2.9289325779987845,5.4157797169864015,4.1332746479426135,2.28838584565211,0.8553920291599576,4.848861841212967,2.5851571259199755,4.500116454656577,4.672947658728931,4.775412657386748,4.960691502630394,4.625217109468906,4.94949373461366
6,-2.212474528334507,-1.4641553041577517,-3.1695436977880727,-2.2046203685402217,-0.7959133077215678,-3.0097081255625233,-4.339378239774266,-1.4143890344131451,-2.785674785185385,-3.5744638164589158,-1.8145635656799208,-1.6379634136468264,-4.736520774611755,-4.249277754342013
7,-3.278997924132237,-2.7409261746016167,-4.984793239665845,-3.633326630691151,-2.180636302050502,-0.2917409118381596,-4.218133117107036,-2.7913372317569247,-4.250040004631695,-3.930544321012413,-4.766119462225713,-5.253130526622231,-3.1630245835949182,-4.567652731159884
8,2.5428846087813257,1.892470309466423,4.288564661766827,2.722098854675239,0.9756572333381058,3.4337800432839702,5.703514451835247,2.320958693524971,3.809736488160893,4.2803161964881244,2.980403381511514,2.8902749248580424,5.124229822720904,6.082346725067254
9,2.6410595184235306,2.4180865565994165,4.147348575089803,2.9891465270522355,2.066903601437824,-0.21371585573116658,3.1242623564819736,2.6052801138754997,3.7071369763150006,3.055584912017747,4.226367481206413,5.04657629292006,1.7322940557446778,3.3305885848106764
10,-2.6091502115980885,-2.242175409349107,-5.192536695229476,-3.049857754069459,-1.1644462247400378,-3.6319478226789697,-6.625296830597495,-3.122703656755312,-4.720257481227293,-4.68903552740056,-4.112628127626199,-4.211024497215388,-4.922525376728131,-7.452827663393173
11,-2.0870930981213593,-1.9378900948917912,-2.90886452177596,-2.245168314960205,-1.895999732011984,0.6310886419800731,-1.6767589855793306,-2.003188494122866,-2.8337906152138355,-2.1054936312101895,-3.0983850316645873,-4.224667099911756,-0.5585424569961152,-1.3112749595380406
12,2.4841442366282775,2.4292976117890666,5.645481508059801,3.1503195724281414,1.3489374258128957,3.6686986246392306,6.831870898811036,3.50909605752477,5.32324993719653,4.780808240040067,4.862320819918447,5.238073904235533,4.314306434689414,7.807408499432496
13,1.7023199896157408,1.3188867792746992,1.4175877830675363,1.4674204802201705,1.6124081584788028,-0.9828052215256508,0.17975060319696345,1.1881527238229146,1.709540165221251,1.1375920714501846,1.5475879290434018,2.8931589567067717,-0.25608588806338806,-1.0162381186014786
14,-2.3071318024353005,-2.3654059831074075,-5.483222338298837,-3.0101522687069253,-1.4581616376817161,-3.565006222778235,-6.235609208905284,-3.3111155519122177,-5.451588480672845,-4.54331293032879,-4.976139072697018,-5.678781275750634,-3.512384551976033,-6.885206822032875
15,-1.4640998483901062,-0.6286997612369624,0.07994689478320573,-0.7334728152714027,-1.210925830067784,1.2935563989945043,0.9835486072335523,-0.498694337865975,-0.52519876421217,-0.21419668158807095,0.11054455981345693,-1.3223833141543102,0.741401622859828,2.970491102627962
16,2.200127654987924,1.9835728285106449,4.670839929701684,2.6453314388520557,1.39806487445951,3.296316987710422,5.000731375617282,2.6007632620320913,5.033526771168124,3.9665276665424005,4.377300582984721,5.399273868445533,2.6678623594820414,4.861341811935479
17,1.246260946669942,-0.017932600518578316,-1.3129937267484018,0.12044402290432732,0.7678937576379273,-1.5416404726830468,-1.516471308592031,0.24417977599429436,-0.46443315333101254,-0.5813807232671403,-1.5262174593547262,-0.15659638477456433,-1.0015696206456521,-3.95849109418954
18,-2.178188991262447,-1.2674145078651202,-3.311668782505426,-2.1013693778488585,-1.1175892629002913,-2.8311808360891955,-3.4882997011794394,-1.6713776520014472,-4.137081581416776,-3.055134246853572,-3.1665251881058776,-4.4380407599290965,-1.8230537520551646,-2.2808567804306277
19,-0.9030986462637808,0.474484178750382,2.055640383027159,0.30640602540449235,-0.4191623141242163,1.642852738890285,1.3362647437869248,-0.5531701128811376,1.0178977467687833,1.131595239392376,2.412697979762847,1.2425826375940616,1.1220603958842927,3.718197460579645
20,2.1238809347032834,0.2786653379649479,1.6197809885427243,1.4504713500829225,0.6643655697721331,2.1872816792767353,2.109873735496077,0.9115053554921566,2.973368265202768,1.8645677577312454,1.5729789067515387,2.9709302466778222,0.9398615309064347,-0.1682476053165928
21,0.38303823849098145,-0.5975845760674554,-2.173374635733032,-0.5052937851683155,0.2873596941681037,-1.4801369602183363,-0.5990048529463922,1.3094499363914816,-0.9936211800267336,-1.299510308854084,-2.598251332249103,-1.7146098014000246,-1.1008129099050799,-2.3965694766039456
22,-1.8570966028129146,0.829306296518885,0.12413282204236221,-0.7845168633350188,-0.18625202331966056,-1.4721773329792935,-1.1688620942177492,-0.6392162692958198,-1.8502446237746824,-0.5421699088005407,0.10314624486363355,-1.26947732383656,0.013537655011728551,1.9182859099833345
23,0.20947533273786337,0.30159392157870485,1.6486812312699064,0.4696423726954318,-0.3982427714472364,0.9700265144512089,-0.3819235825170034,-2.1994959423883005,0.41695481085274966,0.9867372740405588,2.044758245250769,1.45737245375458,0.8535495699242637,0.4502351593636869
24,1.26206572174116,-1.8307197307541145,-1.6228665115492205,0.200766542039829,-0.13634978734459943,0.8796149551885805,0.7674938899415106,0.9759700021015344,1.0815192808684866,-0.6664961296114844,-1.538120532315327,-0.3306993322714669,-0.9783540313624869,-2.6993969777261033
25,-0.6557323475700643,0.3843076163689463,-0.5916819513831142,-0.23528962626803857,0.6432486519963976,-0.13669981599556444,1.2710679872504866,2.8382879218986488,0.5018606033368261,-0.2155604686718193,-0.857402076373713,-0.4907019194345162,-0.29475498243538706,1.557678801591141
26,-0.3867390851694895,2.490523596908943,2.619505530911345,0.21963221563887675,0.19630594539456386,-0.6283926539275912,-0.8109536019391846,-1.8077533087359277,-0.8747681252986174,1.4792473265494421,2.434055295575403,1.4703925269507725,1.7881068533150348,2.57335715223744
27,0.7485256004133463,-1.2903074599166806,-0.7686077472153485,-0.12409434390851841,-0.825696157577132,-0.8480684065698352,-1.8289287186496743,-2.911399815050437,-1.4180178432548947,-0.8184999929613186,-0.7102722816148741,-0.9933601669825771,-0.5599352344373744,-3.1613321319128262
28,-0.5566882731414168,-2.6577795566554396,-2.95927729369491,-0.43316554414912434,-0.03780660883014046,0.8590290833551479,1.084184288657311,2.833145716933962,1.2372695570543575,-1.6976657036828318,-2.588277768121291,-1.8442157446547376,-2.2403786594919444,-1.8411819699511076
29,-0.4215442652357141,2.143223351978832,2.126004416739812,0.5163493868692698,0.7763597570425228,1.6958303699256814,1.9672100957303007,2.279935545397063,1.9675347406447758,1.7795527125632076,2.2797983837406166,2.620478931406142,1.5455897852956881,4.118999828643189
30,1.2953588086492729,2.346317907936644,2.6385904017071713,0.44400250017755555,-0.15408389802754663,-1.5355450858603017,-1.3488320260785904,-3.6655312413353425,-1.94623688765073,1.32473551413471,1.9758239778458555,1.3133020333476233,2.2157562843858356,0.8873005901225078
31,-0.20269375797551203,-2.669056176598123,-3.175761635583062,-0.8579801976390505,-0.4708674497747128,-2.1097094974218367,-1.739281523830441,-1.0236070830772006,-1.9132009225104623,-2.3203716827523073,-3.4279849205324617,-3.897153036258866,-2.3971928963617306,-4.434094655734777
32,-1.637813325254099,-1.7500961685750778,-1.8117453155878307,-0.2956684673513534,0.16210828386844736,2.4147786464066465,1.4184174764709876,3.951909318828547,2.615055289575091,-0.5986504609197165,-0.8037663109505212,-0.005747580495390813,-1.7646061067676053,-0.030084074179720765
33,0.8763486153653364,2.7188140588297496,3.70662031784405,1.0948004655754722,0.06632257685652058,1.9288254900437036,1.2928650382965239,-0.5788645516556378,1.258603022651147,2.2503859246456313,3.821306281942373,4.360278005760449,2.873022134975315,4.28489343154496
34,1.564454942614058,1.1669611873496937,0.7381023321797078,0.049466749620691426,0.11545359399444986,-3.12275227642384,-1.198753108258245,-3.480494752065334,-2.8460256004987863,-0.099701806675918,-0.5142818724555049,-1.6663381865734834,1.0994143889260377,-0.568886042971132
35,-1.3565584177264596,-2.3475957811043675,-3.661698369936403,-1.2051270070417643,0.18266830922369195,-1.2315462142317768,-0.8128306916622587,2.1234534979548623,-0.2652748002959654,-1.6446111782783046,-3.3556246371984186,-3.7661817589371163,-2.876026918452558,-3.906076373980258
36,-1.2147820298054897,-0.8577117271453603,0.31299734956849384,0.23545661852332436,-0.5757507376953335,3.318361868389208,0.6996416883269474,2.2545383649059865,2.407019958850593,0.42990405706374213,1.484009485754728,3.11928889426523,-0.4921208691470105,0.913289279187371
37,1.5175919644474334,1.791963043594479,3.13315559684766,1.1880450799248792,-0.08864915012650375,0.32741136943992594,0.46682529781860954,-3.1953897869293053,-0.6526105214803604,0.818360657080266,2.226847256240444,2.2255124108950914,2.4962034594260243,3.4776573686785945
38,0.7910236473561181,0.914270235577239,-1.1515937233525266,-0.5077390545407351,0.9526189512146298,-2.8637970703238866,-0.02328117757679665,-0.508336606922396,-1.3406717453553316,-0.26557636303592264,-1.7189318988433155,-3.817885846889322,0.13886360476388332,-1.1089409940585817
39,-1.3805819374768076,-1.3470242668086223,-2.2945586676079275,-1.0516528243319911,-0.32707368186845337,0.37515224487716364,-0.35745953267092756,3.498914892838417,1.1130790186432187,-0.17023737471879757,-0.8784887989983118,-0.19487350226987016,-1.9488151497488468,-3.068776760530355
40,-0.44919099164179943,-1.2154363472977734,1.7037855744806607,0.7164841592832364,-0.9776516024624239,1.9044530280991232,-0.672232092324849,-1.351798191529778,-0.05838953946789026,-0.24470603679083874,1.1066648099016863,3.5078277119855734,-0.07461323952689079,1.2700629070890126
41,1.058634895859044,1.2081020408933514,1.3143703823972654,0.8153646877527292,0.8180492344303657,-0.5630490193937496,0.4906818615136012,-2.9599162109335904,-0.9344255594281341,-0.021895581687414557,-0.16744179243086874,-1.699015913457413,1.4502895667254165,2.6539443151969344
42,0.24537008206699698,1.5010837870155702,-1.9839863725334455,-0.8064781685932259,0.5644644463890999,-0.8068956106681072,1.2316586691876321,2.872963762652018,1.387582328889472,0.7673893047800319,0.13348720270949954,-2.3372686303168377,0.18498208256981505,-1.4472768068358446
43,-0.6702157466238579,-1.3682355904551262,-0.30282641709700986,-0.5251764096610825,-1.0487388612981423,0.1703849865363969,-0.7776108572827731,1.756780650008777,0.1958938701641859,-0.26398860940705143,0.5242853919475227,2.9324898187608035,-1.1095844007173659,-2.1802640808970764
44,-0.15584286302010456,-1.5239962380706442,2.033892438901479,0.7318703744731764,0.1086525664619723,-0.015363007557827865,-1.5640013443056313,-3.704514572673893,-2.3176989818390314,-0.9721117047434646,-1.5376846870529917,0.7888227277962795,-0.29902048332364417,1.612964204261857
45,0.28336270649444734,1.631258570033177,-0.6838446348347975,0.26368086296381604,0.8067586761420233,0.5946856525095265,1.077892853253997,-0.2598632838218922,0.8326865431244042,0.8027215404464916,-0.09836520165122631,-3.319053844616671,0.8964723688631948,1.638166694433351
46,0.13613687391298607,1.1909465870109268,-1.877035072897594,-0.4878784617415058,-0.685404287489835,0.29461329767355915,1.675025128732617,3.709827935078785,2.710635518804676,0.7075219334470533,2.5916152796480723,0.5567841259850154,0.29908030448036066,-1.7036738349000469
47,0.08268781135887855,-1.7305009421239297,1.6007599891183673,-0.13379200237265237,-0.15445497520809634,-1.3591221733694372,-1.2667938818925435,-1.0974788567761378,-1.8352678479505347,-1.2620389825612284,-0.8835551772674252,3.0773099141426674,-0.6950366670714029,-1.0906946710695213
48,-0.1660664973169791,-0.6130412628844052,1.5186333704135284,0.13883515868266377,0.8447009353526461,-0.019822419386232852,-1.650848572599745,-2.9961267092176223,-2.62375773141945,-0.06599463600883723,-2.940260968472076,-1.3075327085104411,-0.18095153549269344,1.6860005718004145
49,-0.41940866687815714,1.4816702955924397,-2.377054163820175,0.21259345819007175,-0.5872178238548594,1.7655997207132632,1.2882929212417829,1.9609754497124596,2.575975352082823,1.385086373238293,1.984626211189066,-2.6912195364245255,0.3982862368376025,0.6447139581001966
50,0.25221551848631696,0.04204935375972497,-0.9815936004014947,0.1863687870035868,-0.5077180542689904,-0.5833397397469156,1.6034122564897046,1.8576308722134016,2.2284078612431615,-0.6895322687529523,2.519094537281686,1.4461675150334687,0.036370732660169935,-1.6008451635953165
51,0.6967710418474529,-0.8837230909775261,2.9175550556729966,-0.4983867763866732,1.0234015762319542,-1.6266141714077575,-1.1640168105481719,-2.1547968092166103,-2.947497242890423,-1.1083832125040678,-2.7480808081723227,2.6343119743274346,0.018928772094427088,-0.3836247625353074
52,-0.39918336159965057,0.26492581897370737,0.34177485353984116,-0.34340764988885797,-0.0981835474347451,1.1777207496417121,-1.613708094107366,-0.66522963317165,-1.7146409586709122,1.2794746611204468,-1.5566601715500028,-1.3158777677186777,0.018789780106648748,1.555817752714132
53,-0.8635407029916743,0.11778028683095922,-3.1429142304391067,0.888374642727239,-0.9270108614514024,0.9797261365360989,0.9589297460835569,1.7101536821742251,2.947207857840542,0.557750670740593,2.8790342077184907,-3.1040491771954266,-0.48867786875889824,0.3044460739052262
54,0.5820325937161485,-0.1758961443318325,0.27094280249456054,0.2459645454375757,0.5668726073889686,-1.4677603462322728,1.7064519539837557,-0.25049308844968804,1.238690768905685,-1.5441050510023067,0.46049471731272085,1.412676134913824,0.0817104563793447,-1.6674236921984222
55,0.87442595187935,0.5469161493294814,3.0377830693804917,-1.211356072775356,0.3843598278846656,-0.035231712903098046,-0.7328012992923753,-0.8281387869159859,-2.6311319255573733,0.05514765477379909,-2.34429708080542,3.9077333906799874,0.8957415807216923,-0.30030216968437556
56,-0.742661057013991,-0.2552125013024892,-0.7106347689405286,0.08011935478730886,-0.556688864092061,1.3022847767236043,-1.8641360944031835,0.6870115072186823,-0.9170785580732741,1.4898559395705797,0.35485150842156044,-2.093736360455908,-0.321775561269869,1.986410720107309
57,-0.7194021672490813,-0.8858086173435942,-2.673100449569935,1.3048539799193573,0.24909204243040456,-0.9339401632691076,0.5099603827858797,-0.19995722459135962,2.089355526593073,-0.5575560998178994,1.3605824209214137,-4.56167587342904,-1.14194276287291,0.20326780678642478
58,0.8088039290920177,0.8199338296796833,0.8688066131400329,-0.4993246534319014,-0.001260015669069837,-0.6932366044764806,2.0624086197783256,-0.6108967811395526,0.8316466531761468,-1.2401223038606057,-0.6244935690658888,3.355485634681582,0.6191714251794591,-2.452668903730563
59,0.4363306018310067,0.8251851400655822,2.189851900729682,-1.0940495165840138,-0.556159581744719,1.693016683320763,-0.28129624261733555,1.089073216565628,-1.4454931592294764,0.8871351243258951,-0.2894516376904982,4.553965426365225,1.1892541965364105,0.1342601840777121
60,-0.7205147059178957,-1.256706186488225,-0.7133394047494022,0.8281638134644956,0.8576209613236855,-0.2291800918894675,-2.3007910900380337,0.14633673859089447,-1.0146267002506426,0.9426623875704919,0.31763576087036854,-4.800792253387742,-0.8674097682066673,2.9095766115630264
61,-0.10512942494854617,-0.4761855318760767,-1.7570984962205476,0.6261323156950098,0.29999786803849654,-2.0976834280604013,0.03103961177791365,-1.6485707166389798,0.849815176911685,-1.0865692778290914,-0.5110495817401881,-3.6352842950226374,-1.0678153012221927,-0.766736252098078
62,0.45271951623184425,1.3734764295449398,0.2982612461043786,-0.920509659821217,-1.5862425561861462,1.2786407778192677,2.611434234180073,0.4868982585653646,1.4199624671915683,-0.6953705457090924,0.3730799998077799,5.8183981634995146,0.9750714745444581,-3.1694592939397617
63,-0.16962741115562413,0.08585233485106596,1.5267305836585776,-0.04230433963678961,0.4450596875019522,2.102455516038159,0.22942726938197788,1.8345697252951532,-0.44083066050374264,1.249867489583572,0.8201578104621348,1.9851399357532669,0.8609997756506758,1.6321517429800132
64,-0.031234536924295925,-1.1385754889356083,0.2505489306725957,0.7279501498959191,1.821892802977222,-2.2603943795473613,-3.041645518313783,-1.0693906227218808,-1.9165188375127737,0.5192731411532455,-1.1237728207793418,-5.887566708811979,-0.89158497519254,3.0885390705158655
65,0.28464800850465605,0.07210453852585981,-1.5987410337248944,-0.4911720041347733,-1.3450957189353556,-1.7521048913893098,-0.438684799168086,-1.7418131071332332,0.2862083617726007,-1.4642311105018322,-0.6277268990574388,-0.16219180849754722,-0.6834476084868545,-2.5829657672958666
66,-0.4601297169083286,0.7017651058089506,-0.7608768272586292,-0.30671541707477,-1.4512666745982568,3.0051792420017303,3.6164079717770496,1.4743004284711896,2.3307561073029444,-0.3693514030805851,1.6133742804619844,4.853566924703177,0.6247277828744976,-2.608869940501944
67,-0.17264398040206014,0.1785776059358779,1.9974412402081567,0.8509639625001958,1.9983293681101184,1.1711641957756977,0.4879736709702383,1.532310022875171,-0.34475680863326125,1.771297658299995,0.1256417549453572,-1.1425449723498573,0.6538420464623158,3.4387780792113913
68,0.8902651420255269,-0.33471846479327216,1.044588622623482,-0.22225258620939228,0.652779798862491,-3.40540293998854,-4.296412038389477,-1.7090026269424607,-2.526892015709977,0.16161642779666893,-1.6495074947450312,-3.0317009093408793,-0.2522516628979011,1.7583113089495142
69,-0.1615776304910569,-0.8300342618817338,-2.6552030456486353,-0.9913170499996268,-2.1467479134161858,-0.5407472489463777,-0.2571520535144821,-1.3342043757333375,0.4860790386804048,-2.1475707786017044,0.3757748807785444,1.4286151032952743,-0.8557179824159594,-4.023969292582015
70,-1.1180183606070726,0.31266589686547797,-0.9365567410833489,0.7300894133000021,0.22217916352545788,3.4539022847823118,4.955219467656132,1.880003322081831,2.4765468444001515,0.1932010201003675,1.241691775041417,1.0841104131966572,-0.08517655479670917,-0.6358454075223794
71,0.6231148468862121,1.6809639093168645,3.40811693950205,0.9393208434090536,1.7890648579066157,0.045130844280836704,-0.32368322157601176,1.1686917582971759,-0.5655630845446062,2.499528786871664,-0.5749357821600417,-0.6247391146597224,1.2912002541724714,4.185228726340682
72,1.0504181650134787,-0.7859036869367582,0.345809182363768,-1.1243252349915458,-0.8436416317474007,-3.2586349972032,-5.398406277742125,-2.100670102653777,-2.269658988984407,-0.7482922649361012,-0.595879242487096,0.271135592492629,0.2262610037101999,-0.5893379178306147
73,-1.047252124976217,-2.4140367873343522,-4.017537141196026,-0.7656344132519395,-1.146048523454416,0.20508351310321699,1.2148235401340233,-0.9502859045599612,0.5109506562577744,-2.6787576844585566,0.30391300038100616,-0.872885186705588,-1.8532376351954127,-3.8162602627373845
74,-0.6965127367711853,1.6989866360713795,0.6908460407041579,1.368003690795552,1.0592131100062014,3.0023961043443803,5.429657002649065,2.400254658244466,2.055566483747308,1.4773343152195613,0.030673418517508374,-0.5768341739860114,-0.06273617473537281,1.6726639858851693
75,1.2607023744585557,2.7305024373747777,4.229917190724793,0.5497218206864746,0.5164302987215719,-0.23242046216732598,-2.2480382159252073,0.559071273922396,-0.36569367634984606,2.525525573859474,0.3957985275535199,2.376412645407809,2.3469546301976414,2.911430442057878
76,0.18372790575206283,-2.7987510712917523,-1.9797205112510385,-1.4764777052839642,-0.9347423596391788,-2.8487617430891135,-4.938406336467741,-2.6927432509605707,-1.9490559290897576,-2.249176493259604,0.15699034201766598,-0.16980080089492738,-0.3897812258314422,-2.3234665635212015
77,-1.160304493980378,-2.482720640702743,-3.8690028779479544,-0.3513794073473337,-0.11499797487789523,0.1861368680411832,3.171712063070838,0.06426779480224169,0.2615476294836542,-1.9357644031322037,-1.280399859566464,-3.2067879152753394,-2.567613132604935,-1.6273325859255992
78,0.28203674427066155,3.733144718495339,3.19696925346274,1.49997729783869,0.6750214719089193,2.8413993336843366,3.961125885871131,2.8229635808999847,1.9577590452811644,2.8438216628757766,0.17290289556718574,1.5291807431746887,0.9707223251078414,2.2975251216186763
79,0.768973525063587,1.7416186982760689,2.927462055508453,0.1930319911532386,-0.018939777492300282,-0.2561549670481646,-3.746373521565979,-0.8627223068280516,-0.33739144984282343,0.9268396392606943,2.0004791442901797,2.977549224059525,2.40423037935057,0.2938000535869433
80,-0.5011003093660912,-4.197799411377721,-3.982875394213582,-1.49817479365503,-0.4842896667361801,-2.86333736846439,-2.675188348198468,-2.65599173904877,-1.9718359886487664,-3.016956679266831,-0.9257044953169807,-2.8188014900788256,-1.4301991817315556,-1.527108878118568
81,-0.2346389498975586,-0.764553106042463,-1.6086311149748143,-0.05539048153018212,0.003830953655100513,0.5487355257578795,3.840733506262201,1.678444110066074,0.652070911241249,0.33145335301685525,-2.256760554839316,-1.7402361743855168,-1.9120288116130404,0.6732077365750728
82,0.36950419176510263,4.0603055419822365,4.0777393940459215,1.5120593491091523,0.4504316415200372,2.693717110049365,1.3224727294252558,2.1517441769664765,1.8181531270735003,2.594894761180812,1.7968543110203539,3.4005934808404783,1.544603538552367,0.21102687550599195
83,-0.23384481849867506,-0.12147160821309798,0.2808505923017704,-0.11069746857321787,-0.01318122005550909,-0.9986892646876436,-3.471833642461466,-2.323366576424798,-1.138180962696215,-1.5450958485144333,1.9489589058917849,-0.058788549990727725,1.3045104261447047,-0.9435506256616378
84,0.0749254651433813,-3.4010863192987864,-3.439817778805666,-1.5413580556137259,-0.5140905935845629,-2.138752237258007,-0.10567435590918374,-1.3833882562839415,-1.346060500381899,-1.5616536016029279,-2.4030600500122734,-2.929417737698139,-1.2347121436079886,1.2136136386870762
85,0.4635649373647192,0.6615474355029745,0.6523255363500893,0.3567409146680573,0.15536569075123002,1.3771601561605797,2.7656683583087185,2.658124506877828,1.616218810194724,2.384290584037145,-1.2398730295170601,1.7764356099914402,-0.856708803494586,0.4475498559844452
86,-0.6777206464784119,2.453153820586118,2.281398473537494,1.5383187833653982,0.531195011823902,1.1636897540959605,-0.8799810148968455,0.49823228326658386,0.500878953436615,0.09537000917349817,2.4665641040196933,1.465489074247275,0.6177608234048438,-2.235561642563512
87,-0.3946721027150293,-0.7664965664017565,-0.9138999297269053,-0.7019184753079606,-0.4067212275707592,-1.3985570778136298,-1.8664459498709551,-2.636047434324495,-1.8556029422022589,-2.6044572999359996,0.4880279056674781,-2.8325773895115716,0.7638743791389326,0.5527556615032536
88,1.2512391026810499,-1.4778622333895264,-0.9936620314834241,-1.4253611453260564,-0.3844993426690608,0.05205468627825012,1.6400381483700528,0.34722239910043834,0.6438509226920891,1.473391856569138,-1.9580673227873577,0.5818770169353112,0.045158560383198994,2.500909042211375
89,0.09398528357879629,0.513094576447764,0.4693039575712905,1.107132878116964,0.633529945035803,0.8716305211205762,0.8566725948708018,2.297506365499922,1.6512839599714646,2.1494422940413753,-0.07169598403624032,2.9217989519462444,-1.033395066976014,-1.5561103386596873
90,-1.6671578459757208,0.6481696193237653,-0.011356573616250375,1.133856608045677,0.07463126086901777,-1.1718477790600605,-2.210751056265272,-1.0390360498716134,-1.8986508944408134,-2.7758180772125582,1.1140431134065876,-2.641135530529829,-0.48634613646312774,-1.9899018219495392
91,0.30064997054290177,-0.059571536593346415,0.4640182534213457,-1.4742088723824691,-0.685816449246143,0.1862168712015634,0.258943812203091,-1.730099869072466,-0.8881817666010039,-1.1837566805917805,0.19634233656684258,-2.0960224515740595,1.4776132419362096,2.0463667506901406
92,1.9024404810365037,-0.0037762020249904136,0.46664249643127476,-0.648619718080103,0.26417512655603836,1.8442556018674074,2.5802497458584437,1.5215455046495359,3.000733128342939,3.5467648705299406,-0.3116317157814919,4.207457595687357,0.578541335847126,1.0369581482263615
93,-0.666914959525991,-0.46588931207953205,-1.5195927017434745,1.677364358161375,0.5048849878567598,-1.5325721523065448,-1.4988332571566423,1.0246509780255393,-0.4192210606952226,0.027462042138654125,-0.7957296798573632,0.6967305615579241,-1.8199803885672936,-1.7361510818794745
94,-2.014528168274858,-0.5030332199884596,-0.3431153264102294,0.03503594398564524,-0.4336611719193297,-1.8592195519432402,-2.6598287317246285,-1.7789935861745072,-3.671224457478445,-3.725821251205024,-0.12898996291035233,-5.014147492165143,-0.4027181282912326,-0.17667369996233515
95,0.9577535336843321,1.031028912064003,2.3441166968947185,-1.617909156511204,-0.1792757407306181,2.790948433613453,2.8217144343889085,-0.2526548383556937,2.1128537680526254,0.9824652579424733,1.5830191489745429,0.8174818426467853,1.8555936349747926,0.7024135644505981
96,2.070249471533923,0.9097938299843373,-0.17120112320156614,0.5704042279712264,0.2869508159361383,1.2411384536058994,2.328298149314872,1.803896235959376,3.678901696220455,3.4612545979539937,0.09893190182442245,5.081084744595632,0.19063565582348493,-0.10536898131239306
97,-1.1974057056354255,-1.677330197635501,-2.7364318098779283,1.2777366063592364,-0.08638507100755133,-3.6036747967315943,-4.076879252228312,-0.5260823421963287,-3.902243447100249,-1.6342133957073837,-2.2148929826588697,-2.0592318827578966,-1.5665873724049035,0.6533189117285927
98,-2.0841686130155193,-1.1684762580857184,0.7851692069664915,-1.0089615820543352,0.17645490354754467,-0.23679687948362785,-1.522897019667795,-1.578402368364757,-2.9072096173946558,-3.0114415277914253,0.27381442523975735,-4.638654040812025,-0.17566709236612113,-0.40909719342664186
99,1.4245293307044717,2.4276858724195414,2.699267301445796,-0.7421262828286739,0.0753491886796484,3.772947479720257,5.027137164251195,1.2374321555607715,5.406780281231001,1.908444201484172,2.4646607445267317,2.831707511371929,1.1173035345488722,-1.792456530891515
100,2.012165636642939,1.1539279923438304,-1.2452037600157113,1.168723738888597,-0.7916056169093115,-0.7901744817748731,0.3202142021579243,1.08548601106255,1.4159404439994898,2.600576005517502,-0.7269443134588413,3.984952982430754,0.44927628134947684,1.5851150975822301
101,-1.6327670238792522,-3.1957296106441424,-2.3923201790008877,0.17363707223662805,0.32056103338129927,-3.3274878766962535,-5.4394156531190285,-1.7745102774464971,-6.237443401538173,-1.9358015239801052,-2.306295758408423,-3.142123394172227,-0.7343085548260248,2.2763066490891872
102,-1.8017428960916377,-0.760185590581557,1.4310593086973487,-1.0398725234981767,1.2984306266753909,1.5036733991287539,1.044611603282335,-0.3461106553520751,0.5249108707933966,-2.3154391733183,1.0157077909910945,-3.355114203386753,-0.9192946011689974,-3.009470561740677
103,1.7598326796668788,3.776707428843233,2.0278497154965556,0.25666578587818184,-1.0299167437969146,2.4934716734553484,5.1987770069755275,2.011124466875911,6.114766400238854,1.879238381770442,1.880656775966996,3.1320353296428807,0.5574276951935935,-1.9418539489996371
104,1.4552214800175411,0.01970628169605637,-1.369992233875961,0.7247318018750424,-1.4655523854223171,-1.7129632144849263,-2.23997501196391,-0.5431844274052268,-2.462077867511468,2.1018485702470824,-1.019367876553506,2.8561821713600946,1.3943765663045744,4.178491907109104
105,-1.7363758018309732,-3.947832526952202,-1.7716695781636982,-0.449338466302126,1.8199575927559035,-1.5939743450451704,-4.386775138518811,-1.8518304261879184,-4.9933374254963026,-1.8227858197707623,-1.3917254937780699,-2.9802776680782994,-0.5678831995261194,0.9471428241750313
106,-1.0508287413228339,0.8499910744152902,1.1823148221853788,-0.39204563313330887,1.2028151037909354,1.42079051399558,2.9600281145998166,1.4057539685974862,3.869999995314611,-1.8504847215061024,0.756928136776443,-2.47330486009814,-1.727006369347916,-4.706766931413667
107,1.5561399729021461,3.623457924066284,1.695196136680028,0.4263573628245439,-2.3954666983550763,0.9271789091792828,3.2788282298568814,1.2957057294752665,3.1361026831626737,1.7375705638332983,1.009991097107401,2.8265504686740193,0.6401399659315807,0.317775449901612
108,0.6992395558562271,-1.5289333746795601,-1.004487432512819,0.1941747332081509,-0.6051467775529802,-0.7957589566555855,-3.0541380871890844,-2.0319326328138083,-4.331370526740395,1.5028620275172067,-0.33489104082119603,2.1186189143433607,1.9058331605153591,4.467262587112395
109,-1.3089723033449832,-2.956698110022365,-1.7851208279568775,-0.3213297716283847,2.5269740914888694,-0.6718041747697832,-2.2512536826995952,-0.4733499318883819,-1.0788767502953058,-1.5361779340417119,-0.8311173092360129,-2.7337933990597985,-0.6696748363504453,-1.4019139999205232
110,-0.4644430159878352,1.7737488887002033,0.9352315826133464,-0.18796891732865417,-0.09114345060494784,0.09334643108033736,2.6009812590836305,2.2644069126502746,3.7218020831540866,-1.1024221027435723,-0.11592510562039059,-1.6901225346410307,-2.030150476462006,-3.6138673068987313
111,1.144491062854642,2.3005696619401967,1.9839464977253711,0.31105456171843754,-2.1442757892300257,0.8471673701070537,1.6330055835446136,-0.37644679787639135,-0.5359047661812918,1.1643359699320017,0.8847905863537466,2.684723247724269,0.6725766949703877,1.96774247781354
112,0.30732422096367257,-1.5831701300407097,-1.0228545378346534,0.30159254116937184,0.6118900606408273,0.4376165997997795,-1.8850320016021076,-2.0789100596597367,-2.303776697285083,0.7633358903769127,0.4734371453122112,1.1221770827417052,2.1918388769239776,2.4929576039846957
113,-1.1857977440467702,-2.030756286843362,-2.226077383449386,-0.5213012354194275,1.3546315140667047,-1.3301062458985757,-1.569302215698407,0.9925401317266681,1.20738299674564,-0.6598679381538857,-1.155872236696571,-2.6042869319822284,-0.7770865247899991,-1.9001976085098609
114,-0.09522628498366928,1.2352694793689014,1.2811345899775404,-0.3674257171876958,-0.7534493119931126,-0.6301771421121095,1.279235535824229,1.6106249073213323,0.6585441431977603,-0.5902813966175903,-0.627469262356001,-0.41933860347597696,-2.3608449603015127,-1.4943804431321976
115,1.4490962733058899,2.328100621658178,2.4500172017179103,0.955118661980211,-0.3882185139312968,1.9123494724592052,1.9640070772034006,-1.2028752018856543,-0.7968584325732775,0.1415085698843141,1.5870594526422657,2.403430240787124,1.110961426634825,1.318255655682338
116,-0.32561867523355975,-1.1577907138657428,-1.7072210631997262,0.20628024687052388,0.44773090196697435,0.43652865456131174,-1.087151307924387,-1.1014203991333498,0.5392581140644908,0.6109298913984885,0.4821871438621159,-0.3367414722662743,2.366929431989513,0.9071276836508436
117,-1.820363731337285,-3.0530932488866647,-2.591525640861593,-1.4812104362342033,-0.49199575549795405,-2.3731549923088266,-2.529996696928392,1.0025691025975731,-0.39566643526464174,0.25633450096604127,-2.064730089733216,-2.0334287728336458,-1.6672791948657721,-0.4998761498060716
118,1.039143999897849,1.698479724474545,2.283000882245417,0.27960892007155086,0.23258403377116144,0.07648223141743128,1.4207496241832098,0.7878814256106841,-0.8102778788608934,-0.7641833209411897,0.017007024736555836,1.0181947957407584,-1.9992907491332326,-0.8311522062094154
119,2.101921181791904,3.7923114757355556,2.577325357622069,1.888320830547902,1.0726302729670159,2.5426227828692594,2.920959949282241,-0.5519421589720127,1.7530866567019863,-0.45342587844253684,2.4169782542944658,1.524768756072024,2.2486808458741976,-0.23927188498820426
120,-2.0024272033269312,-2.925520793148343,-2.9610955692567575,-1.0515111417084624,-1.1135957593476264,-0.7635463667930887,-2.1702713394434143,-0.7881842997172119,0.08238553806313324,0.9429830527838489,-0.8365421781164424,-1.5142091261251485,1.1613299287883492,1.1676226360801705
121,-2.10048231808646,-4.054337702463136,-2.336057174384506,-1.9774574040329278,-1.2398832551820385,-2.3392398602785853,-2.8774191217065095,0.09098153610888415,-2.6134415212048365,0.4543429045396858,-2.4522288342944902,-0.9804450978607435,-2.537846421546869,0.6644303914153391
122,3.050183293876151,4.569111638423141,3.652375833749779,1.9421603852009761,1.9779710954714276,1.450773994847021,3.071749621384505,1.0509592249449977,1.2828375784781725,-1.0559454782429176,1.8219438615660948,1.7936095721963248,0.02137434635227248,-1.6805388001956438
123,1.7103762311233712,3.5081585757033795,1.8271723111557039,1.646942251386788,0.9951677663678095,1.777307440009124,2.3186577708287675,0.1844516133894361,2.5634125401146686,-0.3287192585722612,2.037448774790534,0.5171870245380285,2.259666500743086,-0.6974499473695234
124,-3.9528381928936134,-6.13147314646604,-4.233002879994463,-2.718745252456487,-2.6219586803934223,-1.9814661349946108,-3.8279724156149766,-1.3951159765112218,-2.663619298289877,1.0677041908127387,-2.7179868363523725,-1.9212084950097184,-1.2137714041075565,2.101303400948907
125,-0.9558585036820342,-2.140645930909534,-1.0716507995965936,-0.9336567221592473,-0.44409809366198166,-0.9506393039278418,-1.3485665245931266,-0.2161644467962294,-1.6111257239668098,0.16251506738977664,-1.1781684421657133,-0.1888184226953058,-1.3425142943734054,0.4271363551760886
126,4.497065035035313,7.101638514018929,4.575864097514071,3.1686808299361617,2.903474846786707,2.247107369490454,4.219862640301831,1.616774198909736,3.464232229547729,-0.9992604735332647,3.251941101377594,2.0070922415086643,2.006145907907518,-2.2363736774020024
127,-0.018682300102882594,0.2624630246326463,0.16298947963360852,-0.0013021105676991015,-0.23567761655815575,0.0037834904903952526,0.19077751947459715,0.09613915070959338,0.15957701798540733,-0.014298679549734357,0.04759249882404797,-0.05106383135332061,-0.01462677135561884,-0.05405428486591539
