,AF3,F7,F3,FC5,T7,P7,O1,O2,P8,T8,FC6,F4,F8,AF4
0,0.055705120526038175,0.029004193606020436,0.050737505150335656,0.04865109673909255,0.029797464854439647,0.01106250855775182,-0.035219500334407225,0.028880337257909266,0.01684260924902173,0.04305996546095903,-0.02246501204849926,0.019786218963895975,0.014248475098806347,0.021441438896004965
1,-0.6391877430043876,-0.360536547125166,1.8427124575575327,0.16552234777822422,0.6039101146953706,0.3153393304822774,0.8710027018766152,1.3032454893137622,0.5550253163439787,2.6491251553136133,0.29927099421195535,-0.46746843033478447,2.6459124012249635,2.445007623934387
2,-0.3107757814469609,-1.2360673596613636,-0.9571137533244288,-0.6551050598130196,-0.06317084664989683,-0.5996303077657539,-0.37479387190476043,-0.8994269472507168,-0.6731104178560074,-1.187392849838621,-1.3196951027912336,-0.7757424283164028,-2.0499703363048845,-0.6662068955057886
3,0.7893338477075943,0.9771529892409477,-1.3668750769939078,0.1049539069216377,-0.6367379838812106,0.2781973789419102,-0.6366906340795144,-0.8902603719631857,-0.21130197212701785,-2.1347540923757373,0.19904972417552683,0.7811777741298469,-1.592989065641032,-1.9479280535920385
4,0.38866972044244597,2.023144618118646,1.529053042360214,1.0595696133212922,0.09592404777418809,0.792456909484302,0.6637161052554887,1.5309149641772728,1.0874823977220525,2.045236401428096,2.398315035228171,1.3440575487952924,3.388568641425662,0.9313473183871844
5,-0.9628899341280931,-1.9804056393455063,0.6232526990917246,-0.5034115682204995,0.6970987838249812,-1.1793276353333935,0.23069444867377134,0.2003885074623048,-0.30503448654739024,1.2806916425802222,-1.0672693878337485,-1.3123531381963098,-0.07621699931774861,1.1923329330694505
6,-0.2210796718277596,-2.1201431558725976,-1.5956862717407319,-1.1619974968164128,-0.12798475280306185,-0.3767240214777125,-0.7382413232214085,-1.7590204025577836,-1.1368971237611933,-2.4300151401467627,-3.019019316254656,-1.6004183598675739,-3.6257927519330817,-0.6142743866907844
7,0.9682047324111985,2.935955860159997,0.06830685129640099,0.8238519571132619,-0.804389309913279,1.971588513590395,0.2246426302939566,0.5366760969020976,0.7574114316318831,-0.3481614087146697,2.0812377602291074,1.896791646918861,1.6859430230169026,-0.575383847401378
8,-0.10652251215991178,1.5440718708623924,1.209461989644874,1.0187628715224062,0.1856816846405415,-0.568306942762204,0.5870690910004291,1.5640330264770408,0.8768668972088689,2.3196543173666146,3.1194090099270047,1.518106955719524,2.8087800869861526,-0.2063965943498012
9,-0.6699916727371846,-3.4337332638461158,-0.444032331319442,-0.9101763953294351,0.9609959287331271,-2.291565725372725,-0.6091710596865241,-1.0877461740439613,-0.9566390115395549,-0.3971709075489114,-3.0019881165338225,-2.3704236835685877,-2.619746654093245,0.44797893661565874
10,0.38605062990945344,-0.5810717194784799,-0.5997974347931161,-0.8094551357069818,-0.3136400773898131,1.7099850666633363,-0.274129251426434,-1.070924476133827,-0.5079302318083417,-1.8625122698127092,-2.772861106549594,-1.1641082978600235,-1.3901820994838598,1.1950500539747562
11,0.08609184434657109,3.263459298820308,0.4153595162135084,0.7510625821635193,-1.13116858705803,2.002282914205442,0.8498887105195427,1.3056011294168899,0.864904400088581,0.7935760707657243,3.6520904800351683,2.626591662273289,2.5836258214221215,-0.9380263281454907
12,-0.39258023649551366,-0.3479738514045294,0.04300768778855508,0.7296832917849546,0.5466487855792926,-2.623831674944646,-0.09867919336601817,0.48987807493021807,0.262739458856613,1.310688380508852,2.1449040674605775,0.6587760890383628,0.004450564346325814,-1.907080014095276
13,0.5890303180502875,-2.4966907149716677,-0.09005927098172835,-0.494890859195871,1.240246567222411,-1.2532691631020962,-0.9366333935617005,-1.1795341007658338,-0.619161817098983,-0.8526486571859706,-3.961512084107747,-2.6433504937004613,-1.7114039816968227,1.8695152873050327
14,0.016638174884074285,0.8746338941094708,0.27778342917305976,-0.8672362065450073,-0.8752075390054954,2.996247734786712,0.43550645036308544,-0.024006180309842577,-0.272690537153629,-0.9017475050656157,-1.422910170185791,-0.11958453662065635,0.823184981035521,1.9990033458673222
15,-1.059187252747719,1.4422761866428164,-0.30907170320146976,0.3679357489276428,-1.2019924389045318,0.39993676487013907,0.9078621777675682,0.8240372654368381,0.45550890037238223,0.748737118138508,3.965591716425848,2.4681008121832275,0.4671301667351364,-2.823972772444808
16,0.6480231102197966,-0.8384980950388047,-0.3480017642095769,1.1347948151809377,1.2265252429072628,-2.7687552736931718,-0.6757525731950023,-0.21276145563113905,0.48824266106053654,0.7408954104963953,0.7512045820623695,-0.380686381150754,-0.8935441993711827,-1.4035731036862642
17,1.0732166066656137,-0.49946244140256296,0.5763554949811683,-0.5361374781406482,0.9649693456265567,0.175427802614843,-0.8216968594756952,-0.41258341519029074,-0.5714823159998907,-0.7212107714520997,-3.7603353746300887,-2.1709534476330914,0.5992733344887339,3.3259450781669058
18,-1.3192013609947304,0.34363033239236873,0.2977041557968728,-1.3051959182203283,-1.478323991080667,2.1550143009586233,0.8005562696877363,0.22975886093745207,-0.7019166259720164,-0.7472471277570671,-0.20041503004221037,0.819023228091074,0.37522020344042084,0.3805229417859043
19,-0.5695800663570983,-0.021684161759896462,-0.6293761065436402,0.989746733682441,-0.5536844025658907,-0.25161410034640475,0.7310000957804726,0.09126734679166566,1.0030205884401482,0.9322277860664735,3.442965706932032,1.7989905285236465,-1.1129049521357448,-3.06846605502912
20,1.6502030673369257,0.30460003156942445,-0.3018207303799209,1.1360216117362332,1.505625809616026,-1.525281428453534,-0.8238843314496788,-0.13341680556353613,0.6656346862816481,0.703035348390792,-0.22000353737779632,-1.1931561987093773,0.33567190838324307,0.5904278061004523
21,-0.26558879698379745,0.030634053101098246,0.5323888593174367,-1.5220973877147461,0.07804925578637006,-0.12703432145375393,-0.6718025915323836,0.08455695177074882,-1.589611425998638,-1.3580931616513936,-3.072879034992405,-1.3625123593294026,1.0181241910804821,2.0658637725701583
22,-1.4044747530421944,-0.7474979096122125,0.4697540841096896,-0.5146650373248455,-1.239511388929623,1.2184523694409248,0.7815687121568181,0.059827583208481264,-0.2363157021634251,-0.3882046808607233,0.5239337417889551,1.4860110704691223,-0.8483579903462183,-1.0262543509773665
23,1.0692298291604676,0.31710613605626764,-0.43352155892184446,1.8196152583193423,0.2996011500542687,0.6794984251235207,0.6605326678144651,-0.16336271884115897,2.0515184017538206,1.7834323738057614,2.671644005543668,0.8584533895194757,-0.5442776546868339,-0.654108725724103
24,0.5856319967062221,0.7352773349204408,-0.7897339027367812,-0.45925165443551286,0.7065260182011898,-1.3768298276448214,-0.7246711204713701,-0.102594013542423,-0.5358819096584946,-0.2727524021330695,-0.7177620306497795,-1.6548207629476055,0.9713848081964813,0.6578639145619424
25,-1.4693675085214823,-0.7011461972711311,0.4645219400667915,-1.6146471585608402,-0.4258663455270396,-1.032748288385936,-0.6902354499415851,0.26068973542178536,-2.1356956227401303,-1.9118105928878255,-2.2511530476548454,-0.3059959419245283,0.032515402715227695,-0.659899143157233
26,0.5515341250773084,-0.2337480852849225,1.152558867373085,1.4998658447345903,-0.027612381067333044,1.8847138195109496,0.711583527090169,0.26852687927638685,1.4278400339265782,1.1403026579253577,0.7981851859716971,1.6535039063936885,-0.771144347931212,0.46138685411083497
27,1.2610059180108288,0.783056938460369,-0.6685791047631338,0.819146448504991,0.21611667145915325,0.9070471194968531,0.724385082029265,-0.4945880034982814,1.746094979043258,1.5357924500563827,1.8401048812270657,-0.2385126600261642,0.26715885023244434,1.417639486429876
28,-1.6153962032378173,-0.5637652865378461,-1.4265240576583924,-2.2529690144271086,-0.6209067389535877,-2.436342701267873,-0.790144663104063,-0.4760653224909203,-2.1571676477512454,-1.9143992406938166,-0.7733547249036814,-1.467607006724383,0.4830523124399775,-2.0018157754249213
29,-0.4974497544815353,-0.3562633576300836,0.9937626574308493,0.42605090949370356,0.31250238387946766,-0.24951048979920037,-0.6989366775637061,0.9224354655391118,-0.9866293840437255,-0.6690638984965567,-1.4857962247868848,0.6996001292316623,-0.31839049298512895,-1.384198170269722
30,2.2534094935391336,1.3193528041145104,1.5278592028842068,2.443643950681064,1.0639083896127028,2.692658978564484,0.9719924078396817,0.5929085920460683,2.520314277669179,2.289457219576332,0.6830566551787026,1.1316098733353195,-0.3426384589342696,3.518316303806703
31,-0.543802667833844,-0.5591475504919713,-1.340459980339269,-1.8025364224840401,-1.0423720739729894,-0.7459556849575849,0.5435391478242851,-1.5040122118511545,0.10051445307777164,-0.43922843365215053,1.2324071087228516,-1.016738629630474,0.2877952992035431,0.6028933356771256
32,-2.2982941746132814,-1.6955616288571551,-1.445457493456224,-1.9855213067593964,-1.180740436151398,-2.4453809348901925,-1.2154779900123827,-0.4967158291613894,-2.4784570072567935,-2.123227742818842,-0.5979647890825194,-0.7157720107662519,0.4351889488632095,-4.632008150374997
33,1.4923089520331196,1.7146539299329475,1.618480279146323,2.934905318612752,1.7847687177333593,1.7348001107937034,-0.21841073590694435,2.1052494361110434,0.6505353495867208,1.4207185442457289,-1.0954888663994344,1.1660070701772678,-0.422935467380443,0.6736803029497442
34,1.819099467012234,1.5063779556633512,1.2188151725444962,1.0102225080010097,0.9436244117600562,1.70950438279515,1.4345323173737683,0.13575958024450369,2.153162851762942,1.5213297471725267,0.597729857523259,0.2958446602889553,-0.6400171292180152,5.144057609754403
35,-2.0409613429459212,-2.730777343250853,-1.7744250330615876,-3.525611965985914,-2.3287775932820867,-2.379849304676099,-0.25211452530101097,-2.5424927495799614,-1.0968074356491164,-1.970299883129795,1.0510994304972259,-1.1548063079292175,0.892132921961353,-2.116587723433113
36,-1.0671225621336666,-0.8088090878431127,-0.9009167831023448,0.18670764450034422,-0.4343237502478374,-0.7060274984748893,-1.535620597804103,0.43459742293865866,-1.7486106127974756,-0.7874466918057008,-0.7427307474299663,0.06910899276008843,0.6908925155124727,-5.0457547485054075
37,2.055083631626776,3.2585549234563214,1.7824063036822175,3.4511874036223595,2.501600172195238,2.490586278137604,0.7701268405508596,2.651330569445286,1.2075292535576416,1.990835533902458,-1.0438021703232765,0.9993822578453224,-1.6695732216983525,3.439252453237083
38,0.35645463997588595,-0.11252209736210952,0.5404222741909046,-1.2548607098759152,-0.1691472176689452,-0.24677815589217478,1.466558337160959,-1.0563562322247169,1.4526857918322258,0.2694794126752946,1.0543498837345877,-0.3351926450586844,-0.31697238690606044,4.451217519946999
39,-1.5957535444898212,-3.133563320221458,-1.6222930498477512,-2.787402152136014,-2.2260864644819196,-2.0790751919029185,-1.1871907497515652,-2.353692839552882,-1.0650117710079796,-1.620588653591161,1.0063014433682962,-0.7089346487111444,2.5216312667771112,-4.4510219344546815
40,0.059246975876006455,0.8669288673286393,-0.19249944626238813,1.9059455128790508,0.6400322487000767,0.8707269510837927,-1.2540771229764551,1.5156865212439912,-1.3694479073951018,-0.19323478603747493,-1.509939800060503,0.45418614838452265,-0.6077858327858373,-3.514521388535905
41,0.8634085965056583,2.447074269577647,1.2761870350053874,1.7624308695423472,1.5541562858687739,1.3177184110437237,1.3534962738513272,1.6975280073424015,0.7976155750226908,1.1380643643370827,-0.8811840923319861,0.2945409831983405,-3.0996368546266706,5.045458045371788
42,-0.06191201961062803,-1.1279714029570425,-0.06218465289212694,-1.9928433247639223,-0.7741396714449881,-1.0221597089672603,1.0130333796088116,-1.616610759472191,1.507927644964183,0.5767270747780938,2.0517925940863186,-0.35899265735521224,1.9804299997994945,2.385239354943493
43,-0.10237296982987135,-1.4996948111292832,-0.7537589045604484,-0.6682759603252082,-0.6588022084661602,-0.43916504622095726,-1.1781836774476204,-0.8538508368252019,-0.5186188900181706,-0.8130564473463805,0.6369483228009127,0.19918668179103574,3.09236083257418,-5.16531350294013
44,-0.3237561756419195,0.7685548915870303,0.12125671884476151,1.5281297592805159,0.45945776888592305,0.7054048873316359,-0.9201579971139162,1.2557000956303639,-1.816222559779637,-1.2598215386688172,-2.6061682290072494,-0.021944619107466284,-3.4897519151210434,-1.2145425077037535
45,-0.4828354590006187,0.6661707151767323,0.1279175987432574,-0.22553077762012147,-0.2154197288868003,-0.35555732697941234,0.6820659391797946,0.07041873814949491,0.3039466337572349,0.7960444274950597,-0.27182482740051866,-0.6639831240307374,-2.363673972605104,4.793423204979984
46,0.9739646869335472,0.09986975481808262,0.09860446937992362,-0.6531588920898441,0.28297580917677956,-0.021711118093092365,1.1539289571494677,-0.4713657995777093,2.2247784439657257,2.0086374378093317,3.104489127184186,0.7156730288945429,4.7285569639807585,0.17758225900957175
47,0.7667155852117391,-0.24334790587589694,0.45325155134287726,0.7260380106067083,0.8250550939268965,0.9348975418029608,-0.02019827815251467,0.40539695804915105,-0.2092732718772641,-1.0977940602284173,-0.19713135147003516,0.9325859282211371,1.0126505862841724,-3.9858639209072546
48,-1.7217253186405481,-1.1893127324107304,-0.6006462448332169,-0.4108208140883236,-1.3006373230902728,-0.893523740406938,-1.8132148149311398,-0.5511914830276229,-2.6624221857458954,-2.6159676053448715,-3.495021101997512,-1.6453423855495428,-5.3411512257317595,0.5388968792216882
49,-0.6997920535436085,0.3502904583904606,-0.8024099871146384,-0.7393621521050726,-0.998012093609853,-1.223569407619709,-0.5480107432336682,-0.41186517847019677,0.2959500325169801,1.6415603330130402,0.7525992591188472,-0.8362676376889219,0.6630101676219047,2.9140643140004947
50,2.393004123986197,2.155117885595761,1.2653034300061543,1.4063676658180648,2.3497166308861592,1.900568717387715,2.843914527472272,1.5258023224772062,3.0353991649040233,2.9414403988284543,3.736859782346701,2.6052357480432624,5.140619546109056,-0.8056046642407114
51,0.29257753018932614,-0.9105769141467753,0.7714038046374095,0.28109025595418285,0.6811656803367332,1.1786450941133255,0.7480776987361952,-0.062059790711834054,-0.6263223843447651,-2.325238289000259,-1.3870184380033364,0.29727437096477183,-2.272351102657621,-1.8569867898289056
52,-2.819616886180152,-2.7151910768920833,-1.8615251342935044,-2.0808092306015973,-3.1590315501377195,-2.849589077189354,-4.015623122348541,-2.15283398263557,-3.1974156221921586,-2.894518690256434,-3.781561420476875,-3.306049941437679,-4.155482125778609,0.641572014669586
53,0.3862774247173933,1.703938921805614,-0.3363825910074098,0.5156453187271259,0.044454317233195734,-0.7928283305651047,-0.4131066755656536,0.8584770294806597,1.2128801191549161,3.0407630429448624,2.0903846255279057,0.5961892447441576,3.454338242959643,1.1108195314816072
54,2.8513687928817713,2.727000232067466,2.1220676230884075,2.2404541042046158,3.500205812357513,3.573931405346323,4.980634776647934,2.2230455959784137,2.957946666340749,2.4104608016412854,3.562279344597524,3.4856458570814555,2.6031667507746286,-0.25327602233506064
55,-1.197831201275937,-2.4519293460383675,-0.3587553964920168,-1.4101998449899644,-0.9816260773085634,0.12623291961757432,-0.4186658508218233,-1.6934198713950395,-1.9503382671633407,-3.649649916705964,-2.8192697406470306,-1.5879396273135937,-3.9747742269736137,-0.8488230052763126
56,-2.3904910457410935,-2.2100639965375377,-1.8577245920559082,-1.818330574358011,-3.2492149786246327,-3.918070908549975,-5.407473746104899,-1.7006300314286944,-2.155372953234562,-1.4681921449819295,-3.0111426964917265,-3.0331764468768236,-0.814655028420906,-0.033345394431017625
57,1.933868875031481,2.903529949928136,1.0349349311434546,2.108550762932061,1.8636574135770092,0.6694938586066371,1.4932414606848736,2.2534584561425697,2.5913892302186725,3.9630174173671926,3.4713078595463944,2.3422817675829517,3.7753454064430225,1.0184522577027002
58,1.4454832461938159,1.3241338169106935,1.058933622901726,0.9247030675917387,2.427560570965666,3.801605050909225,5.130782669843564,0.7490189956495046,0.7696924618100177,0.1522896815878732,2.1067777446999627,2.0563190608494306,-0.8582159112679979,-0.067959300214789
59,-2.359639522286209,-2.9010777885080308,-1.3855349272103676,-2.3650580540471697,-2.4233690480369465,-1.3768815144960524,-2.4392975995856823,-2.3141416286395633,-2.813319269030418,-3.7808891186556934,-3.8956894436179095,-2.584874752210185,-2.9737320469487667,-1.3577514115002123
60,-0.17154392723007572,-0.32037387661405725,0.07036831877376087,0.16428963110852013,-1.211878310941109,-3.280003170530813,-4.236649172107961,0.31868785451807813,0.9959371670676963,1.2938147454636637,-0.9260234735546093,-0.8491760170362094,2.1277862608383087,0.6435957437269944
61,2.299612429416154,2.4209492443453047,1.2172817835655365,2.094208334490671,2.4743454262462423,1.797586142579305,2.9344458379644354,1.832844453969845,2.3645354672781314,2.9999805213929815,3.951356600673981,2.2240219893605033,1.8243053146486248,1.5413145919776892
62,-1.143341819450356,-0.5229776892573565,-1.1764845616696238,-1.101036128687612,-0.10007519268572516,2.5484054460383523,3.030319044677244,-1.1519826439420475,-2.7360567898197794,-2.4944985511668727,-0.34163277643424644,-0.22621309812222715,-2.833338891879252,-1.526589589790762
63,-1.7311984688546798,-1.5873114354739033,-0.5568680679585325,-1.4285109760563934,-1.9845079293549976,-1.8565731644903911,-2.8532263405480265,-0.9730861123041082,-1.216720156633743,-1.732078148647031,-3.5889928218277807,-1.3907492010557505,-0.6510266838712809,-1.3741163140461252
64,2.1652069922599857,0.9763843500029874,1.9010954251175753,1.6145863892005594,1.173054177583789,-1.862066339630023,-1.8977055302661034,1.4956639287557578,3.983847246502814,3.078390948105674,1.4449539707869459,0.8868305294155634,2.974815466959018,2.3968664113585394
65,0.8314637573548537,0.6513894235141849,-0.3375313561544444,0.6736764673582553,1.1093017078412044,1.6560110286835295,2.3172935232416583,0.044203246936306596,-0.37204582941242564,0.338380002547877,2.905666088019888,0.3802629287718684,-0.23682802874813216,0.9078944286636712
66,-2.6505338243513075,-0.9377407835180865,-2.0458693270216055,-1.6393733608746432,-1.7520204007190374,1.403477178255467,1.1318402013217972,-1.2876584199479728,-4.413464661742179,-2.8731551550572383,-2.174987783937923,-1.0365159166922975,-2.7120827529683096,-2.980381264541158
67,0.06642781451177586,0.07468599282493081,1.0788425898086031,-0.16638975482070847,-0.15241771010391952,-1.4271686688969543,-1.622863340161549,0.6217639102772136,1.9362507208654671,0.6833025515820726,-2.126185853060617,0.4746219764795758,0.6335803613790595,-0.3977946615157244
68,2.570085268321004,0.4880641161523825,1.6748131389268486,1.3475387664754501,1.7679405252266944,-1.174651880441677,-0.81310917802875,0.6784626991482432,3.9973756670538383,2.041664848082668,2.467581411835488,0.7901906031374052,2.321499134927833,3.219187887205553
69,-0.6083266855404603,-0.326844565311616,-1.3280725464933356,0.10233450040570226,-0.549423745394717,1.3912390763569038,1.0875157551470287,-0.8039493021636472,-2.9968692897514178,-0.9296770170595626,1.5061400533926745,-0.9402636744846438,-0.5096996064349953,0.12220678887799388
70,-2.146879585064457,0.11419329394654026,-1.0953909077210988,-1.0545895314451146,-1.3723135178248242,0.9935014247155526,0.7997597412788698,0.03792741763537652,-3.027944787978155,-1.051042500732635,-2.4385410817517545,-0.408523312699675,-2.105978007052976,-3.297336841491576
71,0.5922794193538866,0.007381060710570547,0.9618644503687594,-0.4308442966135884,0.7734112120974415,-1.6090448367451058,-0.8979068989217172,0.4783105310475295,3.27375634424041,0.3185837251006244,-1.2044969362679154,0.9712458945590982,0.036717114341535934,-0.1840041949137857
72,1.7679801119592806,-0.5226007025349847,0.7186412763919044,1.0425100887045595,0.8680110047139412,-0.613818839918185,-0.8252577210200566,-0.5516406967902395,1.9849477353656515,0.45985640232433295,2.3210834566686516,0.17452676424378,2.276253171149845,3.503575811511405
73,-0.08939380999007801,0.7472360341516812,-0.14426147211237383,0.8825316274903865,-0.5129395090404822,1.9222100782273264,1.033331522887443,0.18360636481076578,-2.8051573572139987,0.8346393611395192,1.201197537760628,-0.7155865249619836,0.4636617819511134,0.42758495597248614
74,-1.7976305788535212,0.4525684028494736,-0.8630722367082557,-1.3996018921386535,-0.5631009399048935,-0.09715508200591622,0.6463461604255479,0.665131270283594,-1.3166548070769515,-0.6314712211668745,-2.337061964345814,-0.2671496657773687,-2.8501602713622036,-4.0245394105844134
75,-0.56609530739284,-1.6008060539255686,-0.7388151723523126,-1.1197501189433257,-0.02548887928571353,-2.03865726810713,-1.296444914537252,-0.9018006176360143,1.9126040346484623,-1.9575184207503507,-1.3130627072913046,0.4357059224012111,-0.645316338653269,-0.5282178960256584
76,2.3840094541192944,0.17834898976902017,1.5989347065094284,1.9713800191348614,0.6245996134985433,1.0394516003635106,-0.16594177201931093,-0.36248895852040275,1.249088628554735,1.5432726065657214,2.5777763895062673,0.6870372084418853,3.6264931243978236,4.808439171885226
77,0.9298204817422984,2.155499917152777,1.2537570085229528,0.9243410965584836,0.5318635305904732,1.7208444052170446,1.4279953302385922,1.4180742873799939,-1.0342701795753133,2.507864017162429,1.3006809663101753,-0.3817988959994786,0.29234431765292807,0.19284522405166477
78,-3.36770538052988,-1.1981455274398995,-2.70927675574292,-2.450236933384595,-1.0111424650538985,-1.9067190931540992,-0.526163307096585,-0.21106316318746093,-1.7179595785742885,-2.8094374188396363,-2.9639697315117703,-1.2647173263500515,-4.261452917557773,-5.586168379788719
79,-0.670741196062919,-2.1318662432406343,-1.1177750723546342,-0.3147370643792982,-0.7474040423052203,-0.9613302007127688,-1.2445382144879873,-1.6040431824342083,0.5194397751996345,-2.240863107819157,-1.0019999485897746,0.6749165975347882,0.5718741585060385,0.6599634586648937
80,4.348729016293646,2.2515174656919634,3.7841301406207064,2.5473062996803986,1.5153811927177563,2.3536823772350446,1.2081456691652954,0.8434695673203385,2.4453805077157953,3.900319764443624,3.3027244855034024,1.7430404557277452,4.420934674888162,6.027477826466444
81,-0.2541181461116786,1.4985493927900289,0.3273646590076515,-0.46911397937138455,0.5812730235245732,0.030974577609446198,0.7321387922237969,1.4935432592270392,-0.490660107684399,1.3018150236925061,0.41571846885007097,-1.2498490336914954,-1.680590981329294,-1.850572319270862
82,-4.8795684658398235,-2.9614351951272213,-4.399166238288816,-2.145655209067758,-1.8843963337077114,-2.2083852457884774,-1.6443164837256932,-1.3676462832383918,-3.104532435761181,-4.419401719436809,-3.400083407565139,-1.8941481791838097,-3.937603180103761,-5.926217099350622
83,1.5675076190655874,-0.48479367692409836,0.8394703626237884,1.0938262624755741,-0.13471728275442202,0.6392280966455112,-0.053413950388576,-1.2293759625517902,0.8336314168237556,-0.10539473548387318,0.3054283538046858,1.8783805650365757,2.631588406751311,3.037709013153221
84,4.682351187160126,3.0996991805094956,4.2944445964297975,1.355467917227937,1.9501938665103744,1.6026832862932714,1.7069886869348787,1.727049262859227,3.4759971940656635,4.2743305632753525,3.1626446801764567,1.6217306060738925,2.8977522506268025,5.303708920800667
85,-2.7962614856315855,-0.5281906110721787,-1.9416675840579933,-1.2954464933752823,-0.3686323473469464,-0.6827987948563969,-0.5334907630364671,0.9640744789324152,-1.3001662307139767,-0.9055272252119723,-0.9365207160300152,-2.259711005716609,-3.0583934186103616,-3.895723974328777
86,-3.7807716968600014,-2.684599071892748,-3.475852567219148,-0.45583993250691685,-1.7069764681940132,-0.9411464536946059,-1.4427658004663366,-1.9643113358964757,-3.5184083296823387,-3.661590436172851,-2.6390819849189464,-1.010807368644352,-1.6181579518697682,-4.381930517564533
87,3.4844699310539253,1.1812419750835315,2.5556779364019344,0.9941660852567833,0.7034772651602728,0.008665322729876503,0.8042552515933762,-0.7785358830833928,1.6521291242807534,1.4700063153222407,1.287627433503723,2.1422766518875918,2.7887905149670975,4.2659022179503685
88,2.4889970312360594,1.9640620000378,2.2018742545301464,-0.2333357200998706,1.3044850391272387,0.7175565269924653,1.0505084453366131,2.1541604869259885,3.3356823885243996,2.906701127721635,1.9912594946078601,0.3078385950060606,0.522783310944683,3.455911724179094
89,-3.391270392883319,-1.2951986435234186,-2.4376280744891807,-0.31717014868562093,-0.7545015167074393,1.1144941523496417,-0.6818554873282083,0.6643845500974083,-1.7646162320683894,-1.580648537229029,-1.2850443202392456,-1.4333578205489592,-1.9230896532014317,-4.206958956554023
90,-1.272370939651622,-1.2962303689168138,-0.8702926355275219,0.48367195419852793,-0.9664449359506035,-1.2671289962483256,-0.7808157146042475,-2.3355150509186218,-3.082862791635298,-2.277062595326136,-1.416710212595473,0.16481948469495866,0.03027613625580909,-2.7425154558553304
91,2.5872408838081338,0.9437051638944658,1.6012253685620972,-0.4653098226927584,0.5680956182570551,-2.1498874280511333,0.27520411961448377,-0.5686491262343353,1.6446933289062138,1.4097397985356768,0.9949296973525239,0.2556767424749098,0.7976756972986796,3.930345070787757
92,0.5490679288935961,0.982283280626755,-0.13889425851059922,-0.24209772823230263,0.8752319541454997,2.5750756335139875,0.8078230962769516,2.490171288498549,2.8773368512233186,1.8740372041638005,1.0597097410724527,-0.13467257537073285,0.09956152836999106,2.285974287003062
93,-1.4153370529334695,-0.4096471082467084,-0.28774186536380114,1.0539362107110353,-0.3216153262755475,2.5249170573057973,0.1789208090935598,0.45714610222969493,-1.3791250219913296,-1.16483853975292,-0.5826230777590938,1.0770986724044544,0.15611729949739125,-3.6647536683201896
94,-0.5196256988031712,-1.1262854442077554,0.594049222064243,-0.3583039090220494,-1.078953859144725,-4.238660843460181,-1.1416145501593886,-2.5757326622313226,-2.762971139534404,-1.6415054466186034,-0.9508417218029462,-0.5008818735625034,-0.7730742715465274,-1.9658994779069467
95,0.33994950453906114,0.04302204093154746,-1.1459490489097524,-1.2374583700319957,0.22579562687907065,-1.9001613807536368,-0.4399836447712154,-0.34557505395740296,1.0627085846212416,0.967820116866732,0.2267350804855884,-2.167326849563247,-0.6022244414369495,3.5278382155976677
96,1.0940749724875796,1.5882302898436176,-0.46527919314356003,1.0578160941512034,1.4681708062921173,5.611715122721659,1.629392048050042,2.579563960821799,2.730598702606823,1.4569775838130075,1.0055456596685548,1.6150841723253955,1.6351694790883555,1.5971377321563391
97,0.24910083920754394,-0.08357450857929065,2.362168800615089,0.9709989297996748,-0.4097219995168143,0.34827489694300157,0.385279657423058,0.27726295989638355,-0.7567148186302792,-0.8150124081384602,-0.03091414480482825,2.6860902802225954,0.4527074926422346,-3.4763075504569114
98,-1.9445065107090593,-2.058092200287377,-0.10786051610612067,-1.575790942293212,-1.8362971684693647,-6.074622236733295,-2.043544336449948,-2.5471084005871054,-2.761390342077821,-1.2379546730987039,-1.085813507750163,-2.8898834680195256,-2.2860788022649206,-1.0591091892312674
99,-0.19429321042360775,0.5341097684252513,-3.140296583422168,-0.3873755184663558,0.8494187290685811,1.6470507200097975,-0.06238269162087494,-0.2693702666874964,0.49292378589054414,0.6209966174358202,-0.015972824563120165,-2.50409254471258,0.09775793815216241,3.357595909713902
100,2.6586474765024355,2.2210865319575612,0.9019868701243972,1.722688471822974,1.9935988382113667,5.30820484349309,2.204716650049874,2.5589246746581984,2.8530190816209062,1.0044218270579695,1.0912641935691823,3.9425749629054914,2.481223182484874,0.3766689693888302
101,-0.3769979981009206,-1.1526364063723054,3.407265896260929,-0.26343590372324066,-1.3804621082289033,-3.378169366337721,-0.3521655490786502,0.2738806910998309,-0.30178218614525937,-0.30702913132029347,0.004384690274767302,1.7354243302830223,-0.6842005402985154,-3.023299508505251
102,-2.9261685044189725,-1.9336396972001126,-1.69896216724235,-1.473542186994099,-1.873163891615363,-3.4428032843919416,-2.069937853942086,-2.6699284047356446,-3.011260077871267,-0.8704495898836876,-1.020647256457014,-4.481802670980769,-2.253449404168022,0.29132415739526013
103,1.126583076856988,1.574497066170867,-3.209376529891926,0.7228661266569364,1.7898335395857388,4.202321500835015,0.6574842062618167,-0.18951390605663243,0.22983609359696847,-0.11987155722613606,-0.01583572039286609,-0.6719060407729236,0.978395157275183,2.4298771773249412
104,2.673468648649275,1.3165202901515238,2.3403562980245938,0.9704403820681948,1.568411490936298,1.0127102370556267,1.740455010249408,2.8541401329471343,3.2205937782855423,0.9747586285156884,0.9584289600522798,4.414439305076718,1.8829010243246262,-0.7391358158691484
105,-1.6711346325160517,-1.5065904951960032,2.6591815378245007,-0.8335412227495653,-1.9366163930200464,-3.7992384233403453,-0.7327994004564657,-0.07609766183652995,-0.32694795502245405,0.540587091062814,0.04531809638993296,-0.35435173461893466,-0.8769343885332145,-1.670371269202288
106,-2.084811936553977,-0.7097711838928169,-2.73839762116144,-0.4516791907572989,-1.278350086940722,1.2593611540954615,-1.3933560914102037,-2.9981963065619732,-3.423279263694827,-1.3884758636853156,-0.9924482076740486,-3.853157686642436,-1.7232089356162106,0.8187803029050854
107,1.761741536998918,0.893920944916987,-1.8910373462687928,0.6002696856618339,1.8322085656665787,2.2834370426896826,0.5853926150081268,0.5322813604235732,0.611241809900978,-0.765866661461305,0.004653534256740378,1.1057420298675158,0.5587602910109105,0.9324371179197457
108,1.5005944228782504,0.5060139420250268,2.8606516451364072,0.1404722509909456,1.1900692462282743,-2.744229816758352,1.183172720263294,2.9564827076906304,3.5286274273884337,2.049363919252742,1.1224246993878633,3.032194073877489,1.9811102888730208,-0.5073882046537589
109,-1.392204031052614,0.030430447722447716,1.0397274853062721,-0.1744580008247499,-1.6320929762819458,-0.13085017587915426,-0.32435193648933175,-1.0702133914949121,-1.03772871535221,0.6282785569726771,-0.24780871648292344,-1.506728302732197,-0.3737789144001459,-0.41829408620719727
110,-1.2430946647250836,-0.9441675942001653,-2.7135574950035624,-0.14689373592305816,-1.3663928072332308,3.127003309724521,-1.1704130650571325,-2.639809829807613,-3.451873095352713,-2.760995653434967,-1.2318480511338399,-2.1867763922396577,-2.5808596398040433,-0.08338846054394042
111,0.7848621479394196,-0.8424481858701691,-0.23452904310733935,-0.2276910020725768,1.5428462939534207,-2.0328164937538244,0.08595056882398389,1.4966283081855434,1.4953677476299927,-0.07873627807468707,0.7086716378884937,1.6250397589659036,0.6268354245566025,0.26718129340759605
112,1.4564132697449022,1.9681582018182568,2.3383735737757663,0.4294998328066035,1.7048142290567254,-2.476834897895673,1.3111934114558579,2.0847921779134935,3.161562012640511,3.264876926444993,1.1526912356282886,1.4610427734861544,3.196427329877308,0.7462983242226856
113,-0.26359110312378686,1.1279422381398605,-0.4088519475335817,0.429774675480772,-1.69919049377657,3.6760300570669724,0.04071657113845657,-1.62454118244323,-1.8409310473566851,-0.7653536990120168,-1.268861729906435,-1.5949277163033033,-1.3871368286289365,-0.504075346115037
114,-2.0404304525600416,-3.2245929541958414,-1.813844502913333,-0.8308598216044276,-1.9907533048113182,1.152904358830145,-1.5031638045937155,-1.4585327226604836,-2.707101313352627,-3.3544431032879487,-0.782443524629282,-0.8811661883159081,-3.430965606321968,-1.246294990237483
115,0.08095482997729744,-0.6915682001773968,0.8084914028703633,-0.3702153482914241,2.083055731397126,-4.527577579008294,-0.047241706525194806,1.373025188682303,1.956657520652615,1.6529117020709285,1.7133765141249349,1.532598098176653,2.436422539877667,1.024687829718662
116,2.710254892348067,4.20740380272379,1.2488535122896656,1.1627396441473066,2.011180713858044,0.3888791034886658,1.6519359683245718,0.9888286803533541,2.2064942547186255,2.971664546828309,0.1687930273780002,0.38942361005127546,3.0322984118534326,1.398151446532021
117,-0.28932796805104277,-0.3276652600681037,-0.9408912213534992,0.1149437331143419,-2.5281260070091984,4.60375203565552,-0.011922170389497104,-0.819362743606533,-1.8028964323849668,-2.3019791060476815,-1.85224550596151,-1.4846282340614418,-3.379530785359545,-1.6217487334883611
118,-3.1474507418598257,-4.487587842999316,-0.7545365581589824,-1.2942299378134554,-1.6618225211731124,-1.7847702335825852,-1.7163601926354735,-0.853390463182535,-1.7947633453057883,-2.2307569061595047,0.5044833427300996,0.0930138780095135,-2.016758978613827,-1.1317719016755716
119,0.7210168242108373,1.4958932165586698,0.8499285892820196,0.19004460110957666,2.8000526224725912,-4.1101226301067975,0.06733607120288915,0.1711559447853151,1.4353845834042231,2.5177556754431416,1.6341044757556535,1.4238151309170262,3.8399331008442505,2.04970541129322
120,3.1624703604507785,3.922479470281992,0.40442112835169197,1.2009834538323783,0.9926618824677433,2.861386509390644,1.711198811113907,1.0873023679474099,1.5576412860763775,1.355124641672121,-1.025919132069022,-0.6109022922771064,0.6414050865031541,0.520426463119333
121,-1.0837808653874168,-2.270211060338131,-0.6251540631133766,-0.395062679600253,-2.7020386216475374,3.290916438908532,-0.07721874544911496,0.3301049867244462,-0.9731195665370337,-2.2588329497892157,-1.1702685620468107,-1.2815571092305658,-3.619794726143527,-2.108830217712498
122,-2.7844036565947965,-2.7413049318374787,-0.20727243220297592,-0.9594094890434868,-0.17928790857716698,-3.6170055645020835,-1.6764843133323142,-1.5601989510207634,-1.4889684556121183,-0.5696082197451554,1.2834512841064247,1.149471368167183,0.7346393416914313,0.24296690681557614
123,1.1179711636629086,2.2504500443119095,0.3557071142911076,0.4127285822295234,2.1520186044315746,-2.3121751185660995,0.04014866319321754,-0.5239771186327937,0.531488287565926,1.6188192068600065,0.6520503233600806,0.993009647613882,2.7449151006356756,1.7164449309474237
124,2.2349085187457978,1.4558924979109586,0.1148217169278209,0.6982619766455,-0.5516502254930741,4.124322510426381,1.642548365240085,2.0368938968585284,1.5012839745827045,0.018092596352853815,-1.3192791322513906,-1.641324064831284,-1.7990222024542484,-0.9141418034070486
125,-0.7315617965840873,-1.3765765405044765,-0.08737244339332809,-0.24681657096544912,-1.2052595304074147,1.2304612946686535,0.02153393526703133,0.4039889652317359,-0.16030684559032407,-0.7501064179449973,-0.22247297715974587,-0.5330486978014124,-1.4024491801813883,-0.9361662499545071
126,-1.8049112181664628,-0.6295058451763638,-0.06396584853081384,-0.5361648014451701,1.0012835178720483,-4.425927264892572,-1.615866191154468,-2.2896678812652866,-1.4875417014932215,0.24875082672920235,1.2751444606634357,1.9944697178709998,2.3635873030092966,1.2830339790558747
127,0.04414395359093756,-0.03116638828177934,-0.18714064976686526,-0.02124294925520135,0.028906995975716474,-0.043666099999053125,-0.08633190981693896,-0.11155064428883119,-0.17159433237275024,-0.2057060901117414,-0.10395556378519435,-0.06803045672746076,-0.15587549797686426,-0.04513048070935462
