,AF3,F7,F3,FC5,T7,P7,O1,O2,P8,T8,FC6,F4,F8,AF4
0,-0.04590541999550121,-0.026214014356714853,-0.060003817046180366,-0.036709209073740055,-0.015890598626247716,0.08298616007542813,-0.002144227263094713,-0.03618115184206461,-0.023917144580873895,-0.020141000190227513,-0.0581582177428979,-0.03387299032234604,-0.04229708796238291,-0.012822801995073943
1,1.1846892556518795,-0.9046752360841163,0.5577229376057663,0.6895285830112153,-0.2991734727826676,2.5776937573419234,3.282948853428223,1.7855919266577225,1.8884587995387478,4.988905622829045,0.4371424276133504,2.7446034280758385,2.62779599246842,0.3776902437177565
2,1.8549058373414362,1.8245934908971724,2.1657918923257804,0.5575847733659673,0.941550661334391,0.8069587502981392,1.070498844830327,0.6817540085330088,0.9291411407053425,1.188424468161224,2.431092339253087,1.6506910742773742,1.111129221130481,0.7881588990540784
3,-1.9502091281792637,0.04274378890712393,-1.482620617717212,-0.997176556714439,-0.22007979229240732,-3.0297239422863855,-3.865599644255638,-1.9869137397607772,-2.2752660123759236,-5.497757928914753,-1.5450586459835485,-3.446696435886319,-2.8474395085258757,-0.883929213505514
4,-3.2474072784217993,-3.1278410762245388,-3.7105761341828476,-0.9115160715359683,-1.5596272964392315,-1.386602713474496,-1.7264739301389431,-1.259771490284691,-1.4979546099804195,-1.957967684348059,-4.12972817490535,-2.8382901866350725,-2.1285158483815523,-1.3075411545843556
5,3.265881054817991,1.4268007034613681,2.9998598549258695,1.5292639616501718,1.0617247312327416,3.8072028599388776,4.794563905991421,2.382350761795246,2.8498320003021638,6.270998121282845,3.357846563804606,4.620330948474699,3.325573838691803,1.675043500203049
6,3.898503280808537,3.56287286201154,4.329857854394445,0.9729811691919905,1.6925182323243142,1.3988443585806003,1.702273275077453,1.6894635894076917,1.5412188741537316,2.094522842884379,4.748016706893965,3.298288148257391,2.999457671618453,1.4270735596897464
7,-4.766875380292993,-3.0450948734835896,-4.59533882563683,-2.140462318096178,-1.9350449523595918,-4.555248134283703,-5.64601720341386,-2.953546813880365,-3.31029026128616,-6.902092518350131,-5.22623996221333,-5.866261364141521,-4.075464857430967,-2.506486592425865
8,-3.6736404718032825,-3.0114765674328594,-3.9796693959951193,-0.6974559834205593,-1.3535149319191102,-0.8089300046751737,-0.9996831328546074,-1.8667604669803204,-1.0857643778516446,-1.647126310189263,-4.301371183681846,-2.974905803735957,-3.5869088587613525,-1.1545592082957525
9,6.005370944120724,4.280924268039712,5.75119621267295,2.6601349987657583,2.5786814822092587,4.883968598882738,5.993457090971567,3.629212352447224,3.3966225331573408,7.031027531302076,6.55254301174875,6.759149349020699,5.05049463258055,3.1342002669956335
10,2.6904606715525548,1.6632993662584499,2.936205169599791,0.13889066738932912,0.7160036719583496,-0.16453911239789426,-0.10521931208419687,1.689080717544754,0.3388407674528975,0.9107539152321278,3.1728702245414078,2.0740924030838475,3.7400421666119064,0.6572150442862086
11,-6.586243705646936,-4.7021878357196885,-6.140573210419619,-2.94677710423809,-2.8614160598067393,-4.525852249024135,-5.580057348474647,-4.260331989719595,-3.0028216498355826,-6.50757815196882,-7.030077198484903,-7.005672607483007,-6.112619088065843,-3.4235486327666957
12,-1.3049719221563596,0.029342885262896964,-1.6683558697638832,0.5668261516994146,-0.013323246547384959,1.116291859998169,1.1669715300370442,-1.1098270873173242,0.4261865360127107,-0.2766314889082737,-1.8966578526351718,-0.9816614214673706,-3.350966423462438,-0.19031876319767987
13,6.315329043257813,4.134240003927129,5.73956540675657,2.9361079818853,2.8063355801040957,3.4592601411408026,4.428819628293921,4.63541492723539,2.203320507965339,5.447483590817943,6.721607122436502,6.557963256406896,7.038458801289005,3.41913679434675
14,-0.0017871102580630507,-1.497942541531306,0.637426151454876,-1.2511150119679628,-0.571357242310198,-1.6029786380015922,-1.7480594881085796,0.19646571714414457,-0.9950206021070831,0.05015487288010888,0.90012034700533,0.1044137224937649,2.417270645763835,-0.036481427048906646
15,-5.290925469609494,-2.739357822835072,-4.808544026445726,-2.660038661929389,-2.535175866494678,-1.9439269419072018,-2.8407730136790112,-4.5467974616187385,-1.191550237536635,-4.1649541816203435,-5.95431919614185,-5.628064520325099,-7.573032983025875,-3.3193456049612946
16,0.8112434830292773,2.2652630505745357,-0.11114881147669621,1.7763233099585023,0.9649837600607261,1.3220560001971828,1.5974309189832827,0.8490120333126504,1.2831112657180963,-0.32268134088515715,-0.3382902333613251,0.30293380752032995,-1.0765299565482314,-0.01422323959514485
17,3.874108427236016,0.9692037542847051,3.752398764200419,2.22487611932383,2.1761982748554796,0.4450400442852619,1.2769233734625716,3.8852839128326475,0.17770748264720482,3.0248719368942605,5.108262778996564,4.586625044763358,7.516362608264097,3.348524998670626
18,-0.9480672158769716,-2.134879513562428,0.07352574039011071,-2.085280379336944,-1.190036666222973,-0.2514590987048406,-0.7531972559075821,-1.7364403381825015,-1.327510024064467,0.947256387186465,0.09041293384627973,-0.24505028654516667,-0.41482626839045383,0.17475187429569078
19,-2.5282993265982237,0.6088416187508606,-2.9244854724340135,-1.7572876349202742,-1.7964627475636867,0.5337737885046371,-0.1726696708992618,-2.713166682593422,0.692046055586671,-2.287807114566439,-4.422350574824828,-3.7854465959978296,-6.804758989393723,-3.593193363407154
20,0.5550979009434409,1.2748865607670035,-0.2688115555261502,2.213256429824883,1.3001511448213647,-1.3098431314281436,-0.47650814111445977,2.1923678857426885,1.2258465626137793,-1.6155910199941064,0.10758309363303532,-0.029549657624284596,1.7602300853577584,-0.17287134719442232
21,1.5971635336507188,-1.5483942376793407,2.465603500737904,1.343444428623295,1.396105837098424,-0.6504281746454808,-0.23398502048889258,1.2676981654210977,-1.3590040250690167,2.011895726480126,3.912979099143362,3.388684013752169,5.542444806084785,3.9097165000491163
22,-0.00834846525751181,-0.14364638330859766,0.35617301153073655,-2.2564141156940276,-1.3194643123274976,2.8271755600970554,1.645397901051411,-2.0755287890581062,-1.073046523335048,1.9932454515048807,-0.48853890319866355,0.16440477654040062,-2.727204593244895,-0.1833966968566246
23,-1.138750843147832,1.7179706445961571,-2.2535929408944786,-0.9907215686963481,-0.9553029478712024,-0.11901877474290638,-0.014327492338078479,0.11819060124331919,1.827349454522436,-2.041570230867113,-3.4220484683192494,-3.299643610291439,-3.9597761768946578,-3.9778324215913177
24,-0.2925879357461571,-0.7218823916750332,-0.0990770691736471,2.3116314007796976,1.2285169523792814,-3.722330230519852,-2.353154314660616,1.441804068215648,0.9318092671237237,-1.8561640477184442,1.133738066171669,0.11641568776291117,3.2237347031517265,0.8527386172181628
25,0.9122508340929413,-1.3535078983400481,1.9869998368329382,0.6312101476215906,0.48865764945690066,1.436369799518332,0.6319397448467324,-1.144191996973692,-2.129468593602698,2.0768084668753635,2.7393150653085643,3.221577873866255,2.315159929483337,3.480788580831893
26,0.1459657373490569,0.9599267725652305,-0.5048847969319763,-2.416974568854317,-0.9996103153637925,3.60761653931336,2.400040061244428,-0.522272469795039,-0.8362348959154727,1.1807700445860916,-1.951271162979758,-0.8651637949373615,-3.3036094008031465,-1.545299368050663
27,-0.528607505355587,0.9349291242570855,-1.3601508480424462,-0.16697715397805213,-0.06214911849421704,-2.704813903672331,-1.2251533261304028,1.6574760826583004,2.3108157581552904,-1.7924128795594738,-1.7207109738984816,-2.818431975992345,-0.7944273900517178,-2.3037110559363003
28,0.3429672475247356,-0.5537460939037312,1.2199214209726763,2.523610305016173,0.6467027554212588,-2.4671846590023994,-1.8484675732285765,-0.37533795027625577,0.801606243516734,-0.16064058013710536,2.7347658960529935,1.884342585004899,3.0987724471036078,1.8641116716823902
29,-0.3195699608697701,-0.9433887040168702,0.23873622892707008,-0.46401830601613514,-0.2391305743591427,3.2972903605303534,1.4603665425187313,-1.6993568451722245,-2.432194293828533,0.9662366670906434,0.35138349844407735,1.8894837796602952,-0.5338532948268826,0.6240746946605358
30,-0.8239518611411221,-0.16964174372854185,-1.694630746696388,-2.5160340428644834,-0.24648876415216314,0.6970060294592337,0.973970402442564,0.9927056895825862,-0.817650410538382,-0.853326162701791,-3.2512995181163373,-2.823488775499116,-2.7238261796712826,-1.517536960661741
31,1.6776735699241767,1.6211257818761207,1.2566429642871912,1.2353723894940571,0.3657978852364446,-2.824479256885737,-1.1933055151955345,1.4662545970117864,2.5639176576864946,0.4250194571853607,1.2515227702375957,-0.47079650855477156,1.6840341516275263,1.1622321529740192
32,0.8943840872152835,0.7093184491577831,1.6432967043001718,2.272764690348221,-0.08859872557508842,1.0338459557478448,-0.1361508983495861,-1.215834613068528,0.8307128744193417,1.4702431531326137,3.316185724024948,3.341488888539393,2.217261196707536,0.4713575450273191
33,-3.293152010148633,-2.853802849485806,-2.800317722054934,-2.022855417984328,-0.33906005516817894,1.32242672729568,0.5118476944385719,-1.209378435905122,-2.752763089949784,-2.1746743182100743,-2.8717651469001724,-1.1775760736101573,-2.6706365091165334,-2.627969544641508
34,-0.312923302876998,-0.6392259039714635,-0.9874157258309864,-1.7369082158880704,0.26819240677402467,-2.056115790452243,-0.37241937152311677,1.100102100540908,-0.7446518680297505,-1.3983254576226218,-2.8428346717485597,-3.253299136796405,-1.559221479349265,1.044601379857863
35,4.732933753727447,4.227631631044656,4.010638294270132,2.64628552602557,0.23873904701482956,0.7383659883944678,0.3158020887038121,1.121959053437355,2.9734279129543064,3.8940128440900543,4.240027584725868,2.679738225436851,3.4426356972479897,3.4958402737306082
36,-0.8763001199846535,-0.1882307398051196,-0.1127503936822388,0.9593519229648717,-0.2725168053287225,1.9899299182578,0.441119966648143,-0.8209014976773483,0.46563024207216025,0.5613216936643698,1.8757928411300087,2.600826344772424,0.7508099245409868,-2.659741345066675
37,-5.5827855699110005,-5.223674905261587,-4.612745914713331,-2.943290671201909,-0.15162113937254115,-2.6417027493294984,-0.9617033021164972,-1.263008274709376,-3.105152681934302,-5.13075867780457,-5.090656092271232,-3.690348804227835,-3.890300056139343,-3.714388737310813
38,2.360807028263213,1.5759013450614752,1.3394111831867812,-0.09163055110599343,0.15718526144516298,-0.9133950790367489,-0.17995316193013905,0.5769945428149916,0.01950872196214845,0.8507437197542209,-0.6078541752881482,-1.6308684784225906,0.10838875322804445,4.022501339920794
39,5.626478488857986,5.450235137256586,4.53378067126684,2.8388387730248943,0.11604500132259801,3.732359226959546,1.1814068284717612,1.5477566020793603,2.973162005111603,5.525182591599625,5.23666736063602,4.018968262381356,3.9286431977631326,3.412938062989538
40,-3.695568020772728,-3.0726431291336374,-2.35400381390092,-0.6679579324274015,-0.009731892886525753,-0.6750260194561373,-0.13212092693558392,-0.492005229150713,-0.5824473032918547,-2.4248185928438994,-0.6388302165111663,0.7008546930484579,-0.8143225848995127,-4.902126825406489
41,-4.92711294415537,-4.806966164158452,-3.8995047636908535,-2.377662252131666,-0.10225786285976714,-3.696665569296486,-0.9261946590435368,-1.8056152555958933,-2.4544594228574845,-4.9498981401883535,-4.653521437476317,-3.6928034894494326,-3.600583389775485,-2.798448684050179
42,4.485226868822459,4.168806491296749,2.9159066679965533,1.1483540366361502,-0.11252300875760879,2.084112719638643,0.17341656814617407,0.5591050570920786,0.9709820395069186,3.659197526560915,1.4918494342645578,-0.1520325509681836,1.148128544399094,5.201328909573835
43,3.7873193203179394,3.515190634712121,2.9576760693767534,1.7067050819749583,0.04337251713599531,2.6838574480002397,0.37674194929505345,1.87656578352915,1.5912098461235968,3.5730346007929947,3.531476494083313,2.944885016493568,3.1162590377819823,2.072917596659555
44,-4.532080341577985,-4.503923697384939,-2.9376084191590457,-1.2658564000395711,0.21938551312356128,-2.7363468405973332,0.26594742685341083,-0.6541441045244565,-0.9246969524832891,-4.144319429217474,-1.6619728473092739,0.19159693951987758,-1.0140866917834355,-4.916427276156942
45,-2.618168922672608,-2.0129242000494556,-1.980695276651283,-1.0192032427005953,0.10464950816701768,-1.2166024051822546,0.12456850270469016,-1.6987219033872343,-0.627632687454389,-1.807388507149087,-2.2467315709522855,-2.136593378097873,-2.7789234934735174,-1.4051042710578683
46,3.894609465277874,3.9977367612922796,2.4748758002794515,1.046735104486056,-0.37268024876442646,2.407486930758768,-1.1670491525311573,0.610051537609425,0.3363556793480022,3.714152735510188,1.0776955132200967,-0.8175714354335104,0.5318426036851364,4.100895837672091
47,1.7786147949535704,0.7712085061210219,1.1910732350054267,0.4876857167021271,-0.3174027886722827,-0.055897550008575735,-0.22350111401521602,1.3435728283594996,-0.07933380696407764,0.15980310261762584,1.235429937579285,1.6384882515708017,2.8260228289998155,0.9355675285302526
48,-2.843471551416956,-2.857143271668013,-1.680254597326532,-0.6087720589332983,0.6296747426156224,-1.2951538267578222,2.261440426490172,-0.3150431836982764,0.6433239542635295,-2.4983244212670592,0.05628838749854625,1.8083954479222732,-0.006711888353479297,-2.857065663040174
49,-1.451351087814643,-0.1166540302580053,-0.7254541851452236,-0.21314900993811706,0.5047284954954016,0.6390540606774993,-0.27517009863119934,-0.9807819982531627,0.24275221303711098,0.9519181944571704,-0.8160414318819812,-1.7027699867209942,-3.2818067503737467,-0.7766500460063066
50,1.7431862505353257,1.470140448569634,0.7517559695435744,0.11553226037944504,-0.9858708590536175,-0.09917347479182706,-3.1270721458855677,-0.2153148859302403,-1.6406911146048404,0.8540205949579931,-1.3254401622559928,-2.7846486064452574,-0.22116208010388308,1.3393566565477772
51,1.5993647519852683,0.13282588977003648,0.6285308005525921,0.2050064038891696,-0.5612292003907214,-0.38225796353028835,1.2947201379649365,0.789154285655547,0.18422081855322123,-1.3305778206051873,1.0493724697382718,2.3655295980213222,3.92187897989429,0.9934586394423298
52,-0.9138108525862829,-0.245534195207213,0.10664610383372689,0.27644341892258356,1.3583087443294224,1.2055248845079913,3.366802676095054,0.8302349884002602,2.231703537463897,0.7803496032046853,2.2762194071135826,3.3320903507669497,-0.03591975923978613,0.2592463890316142
53,-2.009983861347256,-0.6688971210394514,-0.8596673393888,-0.39138003191105253,0.430562820868643,-0.4948583113341144,-2.4900725670020107,-0.8576274239849269,-0.9614377506734514,1.02967401506009,-1.714215310469155,-3.415481359375318,-4.382445064591704,-1.5842640197988045
54,0.5283489230748207,-0.5280046359996786,-0.7141713849913928,-0.4612382552019527,-1.6210663608978866,-1.6262843880540625,-2.792649860381239,-1.307603974200714,-2.1564642894268813,-2.034332027898314,-2.6079297067180844,-3.1530145697785246,0.704003298748257,-1.7430008990643873
55,2.396491714450843,1.4326789235031647,1.301913321642897,0.6506666006946005,-0.1413455482852352,1.5328649455052403,3.375204583313248,1.1271601188622162,1.6744740221382974,-0.29133837320705275,2.413708294885203,4.452322255071499,4.353675888096013,2.4844371596639183
56,-0.5788750329432758,0.7517728624280404,0.9419186219107941,0.40892658077936467,1.6685992651768975,1.2808471339741991,1.5311221342069696,1.4618253014265805,1.4489246034252652,2.698517380801491,2.2896381411541236,2.1928140431801335,-1.4835141620770498,2.948949320302483
57,-2.508664808215949,-2.1134127335101813,-1.7762280365959604,-0.8537872435367306,-0.2058763373186457,-2.2483618560194643,-3.5237769026666754,-1.4071890955614093,-1.9420107745979935,-0.558004628757266,-2.755362671985294,-5.027881463641441,-3.7430127536357696,-3.5936445005424753
58,0.9102364699383255,-0.5059770813318754,-0.7459055323389727,-0.16861225041887232,-1.4666380388505302,-0.40332398525973845,0.002525342812692464,-1.243083799515942,-0.40896968604100037,-2.7484066026822465,-1.5515210409712101,-0.6843669831620615,2.0064383853830168,-3.7576734932857163
59,2.210425822750007,2.4803779200123257,2.071981526720624,0.9069526535871175,0.4879641883418065,2.33533337393139,2.756665288688882,1.4646055538288631,1.5967483862446892,1.2059732799883143,2.514039742173318,4.823669967362772,2.716129193122466,4.799490334565441
60,-1.2938031261837002,-0.015188430442881347,0.19578577138560388,-0.15212675137967285,1.0634141119129223,-0.5901421928607271,-1.2553573725928238,0.7747392095927372,-0.5575334414928734,2.321042714468974,0.7689037314510057,-0.9226315973659402,-2.0186902488590968,4.081946504123753
61,-1.506898230964708,-2.429343301899577,-2.0007146076876676,-0.7834726559070975,-0.6119464087630356,-1.7679922831659192,-1.2336994273817328,-1.1439510711489362,-0.7428792328607887,-1.4270991577299044,-1.7079495854031463,-3.7901044350729447,-1.6020925205356074,-5.972634107524037
62,1.5074031953665445,0.5817433281191509,0.5207072338565698,0.4279709795648288,-0.5626252296820001,1.2926717570624402,1.7514502501137703,-0.3033585561724679,1.1316586012220948,-1.6687313315265224,-0.3047559105570593,2.1296068874764145,1.4853562067003925,-3.8643339982368974
63,0.5267812904928709,1.9802399056778779,1.464351336321354,0.5321470310905398,0.5425824540839438,0.772459998246752,-0.5924345029690781,0.4556434639075913,-0.32673343463490934,1.133078264497237,0.5702729484620978,2.178783319303884,0.7291784031006862,6.941238833011739
64,-1.3983077569749696,-0.9895361999410105,-1.1360427737049723,-0.5649261378662995,0.08191453637374611,-1.4658302565606902,-1.2803092024497025,0.08172389300756311,-1.2026858804043665,1.095873231281578,0.38065014535496494,-2.5843485271465605,-0.5733357653649445,3.1119882144963027
65,0.5235265383611887,-1.2476443874101577,-0.5113610424603954,-0.2544872618148617,-0.29803184834304486,0.3025913880238512,2.1434557788189235,0.4189784842070376,1.2913924886076389,-0.4007724186486449,0.5534459203393011,-0.4458093776358508,-0.28789233299130057,-7.4866057018543035
66,0.9203291762512665,1.0968508646639876,1.3849573208312158,0.5376446193642466,0.2768477708872446,1.1014167300868385,-0.01987604495761215,-0.24459609350832295,0.8676693353876191,-0.8750866250074518,-1.0175078723998794,2.2136075598521634,-0.457916770398689,-1.9582721286211529
67,-1.4191431627367592,0.40484800228439666,-0.6516034507518087,0.056133946095415034,-0.07056791313028117,-1.1427449471657563,-2.9356206323993854,-1.2127970342610852,-1.9464544095471514,-0.5370935716373759,-1.331202968424273,-0.9307122551041063,0.28628881667838707,7.4006544235103275
68,-0.143171153949337,-0.8434170096532231,-1.1060621258861085,-0.39503389746148093,-0.435345115177857,-0.3758353612483373,1.718977702312439,0.7449089848933683,-0.3323476503963697,1.15259274938962,2.0509713978165975,-1.2328105785805865,1.3813224072605947,0.6974199362505648
69,1.9780998302978736,0.35015431118978024,1.7117581513735507,0.005810908394055562,0.49211296121286524,1.5760510223889566,2.761092551665803,1.7029796375179813,2.2592648911921414,1.3564067294683109,1.5480112022594616,1.6316154833651748,-0.5989764150212454,-6.600383615429795
70,-0.7672939834606419,0.26134938659032675,0.32046265583712497,0.22798970054684117,0.3366360545888968,-0.45890608676342654,-3.267641066383035,-1.3859844999990443,-0.2147805835075413,-1.8777097567318073,-3.20068886821285,0.036919174926117584,-2.073981765655162,0.2674641888961015
71,-2.1129988645998643,-0.8301884156744943,-2.3570090892310076,0.04958484584641689,-0.8704111328944618,-1.5944568784038582,-1.754467407751288,-1.813332169946699,-2.3254209462588875,-1.7572501570219505,-1.160361944499022,-1.5944502926068471,1.0590352829474263,5.235195531203241
72,1.597355343281579,0.5213665801017601,0.7540541349970477,-0.11552992689389556,0.04413960138872998,1.1805723853001502,4.211755987579565,1.930259346725154,0.6813870020602733,2.8005567455584077,4.163331079846102,0.9646915492438827,2.5132968002235887,-0.5742395361842207
73,1.8576749056111894,0.9017921251157727,2.3992026135934523,-0.14227963948934833,1.0750409125231366,1.3038083866537094,0.31826682181378413,1.6324809702647134,2.271642440319747,1.5919953711379882,0.29591461771830097,0.9976432030689731,-1.5299726005549426,-3.6998439089363524
74,-2.153391999701399,-1.294917593254097,-1.7715125526421112,0.08136410486073785,-0.6653997927423981,-1.6501482260816422,-4.35570107005842,-2.220353148896686,-1.070072925272511,-3.5599349362813264,-4.701915773641733,-1.4892894502970073,-2.72560938480648,0.08530992268348445
75,-1.3548453600249422,-0.5325337194845272,-1.8596874645299313,0.18103711913077855,-0.9584939752180968,-0.8528103629473419,1.055388495055806,-1.3419255004503634,-2.1747461691005543,-0.9452442595083839,0.7930344592711388,-0.16081584230920648,1.9231667612442533,2.507883849173017
76,2.327652425857208,1.8119076590376546,2.390008338353825,-0.08793624543969696,1.3802480129144155,1.8092343757032419,3.8056864403972948,2.242450135372797,1.419407484605006,3.838044881641495,4.7117147777727935,1.4474996099877226,2.73966119037622,1.005160053408784
77,0.80224952943824,-0.1748311708809936,0.9715648334366035,-0.11680064711669742,0.41808192938991456,0.3872008296291354,-1.983073712675119,1.1017473295382059,2.042554488976323,0.11453586960982673,-1.8077203786859124,-0.5786748197255244,-2.1719303578964952,-2.0681720193508113
78,-2.1328718429838425,-1.8633091451257044,-2.4138638746087233,0.0704135173857457,-1.9359581188733797,-1.654257472240916,-2.8823554028245475,-2.0992750685834096,-1.7430889752706062,-3.515649014607868,-4.248963139502579,-0.93384584154802,-2.582418380114588,-2.225172946651832
79,-0.37512630889164267,0.987917131821699,-0.08716551682075419,-0.033362739796765135,0.5172191690973018,-0.04013390835206597,2.3189083505892527,-0.9653624112680925,-1.851399512598195,0.5169501486167833,2.495287022718171,0.9639237583414794,2.2049290161956123,2.481489804642433
80,1.6851666507973413,1.3653660737508027,1.8780940707484923,0.013275277774972099,2.0456028863715914,1.224416146153464,1.9537325488452497,1.917132894605977,2.012446271183023,2.746919740236794,3.5117869502854426,0.17037973400201403,2.313402147374978,3.0349075186303556
81,0.16081517112790264,-1.607923423786262,-0.47327905680064425,0.2047158533755194,-1.6317333255555189,-0.06611604490225217,-2.163209565845056,0.8732994174400408,1.595474796504842,-0.6674519186991905,-2.732344243283586,-0.873888048477051,-1.9580503876771846,-3.480173791674995
82,-1.1402305987692043,-0.41652412409582334,-1.0282857908257985,-0.14925608937773055,-1.5201180468239808,-0.6123962804109115,-1.273148503591635,-1.7516406739119805,-2.1847253612284825,-1.9013665979304961,-2.770042416140637,0.5670018555143091,-2.056061516317186,-3.088538975199932
83,-0.14079637740849246,1.7801706811197648,0.5598931282164958,-0.33161814632110664,2.5577729912269853,-0.1606479816180615,1.761734207134739,-0.7235374731529419,-1.3044134804800052,0.3129878302654054,2.5699108654653635,0.3408743102902377,1.4276439899422046,4.559243402981757
84,0.6171990863131058,-0.7163509862589565,0.20005997085370938,0.2716059717176079,0.3961803271411651,-0.026610172781022404,0.8961165552483067,1.5537345909001223,2.241444499033871,1.3840843460153414,2.2591794445120112,-1.024973673085262,1.9803491970715592,2.401633309188134
85,0.229943971937898,-1.4076061414688925,-0.2465414765135586,0.39245012909413735,-2.912389064558498,0.7363289645606165,-1.3573748891224415,0.46699436078792206,1.021273381456383,0.27721366333243813,-2.2127155962987777,0.46364843337472517,-0.7257527767741102,-5.2352813593713154
86,-0.15540169945292623,1.693710087588709,0.34176406504940005,-0.3002319779238306,1.0233490987411142,0.5012743342597186,-0.7040784998550316,-1.2146083127286786,-2.198058152770413,-1.4161102321113477,-2.077843465998106,1.0448771995343213,-2.225503201558962,-1.3251922824635964
87,-0.34610379706735883,0.6071527631937987,-0.2303059361819425,-0.4253783209842868,2.481317407946121,-1.5574647740425642,1.0714554719326972,-0.1631454434145635,-0.7694991370201104,-0.6637367634082745,1.9282928941303221,-1.276299606085245,0.08270818132654202,5.2891872620103
88,-0.27145069802954236,-2.245904359608949,-0.5181821908437028,0.19005489826952862,-2.2629054644044055,-0.6548725487336742,0.5079916366531739,0.6558198750138902,2.0771918841836747,1.8929773554101423,2.1407196804096404,-0.6169283208234917,2.801708510409211,0.3383991533729032
89,0.46277874982388445,0.33148747248721194,0.6134041216302164,0.5055058688114644,-1.3518684850359084,2.4054130319394895,-0.8672986795097153,-0.04031195798099208,0.5438152467999746,0.47032223021846525,-1.9188412453023793,1.821714889222012,0.23023212573918078,-4.8538379061973975
90,0.6996082937960484,2.2933716807697615,0.44330928855181284,0.03803418582948028,2.8735854584678253,0.4490941607829749,-0.16950436831967955,0.096445835249626,-1.8729334734402072,-2.4114219924184694,-2.219349558424842,-0.1051347616362133,-3.536409973370689,0.22096396715047906
91,-0.6113212303537844,-1.0747856937307236,-0.7660680441595153,-0.6968327289027237,-0.08938521959474481,-3.018452631716795,0.601533226400331,-0.010300636631074576,-0.33496728905731965,0.3926160589869484,2.218089217415855,-1.9088003773833024,-0.03157806975176159,4.298074500102453
92,-1.1235001719616542,-1.9787632020877897,-0.32505828318761343,-0.3048270574683138,-2.6436316036388146,-0.006616721171784514,-0.3226537593936356,-0.9010570734125218,1.5419972566976594,2.4664755710791337,2.057777670671657,0.8454047606031972,4.113635491795057,-0.33276462950211705
93,0.8373524810604157,1.4000222499975565,0.7317231607389322,1.0088257626852575,1.3096173650856522,3.206382378261297,-0.12518371700593203,0.38244087439317564,0.16641279974870105,-1.643494934221789,-2.670505499743439,1.5094195252156573,-0.6561177611286653,-3.979348539043971
94,1.4873038857642256,1.5896404311994008,0.32366647236128915,0.5168189229252735,1.70955543312705,-0.42593529284610937,0.8528973568924004,1.5622420943227882,-1.0340362794538378,-1.720472640123583,-1.504974258533215,-1.2987428079444283,-4.202213223770311,0.2778216728690554
95,-1.149692444886302,-1.293836080270565,-0.6807129296644651,-1.38692791665475,-1.8652557251738606,-2.946955756801302,-0.6219865427843018,-1.010624326424141,-0.10919908306777928,2.7429824966415404,3.007360985869472,-0.7830618604011916,1.579100832213413,4.01367888009573
96,-1.7231187903937557,-1.4115679386726074,-0.45589061756342214,-0.6196004897336798,-0.5050224741875811,0.5862227607918229,-1.2457601503597182,-1.9246567404035293,0.34065528040961784,0.19613130663245998,0.594193626314781,1.2453754256242506,3.614150028970336,-0.4428058206128252
97,1.503069051490027,0.9423839018993377,0.7837322646417488,1.7455949905830743,1.6037601362878537,2.4064192605666066,1.568989136565364,1.7211520128469946,0.25714408309707865,-3.1512381332732056,-2.979909370923128,0.02905796531213483,-2.339578843616232,-4.197874769061628
98,1.802005721063602,1.5915511875528243,0.600351320838733,0.6243065022515923,-0.4313976188699611,-0.32169564274344653,1.3592472158372348,1.9487441142731605,0.47247688526594295,1.7151209546573472,0.4701050594182839,-0.6419472544710644,-2.41129814423606,1.0642255458842242
99,-1.8265095488249496,-0.6234214140156734,-1.0955073910488753,-2.02208429988663,-0.7315691757390873,-1.8679896266441895,-2.537565640252115,-2.3120289339797737,-0.6737319382955967,2.5902295963659885,2.480722272832379,0.42174443881775137,2.5629794069922975,4.127231010617834
100,-1.7553488328390852,-2.083146380068537,-0.5921513189318669,-0.5876574481815463,0.6969091153051069,-0.33404596425988686,-1.1574413607011769,-1.726059851676751,-1.2749448483864168,-3.4322693223868286,-1.4060872173964294,-0.35151030560399665,0.9006768727158816,-2.060299397844321
101,2.0714173371586173,0.565840419616873,1.5206813261232368,2.211581462997739,-0.28310379491523696,1.6045892024946842,3.3152032702541665,2.642083391974565,1.3423126061801942,-1.1719210741731678,-1.596289913027613,-0.3358029724553566,-2.0668371073975624,-3.439672343499914
102,1.6492941468005269,2.6921058896137002,0.33785640626394786,0.5601622271643585,-0.2002261808733251,1.1720881378127823,0.730477996348324,1.4301799622890425,1.920498299898178,4.44860114026948,1.9791565690042563,1.4248157610483532,0.48581827220911783,3.0448884868315806
103,-2.237697187642391,-0.8532483828751904,-1.8751012485711602,-2.3563329469327177,0.9236197544851955,-1.7605472174272982,-3.7403478173305493,-2.6823165844570487,-2.149722061385464,-0.6644991623014705,0.5733203056394541,-0.3265121942198736,0.9488622152973303,2.049468309785052
104,-1.5338309652176787,-3.1822843426524914,0.1253041275540726,-0.5424476677871449,-0.8051506494706588,-1.8957411240708513,-0.2566807486457726,-1.233974174154603,-2.310357624484709,-4.539519794119833,-2.1006446019752634,-2.233173288074403,-1.3728949867177718,-3.51468739213668
105,2.355502706606383,1.4106456864772259,1.9921582587258795,2.4967641877039863,-0.8552542393134414,2.295564133991459,3.7614077541856963,2.5083167998366163,2.91452596125886,2.3549653997549034,0.2797578250738594,1.3889333977978375,0.4504384460825355,-0.24403864420658497
106,1.409158784202971,3.376659405296261,-0.6561538740631464,0.4843932921830494,1.8398948331906104,2.23817485078837,-0.0721256955906168,1.2383344588451275,2.438592155953206,3.8205779723546525,1.8632672785445221,2.5288937965368676,1.5985666905499907,3.1104453620831047
107,-2.437965981705104,-2.0588781318638203,-1.8009004080604083,-2.623063729518548,0.07206200829837046,-3.0062195898041564,-3.4457989374933047,-2.2468230914720615,-3.448131177965951,-3.4361882184151975,-0.7135173304413751,-2.523432957227437,-1.6943833006289362,-1.4069565296039408
108,-1.2382566960150703,-3.209377911260629,1.089860881915871,-0.328442762638322,-2.4144083138392283,-2.059324463792622,0.1257497942329932,-1.4449851150022306,-2.3977439566667518,-2.654906185443292,-1.5039203045015435,-2.254556692005855,-1.2715663604591814,-1.8204789768539982
109,2.445386539804811,2.591018011589075,1.3342427789721474,2.6658640948483945,1.1000877691133204,3.6041473881798716,2.939630709400143,2.0110222870765484,3.6220192933972273,3.689182738514902,0.6353264922455181,3.3742320134029296,2.4360995792998765,2.286079096562903
110,0.9975469071525322,2.726977540809479,-1.3085838373447836,0.06418482656917715,2.2476229408371777,1.392466200081965,0.12264267060017643,1.7775970003993433,2.3424368555884696,1.4843638300666024,1.3084576660708496,1.559131379980331,0.7037678797911455,0.02884045994548942
111,-2.2938793925733436,-2.83377706940209,-0.682721416082592,-2.5346221478913167,-2.1442884733559824,-3.8159135348159037,-2.401868125533111,-1.8578164999671603,-3.412615382094868,-3.1605165281914838,-0.14761303334429163,-3.689401364859653,-2.5547114342424764,-1.9961604149942256
112,-0.7268883046634232,-2.0633642601135755,1.2604257428371892,0.24638749149795247,-1.396075862685122,-0.4356171761356775,-0.6025930755103744,-2.1301715400504895,-2.427033742571534,-0.6754760320883235,-1.491839515601195,-0.7324023065637013,-0.25381816456097694,1.6131435151318954
113,1.9083624384740556,2.686653951883305,-0.055662063180042055,2.177338513220368,2.579184940210467,3.4756440247437714,1.9464011518604665,1.7812801399873255,2.9053829177087835,2.089836630802116,-0.4930211115328483,3.4061612427465855,2.1785209371049628,0.5420602713739866
114,0.5385447553745671,1.4073057140300322,-0.934679856529269,-0.4907615169597034,0.23615501536547884,-0.5047026989292832,1.1892465366277098,2.413398908157091,2.743760108442502,0.4345684697039502,2.100716291584314,0.08777694573740294,0.1616902163329172,-2.4338028986122193
115,-1.2869414363591167,-2.1494672468645137,0.7908868894083174,-1.622381446723971,-2.176859034748337,-2.5905640838322928,-1.6158223332180748,-1.734481456486321,-2.2568732684179085,-0.803844734712021,0.987177235046522,-2.658665011779,-1.5908946690404302,1.6496507872331723
116,-0.5718961716754105,-0.9595919229999474,0.33504471731959207,0.560272478896766,0.698422191403559,1.1073700449352786,-1.756358919345765,-2.579262329504747,-3.2871817199069073,-0.7940699201314141,-2.986598030607285,0.15666630171208556,-0.45606602153468,2.0002890930166286
117,0.5339531057346251,1.3395101778561207,-1.4247378009458802,0.978254344993447,1.0759337058745888,1.3604277258509887,1.389803733207686,1.6601852558121368,1.6316550654455706,-0.3750649709669239,-1.129937796635579,1.7114802074129536,1.0751818633713013,-3.875628387325853
118,0.9165698307499307,0.8701621982491964,0.5162684606642501,-0.4045784387080196,-0.9591074188344543,-1.1514834234730384,2.214784916248688,2.6216071619897447,3.9597011216848714,1.6407079123937094,3.8739926531930062,0.04842872866945608,0.9753610962590004,-0.28469382127326054
119,0.16360156996601966,-0.47788876208790293,1.8374329338767583,-0.39388396147419086,0.26821294735117934,-0.1310974788557604,-1.214057252341318,-1.513556299713991,-1.142355026357059,1.190050198664942,0.9050190407949992,-0.8512823646175556,-0.7834249863925291,5.400368149649626
120,-1.5478391093644293,-1.1663719961618677,-1.547553526075373,0.058835168978946466,0.3982286938470871,0.6172700146706642,-2.526306556677186,-2.5632149512587703,-4.614400329276057,-2.757508477113278,-4.498842992708424,-0.580989807682578,-1.4804362700421387,-2.322372979312506
121,-0.6092983069966514,-0.17764349421385423,-1.9070292811841119,0.0007960819927780498,-1.285277552479039,-0.7227470120941806,1.0319233798766774,1.2710281061589044,0.8185181877984992,-1.489398942738672,-0.4785532027015119,0.2820959441002779,0.694170566201574,-5.702427346749516
122,2.312921185681872,1.7131527012727366,2.612839728914737,0.36633454568123786,0.7478164804507651,0.2777664114739361,2.696663292800027,2.441731848848154,5.114053487064209,3.8705127550133303,4.743516399668668,1.2098235402857187,1.7884161953390714,5.144318739849914
123,0.6850561004763125,0.4436817754176787,1.5603724139928274,0.13746383017687835,1.5578637322836015,0.9542024541549075,-0.8066848903727611,-0.9296709943011616,-0.6144483273197372,1.253461074436034,0.0892884924258809,-0.06319941996863586,-0.6696066317112045,4.634952079240227
124,-2.980094493822853,-2.2492946890979697,-3.504943650860975,-0.7256588161171466,-1.960086616109787,-1.1472442094808115,-2.7575598073032856,-2.3004655764230093,-5.378634372471401,-4.705268375237001,-4.685276254594138,-1.6912600109089757,-1.8518175108378423,-7.437273161579367
125,-0.40906930992783,-0.3111854517254213,-0.8258368312107661,-0.04935603788621016,-1.0250929834723435,-0.5689798909231681,0.5305866271485242,0.5046648237275542,0.44697236155282877,-0.6031910320126808,0.10030094427850114,0.1081465695877911,0.5648004366181466,-2.4558376035998304
126,3.3298301111069453,2.5044569046836624,4.011976066242943,0.894479283030867,2.6849837711525284,1.6001092752519976,2.7469444726413434,2.1827444499672874,5.402398802069473,5.054471240636818,4.524486829981263,1.8601678097578143,1.7476235895360868,8.614771013889143
127,-0.06635142382937047,-0.0353402864316765,-0.14712659864174327,-0.15632993322609826,0.011430789435392441,-0.15888140377502274,-0.2218346775010054,-0.02919842428084408,-0.24203874623236435,-0.2258817365730858,-0.09605053576561162,-0.23827906396751145,-0.3172232281800381,-0.2674181212584809
