,AF3,F7,F3,FC5,T7,P7,O1,O2,P8,T8,FC6,F4,F8,AF4
0,-0.03866447368269894,-0.08314707207386982,-0.031482036798147574,-0.05869177661421781,-0.04308806010576853,-0.049250189589566555,-0.013777552878093137,-0.05972387317813753,-0.12822271454957862,-0.09363472297502724,-0.08518218028355608,-0.12875155496848,-0.06945153881510852,-0.002393229722439431
1,2.362334574619074,1.981475568070165,1.582116164926062,-0.6765645258238604,-0.057517916061573124,1.3152458231224464,-1.5740238784435467,-2.3022790279152936,0.19908359563645717,-0.9782939041459375,-2.8750742292791283,5.16501576764942,0.7932116034546512,-2.6767534628393492
2,0.17042655316930627,-1.4885673599841358,0.75721711383232,0.17817214453062716,0.4837145380506483,0.13930339079607193,1.3163670671202534,1.0915793677165921,2.182443294618977,1.575023476551012,0.9783340494739973,0.45990870312898874,0.5903951778596599,0.1519633831593576
3,-2.5282458365740292,-1.1108456712447465,-2.0404874087235605,0.655982280238155,-0.12637387904917277,-1.3693142545671706,0.7750777251638566,1.7769147559819103,-1.4655904530683483,0.28417989117157366,2.5484613686387347,-5.447320420303361,-1.0233933453976094,2.3409257551562597
4,-0.1272535975039598,2.455378132517022,-1.1917080023303197,-0.32258114604051197,-0.8225111956775476,-0.21201998805691818,-2.139626177830425,-1.8400663988738468,-3.4500564008701766,-2.700220835586454,-1.830350855238164,-0.6219715909851162,-1.0445643315709232,-0.1265672466504694
5,2.709528461944196,-0.21893830020060628,2.7693873668374605,-0.5688244720337989,0.45344617999078896,1.485844845618978,0.5420564990236056,-0.9055444884764617,3.5041694639169254,0.9463503488557449,-1.8291949178695641,5.902047612910174,1.4737592666277848,-1.8038219613545718
6,-0.1258567532928859,-2.479201247804145,1.1878345683374865,0.4910671597054136,0.9939286735341766,0.2543438642635525,2.183225868441751,2.136341463216268,3.4800949814190876,3.21450528024087,2.537204205494531,0.519994405284872,1.3737687427144485,-0.14005249339037323
7,-2.7647536883839456,1.345209511919134,-3.528721735514123,0.3405849603981954,-0.8692251787776508,-1.6705106314712046,-1.947929479727483,-0.11250550071179488,-5.6225876895625095,-2.4516858432226574,0.6614275820604538,-6.429300296112573,-2.152384566931944,1.211580693439226
8,0.5248108292608598,1.705107832036109,-0.7429972652357943,-0.6052058108960938,-0.9438698860553815,-0.23600029504312744,-1.394233022743121,-1.9077960919405768,-2.2293560626019437,-2.9678889966209576,-2.8769515250343605,-0.07445110716811268,-1.4630470244368612,0.6215068072023217
9,2.6184459875629367,-1.7096959285483897,4.103680923987667,0.06437953045769561,1.2960317678617086,1.9210875308871496,3.0024330852038426,1.052476820378673,7.132858851724216,3.906733727535491,0.8953108087315528,6.8911704072929965,3.0248872032105156,-0.6618200591568972
10,-0.9682485090956767,-0.688693378620356,-0.034027030907399496,0.5285460921870677,0.6410317238301779,0.10698392792317801,-0.03973421163367705,1.1875792690096796,0.04549939364561514,1.9393565153066412,2.573802990129469,-0.7629566666182739,1.147232675604963,-1.256721644336575
11,-2.284271792944043,1.146912422168018,-4.365286626518214,-0.5877070160407675,-1.6350956398252021,-2.2111644189716606,-3.38875467131111,-1.7115658257296515,-7.581711915762771,-4.969041746744304,-2.5939729502611617,-7.1066030745159,-3.9530670631379294,0.18576940799913913
12,1.3958621122711437,0.11718159878572686,0.991448196115718,-0.13221943594297397,-0.09360362619244307,0.19113498074751373,1.7732773114858453,-0.10200615826990232,2.4916339509628527,-0.2502980272947618,-1.4302567857685713,1.9751710711615809,-0.2730594782812317,2.0210312047958996
13,1.8175640257192132,0.026124191730119664,4.273616382338834,1.066031668928374,1.7813256099738428,2.476917222646521,2.9874994356867486,1.9506585305713984,6.872490019723783,5.333536039510312,4.019803641959702,6.870964502250644,4.665997770176702,0.19760784439743553
14,-1.8202034287685374,-0.4678035576850298,-1.9891816051239868,-0.6228008233806256,-0.6386131289587798,-0.6986068284427321,-3.416894589380909,-1.1614269482518653,-4.795156332536647,-1.8365375127041315,-0.5371321879742548,-3.4451762715050425,-1.196213585365504,-2.941821675923152
15,-1.236055894479533,-1.158637687286114,-3.8434267532630106,-1.2806991012257951,-1.6483797840501266,-2.618637327254546,-1.8798227760720903,-1.7188188463666592,-5.2382449108814075,-4.795613545083166,-4.711608010212714,-6.0064423633520105,-4.804856883978494,-0.40395801365160844
16,2.2792194665010936,1.7707181452373162,2.9120182167219655,1.6311608992392146,1.4443051225422945,1.404291910698721,4.636530003598675,2.395466950225988,6.460708477105465,3.9402972786587673,3.0311168020559953,4.943794215672427,3.0810304987517263,4.0294352920938845
17,0.47915668804861816,1.5751756645767117,3.112406474232612,1.0529962823624535,1.1965989986027663,2.5251061743646446,0.29918555668123076,1.053597923519537,3.096848390481649,3.3169880981849125,4.342112415126192,4.431430646471996,4.052977971370058,0.26294885078952224
18,-2.738800946299002,-3.5847671669029335,-3.6512237956259157,-2.6530589627177297,-2.175334749318712,-2.2232021947060483,-5.215167938554103,-3.4089495210794674,-7.343532583012305,-5.618968154331575,-5.524593307485454,-6.156661638714154,-4.958886605595488,-5.167965887185965
19,0.5434706840552767,-0.8960303829227301,-2.139820648775314,-0.3408186555785551,-0.4564363158758869,-2.1178958386661013,1.4375141746250601,-0.06245164996166162,-0.8724856497221266,-1.077852096339839,-2.8777376242887587,-2.2239371148476086,-2.3101356271955997,0.39701033385335543
20,3.0253487570580573,5.190413340818334,4.08891830726992,3.394901597450123,2.67551578521869,3.003192980029272,5.077011139664817,4.046891280334825,7.511003844269178,6.467806858494323,7.426547921934926,6.753967515351223,6.262135626204803,6.062436337847445
21,-1.8285130445124504,-0.7766900826934613,1.0320918193009794,-0.7150832979933873,-0.45936491952554676,1.3984711646579466,-2.997077708744052,-1.0984660229749779,-1.1263594026478259,-1.5141550511180555,0.6346785736070705,-0.3494513182353465,-0.1767868745396767,-1.5931346159211333
22,-2.864522249474807,-5.9071799224946195,-4.1144842146089955,-3.627983919395708,-2.8216420863353857,-3.5684831648756354,-4.286500601901205,-4.199261266382153,-7.125814100202156,-6.247488202678544,-8.30106922951127,-6.490173420566792,-6.490558786893454,-6.318882485624906
23,3.164144277883721,2.8866910470700327,0.03378658369940465,1.825613921539104,1.3637611578613058,-0.4716632440915274,4.08847131161357,2.234945077337317,2.7276575373659044,3.890068853461201,1.8122007538792386,2.861520551633661,2.8190410101855417,3.069360858423968
24,2.0360073401341476,5.392990612538299,3.67529747981251,3.288260730858641,2.569727217226225,3.7868958528414844,3.0305210519062604,3.8147456569077627,6.344282737316506,4.999284840694785,8.038817864564248,5.3048455463961,5.45256060717571,5.644391752917036
25,-4.125924122221655,-4.648980446168871,-0.8219382010050444,-2.6578307957388296,-2.0328515913612066,-0.47577867165249793,-4.513877646496876,-3.1200329574201437,-3.838692371272635,-5.469753134087947,-3.8402209657162953,-4.81682185309738,-4.863734901949949,-4.322920376309565
26,-0.5652828230682547,-3.7962646988165654,-2.835825226573685,-2.5075950007735797,-1.9894515299577065,-3.6283611964988802,-1.5829577321554256,-2.9311430177572317,-5.289253385524339,-3.0850638181521957,-6.892278557241634,-3.3854025578439675,-3.408485492847075,-4.056444898472641
27,4.229815724320809,5.373333252661643,1.0987103684614627,2.9618194717623587,2.272381186819702,1.2400374968811598,4.209147429551769,3.5167890985097485,4.381565941303367,5.858853278484234,5.015222501026763,5.792677955435738,5.6873662521691575,4.8008855235814
28,-1.1750450949830107,1.699165649011026,1.8064391927182697,1.5623347520312347,1.2637241989588701,3.180603190521704,0.24936728187722573,1.7123023789211829,4.095818647512174,1.1063801155543942,5.352078944056664,1.1553967734038495,1.0214739021487356,1.9610413454224174
29,-3.186616619058179,-4.7468431043188195,-0.7281207636833579,-2.6622259655321305,-1.9933823263745312,-1.6783356574275476,-3.261369883628512,-3.2382727670918903,-4.287461226207534,-5.013066481532268,-5.238920604313652,-5.586823492194996,-5.07294067502269,-4.1754603966467405
30,2.548712066473612,0.11836826926444226,-0.9113839635506452,-0.7661158958078879,-0.6392680545116297,-2.610554710199278,0.7008424920182363,-0.45861735184172675,-2.971209192350444,0.2893017058889164,-3.9271961439010172,0.8271761666724228,0.8849566699391546,-0.026795153399972377
31,1.1202814268627088,2.9587392395048413,-0.2384034964361792,1.877964358713323,1.2612486033077916,1.7582633060118125,1.8913663637142681,2.2375853051955863,3.56379941301171,3.2864160352888483,4.738569353552178,4.3135585296596695,3.331362941726318,2.542903721361376
32,-2.9160861466322254,-0.98949602187227,0.49024021613339164,0.3558886949136192,0.33909271476822783,2.0935488463975602,-1.0959148895051916,-0.4447246883468874,2.195498064606292,-0.6456852063616082,2.9432383725562414,-2.0410164604607806,-1.6609148286494493,-1.0952132898046392
33,1.3903860371974115,-0.6225717507358364,1.5268852850813568,-0.8698694950571834,-0.2868586292618269,-1.5539804228029093,-0.4023108062814258,-0.6866916785068847,-2.3848129363272146,-1.3259540824118319,-3.917736132300032,-2.3978584287128726,-1.1983738015282634,-0.4269638612272849
34,1.9516442110292915,0.6161228180424692,-0.760312196104143,-0.41492298313111026,-0.47397705925886857,-1.7513345862450898,0.8974101149019453,0.6501325326659555,-2.0292523426616866,-0.12175724132665589,-2.4558262764984575,2.1841494421383287,1.1026096507562175,1.0621369277744663
35,-3.501445125030114,-1.4622257393819564,-2.6955359126170833,-0.055593176497951195,-0.6443956701018433,1.1999651085697627,-0.8888230948930783,-1.0132343155966288,1.1239811685390086,-0.15424890482599388,3.1605024891483264,0.45238487850944814,-0.4526188922412444,-1.421296953224283
36,0.1516643645378134,0.8292477915728093,1.6962255228435288,0.8545420902877627,0.997270397378996,1.6289240574152661,-0.20279136833778852,-0.002664185928827091,2.5645081517828756,1.6815294114655575,2.3024263019195703,-1.292069484875792,0.461903718982893,0.007209434417098133
37,4.4516108155666965,2.6056429121112523,3.278884473743977,0.6493396377266791,1.2756082964647493,-0.8372271019863565,1.7167501931490068,2.3276227469261315,-0.2704280402786453,0.6325267373237203,-2.6935700417792283,0.9259971780712367,0.9542131736260833,2.32560677179305
38,-2.714692847009509,-2.783950921016526,-2.991475925269664,-1.4539434092526256,-1.7268161921314271,-1.7088697163508926,-0.7785852545368247,-1.3470315313345507,-3.609912860940238,-3.401045752084293,-2.2362774978806668,-0.2670039931103457,-2.3092279485984215,-1.583091665358536
39,-3.8995186174405183,-2.463272275050633,-2.9740160919674574,-0.7975479635857381,-1.4652892581171535,0.5819630176420616,-1.9193576502266052,-2.775896177999875,0.24129991239539073,0.028329345073551046,2.5584753018323743,-1.3610699054784883,-0.09611310290211338,-1.945314092336578
40,4.841823637474485,4.512418616350983,4.141505192080308,1.942430138351166,2.4216999566136437,1.9368053504630969,1.7669719935417245,2.9453839296659354,4.699474975158199,4.579777620331836,2.052340877741461,1.926838008491883,3.6125922687367766,2.940769703942976
41,2.0780458657890555,1.1329396673588383,1.7868673337943597,0.5524699721029621,1.2203553730157,-0.5199601681596537,1.4732241350225672,2.1371804154491927,-1.1767256418458185,-1.5310721125180975,-2.671403427519969,0.8166774141514379,-1.8155453450943642,0.3901586764250979
42,-5.799825607825449,-5.3686723180795,-4.632066732027934,-2.098438921544052,-2.8737734912315323,-2.233744821467496,-2.4688818179960283,-4.17989080117121,-5.251540106593334,-4.714293903952318,-1.6438826736645387,-3.133703560475932,-3.759005286214786,-3.436025285350292
43,0.3137766043139321,0.9079519357846265,-0.059001278707298106,-0.10541730962263819,-0.6676871707284455,0.7070525071568198,-0.5084494299779587,-0.5732146947789358,2.8323798322711635,3.2598182410413195,2.9041836480644827,0.4202078581937232,4.099609438468197,1.8375521318682664
44,5.318245994931835,5.008016423981437,4.156061968953975,1.832463624831858,2.9712547685974107,2.4939104454983765,2.6484222076678123,4.516867356732646,4.8160679074664055,3.6936693454005587,0.9904231577915446,3.541143210622477,2.5632479186357187,2.7308847696438083
45,-2.4240200328216086,-2.9867562981203037,-1.6557521962939394,-0.29281322668116067,-0.013016127928979873,-1.156273694030083,-0.7110999557860673,-1.4056746300783476,-4.642832726984209,-4.524598385207028,-3.131778463700957,-1.8808533968570957,-5.96789130749363,-4.031935616115259
46,-3.668479828109201,-3.481907739242616,-2.753816425040331,-1.2208076090454132,-2.712116157935488,-2.588256366512569,-2.2005830868630634,-3.7278311446731656,-3.2897766039791443,-1.8428564639363016,-0.12338979372374308,-3.1058642980202977,-0.3079189764204737,-0.8984367635884062
47,3.607141073734298,4.469183470792831,2.8194522272143887,0.4373259387631633,0.6586055871573284,1.813216507606641,1.8539246233880309,3.131845576494144,5.939413363218126,4.842413964717771,3.239753331828855,3.1117904161640464,6.806333942133969,5.5279129076841445
48,1.497922352937799,1.1955488960588927,0.7995814988953945,0.4713210048479706,2.1727851313552513,2.3933300837852043,1.1964487469774865,1.9942303582314247,0.9884207877940359,-0.21461717901135346,-0.8868313379189523,2.051353990012539,-2.384338079025054,-1.615982318658729
49,-3.657774289231468,-4.962294393592498,-3.136379406867761,-0.2563234114854006,-1.1638122126561494,-2.5420251081428273,-2.6230161895627786,-4.0473288451192095,-6.223575349251049,-4.135118621410774,-3.1250345943561286,-3.8369443278756945,-6.368602167820447,-5.9190028947038975
50,0.4818202676512429,1.2482379914778199,1.1678671190044796,0.16917242346658465,-1.457301539005858,-1.8433775506884442,0.13128690066533844,0.16485534156749088,1.4629101423723418,1.826389161554912,1.9195426565189568,-0.729371945332469,4.781667984469491,4.157198787005671
51,2.8238858581973565,4.42247414048013,2.663289821760928,-0.16223312756661062,1.4835709067202851,3.146416245204217,2.8549424431191737,3.9224567764135165,5.369156722071817,2.747468415689661,2.7219358405748357,4.017177404683115,4.827322406267297,5.177909148764031
52,-1.793499979376916,-3.2620791350887344,-2.689502054537525,-0.5257316385731883,0.656328692172319,0.9795921050356189,-1.4689328843411924,-2.1101443483622035,-3.370982022245363,-2.5958799395449157,-2.8026763289704313,-0.545839992630607,-6.289120814379798,-6.089845030213846
53,-1.6196666708780905,-3.1360712923445306,-1.745550819679294,0.6207148245221958,-1.6069543737586127,-3.430481294796469,-2.567170760410096,-2.924752385841537,-3.6658250792859737,-1.2663994774934861,-2.0486227617152384,-3.7938061604750275,-2.6815302796223457,-3.638153819341639
54,2.3454444322502552,4.4699139467263915,3.580445799542623,0.5710694056776398,0.16498850461637565,0.0363246006029507,2.536221457520967,3.34065098996135,4.2381820902597465,2.543195972561716,3.354845591738644,1.6102901424514144,6.629989965380942,7.013379372980083
55,0.5500081484670464,1.5826689232356121,0.8134099072874142,-0.9158927422049169,1.5270607159506298,3.2769005426867297,1.927465459098025,1.512457357188127,1.6931827083566218,0.22429189324680385,1.2340456253692798,3.3601195831829314,0.5625938832328242,1.8430378921996131
56,-2.3869438236497893,-4.81576391101937,-3.9733648176962904,-0.4277525116824824,-0.9506113362628553,-0.9615463432600745,-3.1786774354184875,-3.671917764076695,-3.9378689253073293,-2.0559158931199155,-3.4637637092359683,-2.4632746202905165,-5.908751070958707,-6.880427614630652
57,0.11516974832233827,-0.23313156271326674,-0.14953506350593923,0.944744105832621,-1.2305660358677404,-2.7047837228977976,-1.1619565747659737,-0.21364549268162877,-0.0872679934084786,0.16211761238615002,-0.4867330330232254,-2.8365997198050628,0.991245931298992,-0.3223226948432906
58,2.3160481904405485,4.544752503750995,4.19095634376456,0.29545964832786975,1.6274728433957075,1.554126998477011,3.393204415582826,3.2587526155387465,2.736851293577034,1.6520174797410063,3.153642045521895,3.188602430862355,4.539956562157337,5.971727843295972
59,-0.4200618298708317,-0.6383497021382485,-0.24472066771316855,-0.757803084408622,0.7156246294002745,1.875702035052704,0.45277969500855597,-0.5971483337720449,-0.7017328972164214,-0.07711852137756972,0.006534921408645807,2.2165916573496927,-1.7129091571779511,-0.6092892219518088
60,-2.449343315369137,-4.063602390464184,-4.522190166012296,-0.34084480540092005,-2.095450278679188,-1.6638673887131035,-3.281280285942766,-2.468675074851435,-1.1663478639615525,-1.6831115907603986,-2.589986293961512,-3.8391306120277036,-3.0715088523306524,-4.741564891468147
61,0.6396207154008074,1.0506529328182306,0.6124336848681349,0.5332084812276023,-0.025490391775649605,-1.0402648015992357,0.1209579114067239,0.821732445042815,0.5665733282457255,-0.030089076815551674,0.113987191545205,-1.4062834794469823,1.6734393487779122,0.945688038305198
62,2.8657821164237007,3.737484737040398,5.03074584296181,0.6064789323642901,2.249217112500657,1.29136049046117,2.964906922971585,1.6833112824430132,-0.20113761925538587,2.1427145854998253,2.008055418100072,4.355899690476492,1.9697600130499655,3.6052317655159962
63,-1.0950333570023043,-1.277149386464985,-1.2587820071062739,-0.48598790866565683,-0.7289241358178986,0.44565302802729034,-0.5743589471454115,-0.6166733123751514,0.2424013238540427,-0.27643263653155853,0.061748186085984536,0.329504602236805,-1.2140547259903176,-0.9375840281405615
64,-3.387507419724373,-3.7111007520198207,-5.505581867772636,-0.9843696083349637,-2.0259932466604713,-0.5876572303957446,-2.5177335282100883,-1.1308521879471176,0.979635620407052,-2.6850455446457038,-1.6021600522620296,-4.571431802715993,-1.4519630323266821,-2.766525703621433
65,1.9679958279946894,1.6853029801631874,2.3319107271459196,0.7597789068427961,1.3810767349633741,-0.2431287626538753,0.9569233494110435,0.25834075378198257,-1.2480810755269862,1.1593375151261522,-0.34627083786392787,0.9685995834687537,0.7736898699091257,0.9257471519523807
66,3.689928413678048,3.838127109433894,5.582198411319274,1.2656010290832467,1.453743500112968,-0.2060410676788357,1.9494568878163046,0.8258951837489413,-1.1098619847066118,2.838733884811721,1.43883331675685,4.2990930525807975,1.435855405998435,2.164834692371496
67,-3.2015306435445674,-2.525160019124531,-3.6972677721820384,-1.3552902028957192,-1.7595014094154218,0.4348454239800345,-1.2872086844339594,0.02221566792949386,1.9680273703985163,-2.4132424267525834,0.5212852436255432,-2.2864303949812386,-0.6897597030225788,-1.1448991051193536
68,-3.475747369204273,-3.7596280902475567,-4.963941667065855,-1.2393061036555768,-0.6698556554607427,0.8518245200676431,-1.2458192209236694,-0.6313233109901195,0.8503134926368736,-2.2890196259347495,-1.4403064424858505,-3.4598073085108503,-1.625787755383498,-1.5633026597520305
69,4.525500805988726,3.7695319280028134,4.982034105529717,2.1292693163509564,1.7581186896596401,-0.8808894953734359,1.5278883428113859,-0.14470098353247368,-2.1281293384071063,3.5847264825821448,-0.43776705703737767,3.3314942868839985,1.065751069820819,1.5999830081331146
70,2.6256375988184506,3.101378887886316,3.6125537419928957,0.7909186513849129,-0.10689860017684959,-1.2011225232242302,0.4297812907292424,0.39198426219557625,-0.6217812869493875,1.0658923603656358,1.4400525586683157,2.169184239470839,1.6880305574302943,0.7263495884512604
71,-5.584765635722525,-5.093257621483681,-5.766539172212666,-2.8615975422720528,-1.3941563439767937,1.3598337027336753,-1.6190961257013439,0.17499610859176637,1.7661968734531286,-4.233517195573999,0.06982539595713755,-3.8613308488905984,-1.768318350303246,-2.0805692083208505
72,-1.2560095942577216,-1.6939390283002858,-1.79316927610074,0.048131935435012915,0.6465102708802214,1.2396942136517146,0.40667112577459363,-0.05382789605690127,0.7820235495734359,0.46740779873885274,-1.2712634424402522,-0.7212883578653501,-1.4193305031542776,0.41586481165193456
73,6.102106837755626,6.013086227716202,5.810799809944023,3.354653180557559,0.8245375012989108,-1.6542573640869846,1.5458219725799136,-0.22608921305361734,-1.1746019041021765,4.182820598628135,0.497454903119902,3.8225975892643533,2.5464903085514425,2.3028487815361554
74,-0.3386633789734766,-0.3029346969132445,-0.05541832817992845,-1.1217498151054837,-0.7959355819436854,-1.0797807568836486,-1.1330666788152375,-0.30549449742587653,-1.4490894922968416,-1.816087811575618,0.8369603127788161,-0.5392385991333251,0.8158520085172348,-1.7133963414523445
75,-5.993836882898612,-6.121600889836827,-5.18060800268879,-3.513810251155677,-0.3063430973976779,1.627669055084126,-1.3845688071079905,0.3376999628527346,0.7189766203474726,-3.614785275620985,-1.1249621315142913,-3.3980327919049116,-3.1928699955442212,-2.0918238642766935
76,1.824348781237104,2.445618657002232,1.5487012490729364,2.2277416720490115,0.5511523765346102,0.9101851894906176,1.6609027749955911,0.5512855879634481,2.4660769918198158,2.6283390986389037,-0.13092618488109004,1.393039936464246,-0.011380160852602086,2.884545492401188
77,5.381036133965087,5.289550721076291,4.196552557098108,3.367969835333511,0.10705133770987205,-1.269941757971218,1.2806010666438665,-0.42206233379636926,-0.6414623411270789,2.955844649582311,1.6782944429277935,2.915538376056326,3.640284051022242,1.4888648887591371
78,-2.9699052016995355,-4.201528853391076,-2.54499272250265,-3.2093888140475526,-0.07944266137362416,-0.925826670539358,-2.0166099370478334,-0.6171223439554758,-3.514661833354374,-2.8835566948871176,-0.7845333479266625,-1.8631550414317681,-0.859337766715908,-3.686855222383999
79,-4.496049273480881,-3.723649729215601,-3.2373177654437453,-3.0210481388303814,-0.3914875508700491,0.7034305788396763,-1.3542432573342067,0.3201789923037519,0.9611434586664551,-2.617250514370054,-2.05537501567521,-2.658226253916706,-3.93299411938232,-0.7164456230737046
80,3.7137294897069135,5.1842000798424115,3.1800448208881114,4.00682739199724,-0.32961037206687416,1.2562978643046747,2.34142208703251,0.5867941019131968,4.294183879296723,2.8826714501321242,1.8108712535605394,2.1890262269201215,1.7632655138763857,4.055801163961136
81,3.5451486972402524,1.8511606211970866,2.5191600796735023,2.5658137263022414,1.130460353092949,-0.15073400229876657,1.5943791065497412,0.0651272107677377,-1.514721094775074,2.74209604767863,2.182759377603223,2.686715373031774,4.104746883606451,0.02714147638326981
82,-4.120007603713005,-5.294849319566392,-3.7283808232649758,-4.63629060903173,0.38013504191869063,-1.9078108758494272,-2.7967058781834653,-0.6625413156580634,-4.650737646532679,-3.041692481129423,-2.824667492307419,-2.6570293369406626,-2.7535879367222145,-4.116692581207645
83,-2.6168850829762005,-0.10799785042236297,-1.989356852288918,-2.0187880517128898,-2.081111933466891,-0.1325927125312568,-1.8231056138114283,-0.6547354990256243,2.085658656593678,-3.112009290829063,-2.0099646166268705,-2.7918239169246974,-4.071243634907808,0.45605041578061584
84,4.261780642447737,4.698046604346606,4.381062462637632,5.110788862075135,0.0871060783895959,2.733652127613428,3.4250146666701884,1.0266424399667096,4.58868526369799,3.606445132688728,3.666892094279656,3.3830147105561985,3.843681851136021,4.063162555296384
85,1.6973674810991874,-1.236647228706476,1.40094151394195,1.3277310848686108,2.868162245124591,-0.04814885145961392,1.7790485256272333,1.1912480275452848,-2.518844796872075,3.278723753695862,1.532089953291793,2.623596924806093,3.6416956070850004,-0.7943203105072688
86,-4.121078754083426,-3.667546220002254,-5.084195927748613,-5.360898162848913,-0.993507910300407,-3.4522024115942314,-4.0635416284117944,-1.6845207669097464,-4.187771859463789,-4.460609905672085,-4.141549503635574,-4.1854436056655056,-4.872693139233568,-3.99111398214327
87,-0.7792995543264623,2.119215251493039,-0.521229221313624,-0.45675341793333635,-3.1467005003323854,0.7297610038815671,-1.2857004156626612,-1.3724392235299965,2.745919490099131,-2.852783354894736,-0.8391639842516637,-1.931949413058039,-2.6667836346551863,1.143461677997209
88,3.5898231840404056,2.419748889190514,5.546397260359858,5.225191289567933,2.027862205638096,3.7261878744946917,4.3866740360718985,2.403760761030152,3.5137707525319866,5.153717438845502,4.060198707116766,4.643466285944884,5.488348763428475,3.8117818235427157
89,-0.022158092079863464,-2.584278610027034,-0.6609468218873121,-0.5066540494289068,2.7733492243357434,-1.731486892724433,0.4015865920940143,1.0469086727350407,-2.7279115386110275,1.7798081331789992,0.1508141769650857,0.7752127654433378,1.22814471052545,-1.5860851775336922
90,-2.5847582333737598,-1.0494759395195639,-5.416788781221405,-4.538857844267534,-2.774908391356083,-3.2934359592576294,-4.07388807531033,-2.8096983219250475,-2.6018222495104704,-5.148919715249286,-3.33520291677484,-4.324147745486662,-5.2990160429971045,-3.3136646463722546
91,0.45127075348568646,2.6462749744983634,1.8674932753874969,1.3084943367314334,-1.8918123667972548,2.6755641089540743,0.5546538495775329,-0.34462317717316093,2.390813344088079,-0.4297993807613545,0.21626081233284286,0.4402125973430534,0.27777344929979036,2.012064358393315
92,1.1984639507001296,-0.40118409671500027,4.524426844850902,3.2769886623206874,2.9127209524519353,2.105239967476169,3.0109925840948484,2.595459492896402,1.5195958970105108,4.153016261747157,2.0744771825494337,3.053967128099174,4.122899290127954,2.335866863368093
93,-0.23464410912444034,-2.229076997398902,-2.654946263810003,-1.6041418789013857,0.8753813031172969,-3.1056366288504194,-1.1397262890436435,-0.35491461170137206,-1.6328062419154266,-0.5711337893880728,0.034493909760490424,-1.1313584046374052,-1.2554148595817745,-2.1440109879241063
94,0.23635761880605685,1.8130215781124888,-3.02736787576017,-1.657202867487283,-2.3755023493958247,-0.40516519008245816,-1.3992729051923314,-1.7214274821838023,-0.4413791439687607,-2.3300174076942493,-0.6055641164932353,-1.0726848951149752,-2.1765597421522727,-0.9312699952413749
95,-0.7172299307359443,1.2375829260368616,2.6607581182361577,1.131162204213089,-0.1478167265993191,2.673757931600583,1.0153809818248498,0.6149585369984467,0.41820847844313674,0.6817989562060541,-1.021609152788855,0.8368331357580262,1.1910299906305268,1.7034025960672734
96,-1.2481664908632535,-2.918288885894347,1.37366473482234,0.11713343746170433,1.3896854483285126,-1.3097632267077288,-0.30499697804490983,0.47500671371325376,-0.35490281643399596,0.25994599289679665,-0.6159176120184938,-1.0301937905658718,0.06306113166552305,-0.6013559652251808
97,2.1671184354034394,0.2882073493641618,-1.8244579769079916,0.11436750363569276,-0.023828418817317846,-1.3210295793985718,-0.1414689497317128,-0.1877855366735604,1.107334829223577,0.23598742817966853,2.574989714436776,0.5227427380997948,0.052601049537186875,-0.6109861036384946
98,1.4605763464963324,3.3672344115349695,-0.09195373268167617,0.847079749852522,-0.360583877966797,2.4570859612126617,1.5977769314667654,0.6574628774280727,0.6021170295757232,1.345843087765945,1.1911280172309808,2.5720635439261947,1.465395747342259,1.8508534793344142
99,-3.586251627160422,-2.055519214204331,0.45070384835493577,-1.8072371777789535,-0.34690115354992934,-0.6399050568062725,-1.1828959404965869,-0.8320819534365895,-2.581171806199501,-1.8115199440707763,-4.251286982018655,-2.568825792658981,-2.104643515266248,-0.9153485633065581
100,-0.8233103559984005,-2.914289379957316,-0.46885451767055447,-0.9100909048725553,-0.3289688649439694,-2.611512043016901,-2.169121595566657,-1.2395296681824828,-0.21652954406048538,-2.015432531484825,-0.9698761549707949,-3.093285926522008,-1.8579699624314487,-2.515150512442436
101,4.378750024541884,3.5446854807487633,0.9235919986120494,3.3865849897561078,0.9888669233107709,2.6029984689474386,2.4587205634067857,2.0430708255997527,3.528707594225501,3.338943753909044,5.4913335481353975,4.617967142448642,4.210527214460234,2.4390486884697
102,-0.3125627753402006,1.6152838327170873,0.30501575540601783,0.09590831990066749,0.4996914675647621,1.714956258235008,2.045043780335308,1.1109418475161739,-0.5833826269533686,1.7637100403674235,0.1455343908465297,2.5681079549416332,1.0423798777358841,2.57149528841875
103,-4.179287089274042,-4.200830446168102,-1.7826812678657618,-4.284958993016169,-1.5249704002303057,-3.8990416453485106,-3.231530296728247,-2.9431175672288346,-3.579603946539326,-4.136398203100813,-5.855621730586578,-5.984880624090393,-5.5626295606527405,-3.5200865714976146
104,1.3403025831097548,0.09803624346510954,0.25747568286629063,1.1963596248946,-0.24424614001437941,-0.14201929616180992,-1.5517644207507235,-0.45982134760339866,1.3096128671501934,-1.0783030961059352,0.8083456539223342,-1.4055799119661725,0.5245677653263648,-2.2860906112920514
105,3.0506001970681127,3.7071941136693285,1.8675307475439946,4.188437738330537,1.6673387545239657,4.086758904188993,3.30578285652602,3.1872537017808464,2.682781022460244,3.8926171401612164,5.223974231999703,6.28214414870376,5.67214024775423,3.9386850415225494
106,-1.69322430518009,-1.5421029499677052,-0.7413975259693077,-2.3496052954557274,-0.14480860053847838,-1.433759273825446,1.1264623173794304,-0.2977865059621797,-1.4029248428097847,0.6548664875492248,-1.3402042722742369,0.24629520597971677,-2.0671681844662837,2.0548819676914123
107,-1.4609699582211542,-2.1910830722432717,-1.2737279009601181,-3.1970339565646633,-1.3541343300143596,-3.1653284531179304,-2.8136364488071006,-2.7464444194631725,-1.1891642407524952,-2.814768450585511,-3.856389773122156,-5.571578341933943,-4.591730217315197,-3.7929964045665927
108,1.1255248603713466,2.0695441800048147,0.7571445289372463,2.805201711392493,0.34122414859698663,2.328589612565264,-1.0848470904020315,0.7526209657317614,0.5078143260177994,-1.0298913522278172,1.0672332558150601,0.33864467670443643,2.857737620340419,-2.173454272869966
109,0.05171251776661473,0.23162518338370042,0.3735930501583285,1.7948876780610277,0.7631336646617576,1.592110385587913,2.1082871192490837,1.881820031733466,-0.26622261876752856,1.5060500076152272,2.280034094387396,4.302118614589403,2.875785351266526,3.415600370503928
110,0.17773289533695213,-1.384756130874001,-0.17769388197049762,-2.3271278026514,-0.15498667589866627,-2.1594036061342834,1.4760422046740318,-0.7065559349631133,1.3223862853445947,2.308171066420316,0.05385322263418805,-0.09811937126315783,-2.554464354370296,2.676134834410659
111,0.6732394924534423,1.3635142294648392,0.3824288448147562,-0.6325469719920915,-0.20436643136831015,-0.08221965932232614,-1.553398148949407,-0.965485356528451,1.040079043535479,-0.6496261928151374,-1.056450620479709,-3.0760876957296626,-1.3017647803713406,-3.167013496751054
112,-1.714018397774139,-0.28137105752324965,-0.8287395482932194,1.1189040887037436,-0.3792113294595769,1.0215823387011487,-2.098085486143814,0.22954638689225892,-3.6095128090039945,-4.120194244082004,-1.7144082996548338,-0.8143386401143393,1.3420447264845332,-3.335612297619855
113,-0.565673738507764,-1.9184740558247069,-0.6763654618053707,0.22327096211555317,-0.04527133763621091,-0.7187333238212384,1.3357404994817186,0.27220659185140594,-0.7781647543342923,0.6721642500630003,0.5434075508244961,2.3663027793141977,0.4986394905624742,3.236236784781029
114,2.923846307602525,2.2437316450417737,1.9070217022890634,0.27073226234428255,1.0324543453525938,0.559583032633276,2.648598513889067,0.4452732797765356,5.6429932966326035,5.81414717921809,3.400164263600826,1.9489987221436214,0.18684427897597525,3.8094687538832197
115,-0.14588553163848636,1.2096776318798892,0.44505724346305947,-0.7046388728019246,-0.12121057954253761,0.5277764532529469,-1.404254061736487,0.12722726027058967,-0.4193322072442408,-1.5551492928707695,-0.7634278784319105,-2.3211626065674014,-0.6701880390928898,-3.561949253996293
116,-3.448146378036935,-3.6617155927185165,-2.695316933265727,-1.2080512932826886,-1.5061924542454204,-1.8809439758211977,-2.9070876938274184,-1.0965624352365257,-6.78606728435933,-6.767123561409641,-4.617907745790798,-2.7928430240594615,-1.336040757480427,-3.8323072167938994
117,1.0179857953629172,0.4188081833218777,0.12940245309796616,1.7838336292405161,0.5972957188746824,0.46030889194536184,1.5525459652132616,-0.3224749884091595,2.046169358575123,2.8684581480623863,1.430240537353344,2.7395242573806136,1.5415262580070974,3.9004112296755116
118,3.2523441485716247,3.9226908809793732,2.984243835653475,1.269158890372388,1.5820637564192352,2.390480895255071,2.8372645675638077,1.6330415518627277,6.7426024306674,6.656299112837913,5.092257775192707,3.0047547639482715,1.633878673910131,3.3394595460721246
119,-1.6256707086544298,-2.2078174056569426,-0.7364085839091483,-2.8876892170771664,-1.1250831310456808,-1.686676993816808,-1.571932861361479,0.43014761037470745,-3.4185364324650434,-3.9825770967391834,-2.103757041410676,-3.2060622064712723,-2.5342524135143045,-3.9745403237781893
120,-2.578387329052908,-2.921974191552192,-2.7861634480795785,-0.4250236361035277,-1.2228675853011521,-1.9318171486588742,-2.5620516580040147,-2.086170207584906,-5.661320710243397,-5.574855033370257,-4.849358014454141,-2.5447303812255133,-1.024792695490705,-2.4696930552260494
121,1.7376419207600757,3.3297278209091057,1.0910375729189257,3.4343344755880483,1.4235761203390502,2.506300001958348,1.3685936713355928,-0.48479442771463416,3.9626551193788533,4.3416944391551455,2.3891836344475563,3.303033871822458,3.0614285764523093,3.6056127970807745
122,1.7844638199546572,1.1044382733812959,2.298377815429507,-0.9639531150348697,0.5821417310527218,0.7921140419865761,2.2527358135063396,2.5100295025335613,4.047471858085719,3.96750296471419,4.167485494891497,1.6548421397082405,-0.15000337709156253,1.4760563416148837
123,-1.3616413082268144,-3.259972870569505,-1.0514439072609574,-3.09034598018184,-1.3173102746898226,-2.4895467621965266,-0.9800321892172813,0.4323352395137455,-3.428967871475712,-3.677523894322023,-2.0902408843590403,-2.7929154623485575,-2.7894592708323254,-2.7656154632170202
124,-1.1778937679970838,0.7456150764922477,-1.795123619308406,2.325220637843607,0.07269451052147077,0.45711619129134134,-2.0232162524225266,-2.8864049499333397,-2.5459724277207276,-2.4396487116470613,-3.4357639177252888,-0.7248458144060025,1.34507945898245,-0.6172658293656501
125,0.6749447048171492,1.9989372014330717,0.656246960376838,1.89846090868069,0.8077553990064057,1.605338318639984,0.5067031573322288,-0.21263292300590272,1.9579719585714592,2.093131090225645,1.262722884761927,1.699297331890787,1.7533130592493469,1.5537334054109966
126,0.9218712787906919,-1.858273522961777,1.5077992440481107,-3.1267202492345785,-0.4805575573480261,-1.238071515595187,1.8984348318408986,3.1150456543899083,1.7021924013511227,1.5297096945613937,2.992253363958064,0.11941978907909678,-2.0639093983254004,0.08740944955112151
127,0.08875081120511685,-0.05059032437280087,-0.0834122130362687,-0.2343471699912844,-0.06272820573769315,-0.2097030797673228,-0.03142072653780848,-0.15206283727769043,-0.0010303107962088363,-0.007811518290121337,-0.16568252122776,-0.27208594892108323,-0.2988119713456418,-0.14297188885093118
