,AF3,F7,F3,FC5,T7,P7,O1,O2,P8,T8,FC6,F4,F8,AF4
0,0.010346218211307047,0.00719519334335689,0.08566110214037131,-0.008425322808952718,0.013427636516865415,0.04503668773602726,-0.008733669624991757,0.029666115617966313,0.06852773966444875,0.0771884393845113,0.04989899802224353,0.024944232695264544,0.03950397646021439,0.20655245812692602
1,4.046442283655118,0.9360994061193814,2.7220152002027005,3.1081301642900216,0.8398733291591912,-0.035689456012757456,-0.2584177872792665,2.1819708514422786,1.7678845470950282,1.1305944598316802,4.627474704252138,2.428364746505113,3.8727089244368096,-1.7741504141967408
2,-1.1969382768462886,-1.2082061370885422,-2.2067712639180854,-0.9930174951863682,-0.8617189688091897,-1.0605255317133269,-0.8902937029133211,-1.7441201790014087,-1.217995319238871,-1.9068615035334802,-2.326039342525262,-1.70453400781663,-3.015658533360934,-1.595280180185684
3,-3.4902928715067,-0.48849758416485367,-1.475764554532454,-2.7962732788876923,-0.5401725943024306,0.4667457597934956,0.742233465861379,-1.5459633818423957,-1.4381814478645645,-0.22417454166237832,-3.5528188602608943,-1.6578832648165216,-2.5341397569517055,2.295988369011326
4,2.089171074182282,2.1580186809303252,3.4511179879576663,1.8018206383036932,1.5316963828344987,1.8121694569713103,1.4415419031373282,3.1015949800583287,2.1158851768986975,3.1220769656490845,3.916625859359761,2.8892571271307546,5.1408173138902145,2.6286026920729193
5,2.56505341104411,-0.2759897547947796,-0.3813394347404365,2.2755804047571675,0.040136555940808546,-1.1611123672954644,-1.5237918910090757,0.4482760053254497,0.904469655878404,-1.219865466684754,1.8285611397832366,0.42327656046392365,0.37192557540061577,-3.074469353642124
6,-2.488156549543473,-2.6598650832598114,-3.3930524763712584,-2.295619875071346,-1.908190173976557,-2.141598301208081,-1.4150358737475828,-3.846832302013598,-2.5881056632693378,-3.3466161663535807,-4.428303295604925,-3.2849963002629194,-5.9099146746579905,-3.146518561990589
7,-1.5385066794050384,1.1308598223531043,1.9716800210663439,-1.725128614659292,0.5010237512078632,1.873845788594613,2.2544553431106755,0.7853480357519016,-0.395571511621654,2.6021047645148467,-0.11420762961932587,0.8104014306810939,1.8158842998481288,3.82693078793019
8,2.351724132903106,2.6376081411790917,2.235868436374755,2.4704869321194804,1.9779241882127951,2.044871027316135,0.8099921455117701,3.919529459796437,2.603585739195507,2.586699845590356,3.910246890338642,2.906491707587246,5.34224933113364,3.188491867394509
9,0.703432504211981,-1.805530454828433,-2.588475100119422,1.3091650441427514,-0.9330482026175664,-2.371029867437558,-2.590119717019523,-1.8129672519223266,0.14700641553950852,-3.3519584851300213,-1.00512037267379,-1.6140347135055237,-3.2970108666782054,-4.345636553201131
10,-1.8158629858113322,-2.16712123415459,-0.67673406376146,-2.4257921161212233,-1.814263616200919,-1.6603220850324236,0.1485564255789637,-3.4572485381004676,-2.2776933302661613,-1.1947842642561566,-2.7807542190044954,-2.041008578781995,-3.9124930048574234,-2.9204337664456768
11,-0.2725782687380712,2.0643974801485667,2.036397250982592,-1.1139883214510582,1.1635508845295992,2.519808949778052,2.32958580143529,2.3920751920873142,-0.32422252303827137,3.131408450435517,1.2493358599581406,1.7609189680007313,3.684638321313597,4.5760820576365075
12,1.1490943230086466,1.464567002564491,-0.4738487797730888,2.30624331709025,1.5315007743016114,1.1971313382098374,-1.102628325504757,2.7258275479841214,1.8333416119350792,-0.2905011242139861,1.600472314152833,1.102290212408055,2.298861945313068,2.50063744573602
13,0.2935320954163825,-1.7880090680312768,-0.6894243398778178,1.128014287406511,-1.1719048837519845,-2.3299252972543743,-1.4927654056647601,-2.448737612500273,0.968338210943594,-1.9241445323475266,-0.703619673900984,-1.288708211780036,-3.0315359155549646,-4.585040139837103
14,-0.6448148559300317,-0.8231144648645492,0.703429346295444,-2.2335675897738048,-1.237806375942782,-0.8382722862956152,1.702759844907694,-2.0107837781483333,-1.5334454802483857,1.3407449774524969,-0.8251817967998741,-0.45402868933640367,-1.0908112973765727,-1.9779133874785064
15,-0.6290942697053931,1.0235578373954755,-0.7467925050104294,-1.2703888220646402,0.9930936441418516,1.9280858365813334,0.31040748781482536,2.077794917401322,-1.97424597302355,0.005833374280155195,-0.2875790211247548,0.44639414754599355,1.7300973224908613,4.4487349204339335
16,0.4937417288578241,0.5129287184520027,-0.022580551834977158,2.265085960854563,1.00735909686391,0.6645560530736605,-1.7404792286394033,1.5158193853493622,1.5981708727479609,-1.5966034943107075,0.654286311017476,0.28105956147228317,0.5892737710455694,1.2886469354851338
17,1.024409225803071,0.023333234843568237,1.621752305775578,1.4445451729871008,-0.689672374832478,-1.4789359575978105,0.866855579580173,-1.4818889575314413,3.109623100375795,2.164257347034244,1.3079240564687966,0.43290422509603715,-0.30002739555679137,-4.1428273781611
18,-0.7008697092161266,-0.681735890371906,-1.0979373662621223,-2.396883000697908,-0.8749570141801273,-0.637574812772787,1.2210206578537,-1.3057040114944019,-2.125220341686379,0.955895789749882,-1.0169360904259495,-0.5508884507109314,-0.7606814952524559,-0.35161238636244213
19,-1.2349539596474217,-1.0605138210174598,-1.6626261836944873,-1.579717467536851,0.32802835481133735,1.0955185063640973,-1.7016257897810383,0.879750877955763,-4.080679734633429,-4.085627775456836,-2.037979020279682,-1.0713371810310452,-0.8268585687706639,3.5126239155074415
20,1.0957712293098354,1.2995291337748571,2.0189198990745187,2.5970026767856695,0.8440062725923635,0.6484960903315673,-0.3514588471542481,1.3083957490781772,3.04215167279776,0.4136426244460183,1.6637797779138086,1.0646113697319899,1.3271639619179922,-0.8047503856104942
21,1.1487903710055096,1.8194769348019646,1.0717995122898347,1.637719233546512,0.035281551228213553,-0.7892074842083859,1.9924364057859167,-0.4207642710152447,4.633939260824156,5.360949007887797,2.3444457541928934,1.3434214432870304,1.4430125427205434,-2.3498045838646737
22,-1.4340696179200172,-2.1751783110968232,-2.2808903530064195,-2.8346244509733567,-0.8972669196271464,-0.601854837706653,-0.5467898273743002,-1.3685633445712164,-4.121628787911954,-2.135321677686294,-2.2991949332722075,-1.564386398479654,-1.9287697635479066,1.9693088367227911
23,-0.8339787164705168,-2.15701032769075,-0.3711480588918188,-1.593781402410834,-0.3601571549331274,0.48590673780134747,-1.7403779723784958,0.13522853505118682,-4.656732900767194,-5.8125106848374,-2.281312040418636,-1.3002968295915893,-1.5907517563221143,0.5343901553866895
24,1.5326364671100754,3.041019425262311,1.8248590792600594,3.081691837015205,1.006183698996248,0.4829687305233858,1.164589090162222,1.3299774860409825,5.068726365043984,3.7520222217036188,2.6974981570827694,1.8502310259468426,2.2850789487760483,-2.7835173113415186
25,0.4850157815907789,2.1018031231653196,0.09793605236651992,1.421649561131852,0.6267949460192382,-0.09482483256211896,1.1370610862455182,0.06401703863441151,4.2242240772023445,5.531448231376266,2.0275632742536223,1.1196456047344205,1.489174872512813,1.8410392552490944
26,-1.360001916288773,-3.668523323081792,-0.986524508755108,-3.294307040052608,-1.1408598363322422,-0.36925387454865616,-1.3223598521688353,-1.1170311329093836,-5.648537807524455,-4.892157949189674,-2.771962796101584,-1.8601780576350548,-2.299047145160223,2.874442229750046
27,-0.303983962667613,-1.8234781025208353,-0.521592820275213,-1.1050657876224688,-0.8361203646382795,-0.4148100883326565,-0.4802115758132855,-0.32790767572886476,-3.558450319141528,-4.825740589095648,-1.794904587307209,-1.006637502435386,-1.403364279464404,-4.439061252688235
28,1.0329987692782565,3.9610144559664935,0.2899150852873539,3.4032949202784155,1.2822283742610394,0.38137536244701764,1.0340972058664228,0.7832147790253057,5.789107172250105,5.408792827692166,2.586000985920763,1.6828597469041355,2.0724452907559407,-2.0191871484944146
29,0.3905157169451487,1.5388704764088676,1.5219088673482402,0.6680511873774854,1.0023942600914317,0.9756989126823394,0.04920374622134646,0.7819226510543816,2.9128730802976817,4.0725851788814245,1.7365403038738165,1.0897136094843374,1.5107735265300204,6.760110713679749
30,-0.7312696851404956,-3.979248370428587,-0.16410037955128454,-3.3361603444192345,-1.4317388993819484,-0.6053518740860213,-0.49224057815669503,-0.4997703301934509,-5.59874458923101,-5.419092618208489,-2.309149683430954,-1.498659591900718,-1.8341835400293274,0.25921158168095143
31,-0.7037828797053917,-1.4021550438646864,-2.6739461064128207,-0.19296106438548546,-1.1367951680942066,-1.4445342797089313,0.00989600906603892,-1.4369554350955547,-2.4449701633554657,-3.5388826323914877,-1.8850172602782418,-1.3581014779116136,-1.8178869872586663,-8.303552291067476
32,0.5910351408034973,3.889086055601753,0.732209853634851,3.0631138250904595,1.6096989468074396,1.0307563690555117,-0.02333991489727951,0.4776128411033143,5.284117182236381,5.213178952158497,2.133825392773149,1.477158177580718,1.814529549538203,2.0879826600326203
33,1.1088322977172926,1.4338912661821042,3.4779717755523167,-0.20034791798457352,1.2293507052628558,1.6714182297052158,0.26084328193726003,2.1471611527751655,2.1524966081799306,3.2651661026231324,2.141205568657498,1.6710364225911047,2.1607114017632445,8.736010142714495
34,-0.6450676310330213,-3.8599057049085994,-1.7712386845973456,-2.6339417393522284,-1.8380020081272255,-1.5390063268194483,0.2748867200447965,-0.8489854023887264,-5.018233125509114,-5.075920366948297,-2.1831070794889826,-1.680362651520619,-2.1196811375421674,-4.521029789803435
35,-1.4651978835732107,-1.5237122371804783,-3.6066450521770186,0.41187063201892227,-1.2421814456141926,-1.5796609640475194,-0.6645632178456268,-2.6501401616120197,-1.9112165772189607,-3.0800279806143522,-2.3210921165503526,-1.8357317435866942,-2.2890684754284534,-7.999397817901844
36,0.8365224329465549,3.966832103811531,2.8461596011272476,2.1719550297448764,2.11435673359073,1.9491089860634043,-0.174419867013375,1.5664348034221531,4.8412526027989236,5.121011412101506,2.4467819697264903,2.0203296961995094,2.662494736748477,6.507645294580793
37,1.6950906162646637,1.503215006193851,3.0451683245855166,-0.42200636726295115,1.1229299074506314,1.2146010261084168,0.9571758386565642,2.6862552116089313,1.5862233809133777,2.7367935335589433,2.2444342375039747,1.717160248092522,1.9990970307555267,6.324008852387452
38,-1.0812658911948976,-4.14727759056533,-3.5337839885480924,-1.8176803531456165,-2.3938771654408617,-2.099826648196654,-0.18444904802810466,-2.382034573694701,-4.655357077847262,-5.232109793107156,-2.7750085571015686,-2.2948563991894497,-3.183825150207132,-7.637655112264728
39,-1.793349601970567,-1.2500178426040236,-2.0667044032722015,0.3125867447300926,-0.835361970453931,-0.7352336623820374,-0.9754159079928076,-2.1451815998666186,-1.1416415744523611,-2.092329102517452,-1.8305433983300214,-1.325758161794182,-1.2558511272009418,-4.153902735615941
40,1.3254212145547288,4.2345686062056975,3.615655180846176,1.6507929342705554,2.59246967187335,1.9289459449336308,0.5862723039946076,2.936436911262975,4.311958576941573,5.143438298334159,2.9378207457324383,2.287875233305324,3.36198603451723,7.727301427312273
41,1.7894375924331056,0.7684490480927273,1.0755144019676484,-0.22641904303929417,0.39277029544898256,0.3497291465536608,0.7200260148631352,1.1597361972922657,0.6777486295014812,1.2253370236593295,1.160455274684657,0.8379039300414601,0.24808776842364927,2.020977559624378
42,-1.5596684601615367,-4.052239719029036,-3.150085528755192,-1.6393196755006418,-2.6159760124525606,-1.5102068690440362,-0.8124844482195884,-2.9275464489047316,-3.7304626202512687,-4.613957560607601,-2.7328818273103166,-1.8898636293652729,-2.968980249791407,-6.854384598083979
43,-1.704386792745821,-0.20369259970519024,-0.4125714944798278,0.2829360477609394,0.1243554233549066,-0.2234384578304049,-0.3533558948950016,-0.0830915045645758,-0.37462620409443,-0.4268113226062959,-0.47265129739449324,-0.5332700980005783,0.658899787424818,-0.4091518865291068
44,1.7931302818567736,3.5208115621597216,2.4071756986848643,1.6538332382186243,2.406136937590666,1.02769077801402,0.7577713285021206,2.2761026325220017,2.9721403600919545,3.6003479198757375,2.101420265196249,1.1813966172183887,2.006123694814789,5.328620645539674
45,1.539106267927217,-0.2209591206281952,0.22172791560891789,-0.5002474046786693,-0.5808914472861253,0.40259133350170323,0.11522090186275091,-0.6565421381179499,0.38016166438604676,0.06261643009447541,0.07962291479418364,0.6698096477207746,-1.0658544279459492,-0.3621642874510774
46,-2.02150186396035,-2.720350567246433,-1.720483321255641,-1.5448999725420303,-1.9841942253886264,-0.6976595055753297,-0.48766662647732445,-1.1947670235212693,-2.225208319721612,-2.3345767871034813,-1.198916063978538,-0.4344162167189443,-0.7502849630268629,-3.610355571954183
47,-1.29505070455913,0.3149063526576999,-0.4268658955016933,0.775469419236146,0.8335370478726715,-0.790505545473077,-0.19956320706067782,0.7594106535787124,-0.7104903537244588,-0.37252150929899436,-0.224397568015257,-1.3476223082658514,0.7257246946766782,0.21727012764854284
48,2.221501095260224,1.872254143363556,1.3381197576315182,1.2390533642015016,1.4679862863850508,0.6736705607431296,0.21150751502915918,0.11088612944336833,1.7112078746626382,1.2556408731288582,0.37143809767353514,0.01786633796680702,-0.32861539818371166,2.1895100229019957
49,0.9976253844690398,-0.0235371012420018,0.8081744977564745,-0.9407753658708083,-0.7982278079833037,1.1883378745915303,0.6505961398794381,-0.21029048375451986,1.220462354379214,1.3060896400237685,0.93418522614948,2.425715728667591,0.3104472509286454,0.6524170517806852
50,-2.373086940495514,-1.2440486313880812,-1.3390235184916321,-0.7925401541949192,-1.0430889563555659,-0.9788372427250865,-0.18348901598035083,0.528894967614264,-1.5655139716319315,-0.8136231905522657,-0.02133196187085254,-0.23753995536950237,0.7622588721388261,-1.4427527100272028
51,-0.6935608816092523,-0.5314595915550374,-1.1238788573553589,0.863321276222696,0.5077908420652983,-1.3818059944598697,-1.3276256947239033,-0.7018646977743526,-1.6624208505631506,-2.4890420448007,-1.9526406462835106,-3.5418916100941384,-1.6705383655481056,-1.8410761838902632
52,2.4824145733599052,1.021976962566427,1.6374800823451356,0.36681098721530514,0.887675834411544,1.495795363124103,0.576224936570167,-0.4749077318466537,1.7575723486748693,1.2326861161949976,0.40577382538060425,1.1776704045065933,-0.3117366763155357,1.506925327339881
53,0.4222304123528207,1.100853451405577,1.215795447764766,-0.5271877911640455,-0.12220684670396133,1.234309578444327,1.9578951609289221,1.5191502001184196,1.8050088293329547,3.3597388603143545,2.814242723307779,4.2444544128814545,2.797528133921332,2.861176272068149
54,-2.578494886042355,-1.2161775995101922,-2.0565197599179363,-0.1398960024766532,-1.0802414728214649,-2.017799845274986,-1.3855214312152875,-0.2031694707248034,-2.0966468946223986,-2.3563851227651478,-1.4696969106669127,-2.623792702155298,-0.8862496217562256,-2.2233614202482124
55,-0.18855641602116463,-1.426000518226096,-1.0564951211494469,0.0465955843648579,-0.12953842209391156,-0.7451875260574963,-2.257043993807398,-1.8374750492611123,-1.5505256995502334,-3.4290713342390107,-3.053595437651457,-4.188865527115445,-3.201120552110587,-3.3215100241400988
56,2.6836339660757,1.6499320239293789,2.4252081540607704,0.20877780392981196,1.5411348196581462,2.3369846610364413,2.414706656162648,1.1542242834517862,2.3250245276477237,3.6747742217516017,2.8233679726076524,4.119312884090107,2.34813869546749,3.194348448520121
57,-0.03480021522799922,1.3683864973542879,0.7284106317882462,0.39570396236292626,0.0584168070984866,0.048912207020996364,2.062780206162643,1.5001603405618686,0.9859771429404305,2.5386450673705956,2.4516291629916864,3.3101417168558482,2.706417436838318,3.0792289683392005
58,-2.78479945142981,-2.0426917911254097,-2.6517168743238977,-0.5414567737858694,-2.051503107422353,-2.3306537828916767,-3.351929898178401,-1.9225828223980632,-2.2516450461644864,-4.54512240341078,-3.907025480989846,-5.147222492575704,-3.457794717373178,-3.943608174806164
59,0.2753006820082162,-0.9838417475725628,-0.35677743624813046,-0.6441617134356565,0.3806594882608689,0.6423928129050422,-1.416474982146836,-0.6631242708982619,-0.3358029181421334,-0.9724517323479066,-1.1745729251242176,-1.8798709443341854,-1.5614304149227378,-2.292400488906628
60,2.833909871099743,2.147950025044804,2.7417447342801418,1.0028821605542884,2.352253019309593,2.0092114371692604,3.9076542120854048,2.1682035931447676,1.8516756978142912,4.5061469690562665,4.269820533954482,5.360639399074697,3.7700586518595243,4.114941588285734
61,-0.525402130858779,0.5013217626379011,0.03707622893895765,0.6420037863407957,-1.0532697843739869,-1.126905504868688,0.5492155990844142,-0.29504268134818046,-0.15974907045915665,-0.65688735474982,-0.2918819131306437,0.4048444339423215,0.32705703998112046,1.342825805292516
62,-2.779635097442426,-1.877913313303794,-2.762205106292162,-1.4319792765456507,-2.2740217088622368,-1.507134367463441,-3.9457998671687613,-1.8170226972196595,-1.2726884160802918,-3.517749357456081,-3.8055993541220636,-4.749344004021345,-3.2416026289477053,-3.617377552273434
63,0.7337572135954592,-0.21420362306497906,0.20395650760184317,-0.44111401033782915,1.7062621483700304,1.2938819228329281,0.22388411295574462,0.9623706315243311,0.3699328711467249,1.7011906545037858,1.3887661203305115,0.5957262095634667,0.4070352342896617,-0.6638495079214178
64,2.606532060975066,1.3526698512873692,2.7790202001009807,1.7191680283101285,1.823862579162381,1.0225573702910071,3.5417599358948206,1.0733900634062563,0.742836950444574,1.9872023521846562,2.8021690592836244,3.6513709423530454,2.2537465291235,2.6503161879584756
65,-0.8290076660635467,0.33610396722254976,-0.39662148431152877,0.15451193190243911,-2.0940200625575485,-1.1640633235255393,-0.6486504765852444,-1.0814064030445973,-0.32735001372199424,-1.793139196410126,-1.7688296228931313,-0.8275776508727543,-0.32958641966014124,0.5546700153118633
66,-2.3535327211770425,-0.8483720977092752,-2.81025924390841,-1.840643300565374,-1.1771691127532835,-0.7317850110963224,-2.937608717831796,-0.30265580969825756,-0.4383768530715622,-0.5617823295157426,-1.7732204041156912,-2.5952328725903566,-1.4059373076563162,-1.6026201935182458
67,0.7576064253579148,-0.8911086522932254,0.5803360299736384,0.11046888841907093,2.0976149896536693,0.8739964932333525,0.6418715362089099,0.6472048601440277,0.1803766646767195,1.0107596176884688,1.4516058495751287,0.3508223199686111,-0.43528425926829073,-1.0651044792560975
68,2.103050892367635,0.6680381799866686,2.8237454974424168,1.8390205202702206,0.5813644510198577,0.7148585345786552,2.4200376157373578,-0.14572775995169435,0.3940065849498714,-0.19500560861245989,1.1782017727453828,2.0502283242471018,1.1935134742263946,0.8797167187858688
69,-0.5122285635229669,1.691932957319094,-0.7568498738536764,-0.2950334325138233,-1.7695448217684275,-0.6119206201123909,-0.31188029997041816,0.11836443068988341,-0.08081367454606683,0.19546528425706108,-0.7643555982923337,0.46650644968730903,1.409967459870364,1.995598523027807
70,-1.952695573522482,-0.9962950697244646,-2.777377941217186,-1.7755406299046752,-0.23140722943057188,-0.9235374121120054,-2.187442141818053,0.0858064972549728,-0.5088848791731849,0.06158517960027048,-1.2010548024420749,-2.2143220128101206,-1.7525397797728741,-0.7413777046259239
71,0.14136506444738492,-2.417165407396476,0.8804162829663081,0.38830560619682813,1.2854375544084928,0.5331767027533834,-0.1141941361346636,-0.887075430966162,0.08481397286472778,-1.2568973909303696,0.12199020198438938,-1.142366097499467,-2.0319998587362273,-3.000397504828773
72,1.9851344264583535,1.8075034613052408,2.66967332734099,1.6931226025896908,0.18958667991461242,1.205128742122267,2.2743694291097305,0.4482336636886484,0.6344801128121934,0.7818548113787182,1.7108554846991348,2.946483735248834,2.811728295459229,1.2188202448509247
73,0.2554471057192698,2.7507070387636015,-0.8939232171764784,-0.39784478516477795,-0.8417601470344134,-0.69184309158593,0.4097553753263134,1.3718498723383559,-0.13110686912619743,1.7672728182788144,0.20552746340214104,1.3141767486501514,1.9502318199383724,3.7360542208946494
74,-2.241026653275422,-2.8703826245736637,-2.5588576461134953,-1.613910255756729,-0.38709824095576506,-1.3716780247438292,-2.5642913514145715,-1.2468874330833728,-0.6764735535870372,-1.8989110580164694,-2.4035899451283993,-3.8662081738447336,-3.8646768154391005,-2.134008412560258
75,-0.5427617247819913,-2.516746981843442,0.7850145567162787,0.32545468804152056,0.5659203949060768,1.0180971772909195,-0.44792809667244926,-1.4323927769046418,0.1020964260381544,-1.6375036629443167,-0.1969512456060377,-0.8904023095849968,-1.1824942016372146,-3.9842860994803737
76,2.6932279765961655,3.84410917035093,2.5297844466245643,1.5625024693767473,0.6897118760621002,1.2846065593227767,2.870305461842118,2.035175303430458,0.6407155959359068,2.8393817357976983,3.011442631219889,4.551520504663912,4.447472591290377,3.19276611087724
77,0.5797097385047847,1.7479962476419546,-0.6178236894617776,-0.17305090942246623,-0.4862502521071578,-1.3507720724312775,0.23429900649777602,1.099834370862391,0.08468520344950084,1.065129017114468,0.010520990697033515,0.05551555579111529,0.06148889076252022,3.702892522166843
78,-3.228625567897446,-4.416651126778145,-2.626582268203048,-1.5826735022504461,-0.9737420287698513,-0.918447298306726,-3.0301046771360123,-2.5882460889307346,-0.6010184503471032,-3.3343041945059926,-3.436980885524913,-4.724606408875857,-4.356907226608375,-4.095333557815701
79,-0.2708329727634531,-0.6609493668954883,0.5089977707061646,-0.027424816760321644,0.5617328071732872,1.511256071089269,0.12895482128343067,-0.523781570274646,-0.42249914788269916,-0.3717276261505087,0.18562301953814123,0.8507394999259933,0.9756342247848742,-3.0043525188749083
80,3.657491491202628,4.42013515031744,2.7986019797806447,1.7207945961614606,1.1643651074083066,0.37594800685594465,2.9642561237895833,2.8002526225165405,0.6249331848215324,3.3526299650848945,3.736175536859877,4.340095024383383,3.6974954211023277,4.617362999324617
81,-0.3748684653019156,-0.44145022527828076,-0.5548078146394134,0.1927268726593195,-0.7317058266964285,-1.3881254642168461,-0.5116896948761024,-0.11926738488192068,0.8314619611875288,-0.17518817810215925,-0.35170975521977044,-1.4989829430271404,-1.6151720733343917,2.096975648395311
82,-3.7685253452753784,-3.8768178297015727,-2.904984232526142,-1.980004253411597,-1.2270704601550606,0.15407271013713722,-2.6787032526257675,-2.683554859434527,-0.7185534355735622,-3.0243431694932177,-3.985185784899766,-3.5576336935707644,-2.7589955016842267,-4.64840229041582
83,1.21048805018925,1.2886889326967548,0.7543388211922826,-0.20728559609939565,0.9423397115574774,0.9966365517311307,0.8117440628452347,0.7036371262181667,-1.2229304846192914,0.45449555229748695,0.5852607112676425,1.6957626886330837,1.7819965298724574,-1.224871061272536
84,3.421678280344592,2.9676371686591554,2.7868056938702055,2.2802284835788362,1.1417356283671969,-0.4821416727128767,2.229155792261708,2.312964979556973,0.8285131860262331,2.510283146086577,4.145252957356562,2.640530086615943,1.8247527896652829,4.202680673590692
85,-1.9797057612351656,-1.7313670637915886,-0.9841413133589245,-0.016052736303825473,-1.1380127422157968,-0.48396089050988406,-0.9728597183787699,-1.1798927565426045,1.5580893408453165,-0.4686066951130582,-1.0016102940367582,-1.4256574663395887,-1.5977579062167397,0.617945490751572
86,-2.635891677354442,-1.9495964757495194,-2.3680952152511194,-2.463864713238001,-0.8968607161877371,0.5127726896637509,-1.6828235450693545,-1.7575183147529387,-0.8916394116059639,-1.9138378667627285,-4.036513576527741,-1.844014179942989,-1.036624389092846,-3.4168090854405713
87,2.414701797813342,1.7714917480965138,1.051317818975773,0.4682514773099639,1.2428529613490813,0.06955383685236424,0.9707917660472358,1.543650242819858,-1.8577808996874805,0.25393815044864526,1.5817342631330567,0.8184768398139024,1.2401238344602867,-0.4426913356908167
88,1.6146450953687819,1.0627425200869096,1.721621977487788,2.3593468476435144,0.5147870659771024,-0.30331978014623207,1.1036510187895683,1.0451497409455086,0.8879237795832899,1.2837303138427285,3.449909889481615,1.3395835134809235,0.3870902146712296,2.529501764233716
89,-2.364800571615081,-1.5363775274672609,-0.8011504606504156,-1.01786024225698,-1.1686305668310195,0.061137216140977314,-0.7941203905140959,-1.7785786430921975,2.1622038117964197,0.19017685811036422,-2.108905233210602,-0.08035578130050076,-0.813614082305871,0.7505746515462366
90,-0.6770380025737377,-0.46088527960677383,-1.0522804527191205,-1.8737676124693048,-0.08191267822559985,0.049524545956109375,-0.5613276563006745,-0.1808533218959253,-0.853644348868624,-0.6842314458196285,-2.3234362400620747,-1.187878403648321,0.1837518256941133,-1.8282590302988342
91,1.8862187657087461,1.218827069687374,0.21632208228365649,1.4544662882872452,0.8608379379905418,0.13884606459425164,0.44355960683159323,1.8196170876208553,-2.4774959314594573,-0.8926742520173929,2.255488562719125,-0.5734885518733776,0.31746041210467896,-1.443345677784498
92,0.11554742817289006,0.18110778901636304,0.6009175862623465,1.0598916586174478,-0.2565863353761279,0.007853578295970798,0.1420424770135485,-0.7991257361787623,0.8439014135298686,0.25683364071404163,0.855589826030223,1.346154376806534,-0.6765901867378304,1.5635278811871611
93,-1.2335753078611282,-1.0101970600342158,0.554534428311973,-1.587220953626999,-0.3554854440125835,-0.5359632369226148,0.04743138149586405,-1.5677219042772896,2.754525425175089,1.8272960413684614,-1.7758719701152674,0.9670166057379044,0.283476082126812,2.2845302575559954
94,-0.050104091559010744,-0.14825564074077238,-0.5217522757584138,-0.11085696814696029,0.35595414421720895,0.28560338230648075,0.06370656732309288,1.781008795659664,-0.8728901519363182,-0.20068870336006475,0.537237946807171,-1.6901116195764363,0.9974469874424354,-1.858866953841043
95,0.7441258020107985,1.0433046927243859,-1.2597633986671002,1.345633487937509,-0.20220077878472895,0.8728800024530734,-0.5911996757407332,0.9514243872143898,-2.9207083009396593,-2.825566096449741,0.6822374055523093,-0.9955430156687957,-0.9554652404880999,-2.9681304177912504
96,0.359107325429741,0.2031229776814983,0.8036867611227867,-0.7244611308407665,-0.15948828853932523,-0.9021440904880691,-0.0018274317267410294,-2.5756857446487573,0.8796441843319405,0.6593602667695646,-1.4121379481271898,2.040558404247794,-1.0253503916693603,2.6590594619268577
97,-0.6675653951693918,-1.3503152491670927,1.664499548316085,-0.8213516850773349,0.6089526314083505,-0.9034312673144458,1.0521244846423803,0.003464367565326798,2.9465394430661047,3.5750794534819392,0.7186019117612154,0.650546567245921,1.5525287429635244,3.222086582062199
98,-0.7318596094604806,-0.14861965287305517,-1.2790588647341452,1.2627869000014813,-0.24336941214670146,1.6342063803752873,-0.298404693509317,2.97858773394561,-0.7539817576411231,-1.5811841832433478,1.5308304845827583,-2.1997997788491768,0.7284179817899187,-3.74393321124008
99,1.0302590089084236,1.8388711915012856,-1.659529418185539,0.22015784736329835,-0.7087924312916072,0.5311924366443704,-1.2933351600511385,-1.1435724464554031,-2.8993108097912024,-3.741342450438465,-1.9646023201763279,-0.03575006096365413,-1.877342447539702,-2.901635053426873
100,0.822508731607839,-0.18490747429517682,1.7112098191142078,-1.4734805747046655,0.6392647898643434,-2.201221898663375,0.7088333367476022,-2.858356785670542,0.4178427112554838,2.6615222811938986,-0.9873677842631684,2.005924422763227,-0.23293649207647874,4.803582418763756
101,-1.6094568534356275,-2.298751838533814,1.3010014947255308,0.2518286959176184,0.4916484466940246,0.13251012992809857,1.2454005319367214,2.222531885101294,2.935957572301653,3.1596373367650115,2.6775422329960854,-0.6412617391120986,1.8088559451662434,2.032196792256121
102,-0.4290051835426919,0.8611203454865708,-1.9084553311344594,1.476065210794192,-0.7960582076726862,2.4004821427280807,-1.0432177656820516,2.22597019086679,0.08650298070648442,-3.4379061179960373,0.14881477805657,-1.3991288686376901,-0.21888893962170172,-5.541175648456821
103,2.0359274423703364,2.4569367908343707,-0.7668691007457894,-0.49900881651625456,-0.11717381812138841,-0.8276056506272947,-0.9538897770012406,-2.9878955997581005,-3.2206974742460965,-1.975758194122973,-2.75752474190247,1.119472309108799,-1.4033444368761692,-0.788799369190213
104,-0.39540657322373596,-1.773804474344496,1.802845464489748,-1.448362883476403,0.5948651314966433,-2.2125983011615253,1.1421323936409875,-1.2459422542735177,-0.5675839188153393,3.50935774484856,0.5576513662013033,0.47230768221452124,0.4053262819024432,5.759426744030618
105,-1.9750521512221928,-2.0841992361715396,0.2634524573107018,0.5737983054010575,-0.16251775852801226,1.2845682061740584,0.5669653165161257,3.2789375136248036,3.8064955517447374,0.6285107516207603,2.41434921123611,-1.175643783211925,0.8884386607221392,-0.5689683077291211
106,1.356439370970818,2.642566956788709,-1.459481964416857,1.5049775864204733,-0.10717417190224145,1.801723771173051,-0.9540341677790679,0.18152081390232508,0.7535935252758894,-2.757879913539362,-0.8808124398333141,0.5313298425953782,-0.26629529413906744,-5.40127252287895
107,1.2960904943535856,1.1213502663319692,0.06389740791126877,-0.6172552707127029,0.1421986223672385,-1.3601409303186014,-0.2603201432429392,-3.0895456147276534,-4.557408404714857,0.33791319110052964,-2.0202080979887587,0.724978589782844,-0.5428062258619534,1.7712600649633472
108,-2.0527139281104727,-3.100361262940865,1.0242749647963516,-1.626856479116392,-0.4356079138554776,-1.4170465769338656,0.5594021420474943,0.7025956804931011,-0.4346704096836404,1.4349900396293211,0.8622712477535376,-1.293298990698512,-0.049089784997040094,4.543955660743245
109,-0.14722776590406245,0.23934754101724906,-0.17586593279201623,0.7443588842558915,0.21734273054357547,1.0944543129049198,0.14149496714542223,2.56858695755863,5.176673627394419,-0.5324008193191238,1.8796480074490642,0.11948810181995144,0.5346140558750728,-2.5949459515189024
110,2.1648901293654688,2.8578295898514416,-0.6467059930150374,1.6882063175807214,0.7664206676818298,1.259180782912762,-0.11855560820763705,-1.2386126767389083,-0.4026449624933204,-0.055081079685955846,-0.7710639521854021,1.5481762914300286,0.26603838633989285,-3.3670039950104202
111,-1.0990944298864709,-1.5821489293913362,0.13081433232281856,-0.9529850434476492,-0.7628371403299528,-0.6674216579981445,-0.19433938806745404,-1.957720900902741,-5.341480515556699,-0.10018050734064701,-2.0593243400224965,-1.0704825420560433,-0.8223020057411983,2.8994294519643447
112,-1.610852449222747,-1.8723392186253334,0.4162702169952839,-1.5607452425847688,-0.728466225723498,-1.3879827104246347,-0.2256031450940207,1.4142223480420375,1.5369935554954526,-0.8444273424728802,0.9082757187277953,-1.2088404554843388,-0.14899429550285476,2.1129969443255185
113,2.006673837857195,2.423453001575442,-0.03877330822332696,1.119406311503052,1.2310044934912678,0.2910342088196323,0.3000692964631411,1.4918003422190154,4.872062929078917,1.2696552295593884,2.3751143339283503,1.7774265889766037,1.181731537958212,-2.6517154957947584
114,0.5937019096592198,0.4228281303422184,-0.33507210360591216,1.2228904912996854,0.3584359903669349,1.7149271368348855,0.4279096409269235,-1.3665954353936187,-2.6033455765339664,0.9404723081424127,-1.4095531006910826,0.42198948744852866,-0.3546671452139923,-1.0426161159146432
115,-2.270933523495503,-2.4383515555366224,0.0025526142243858865,-1.084701941917718,-1.39165881384691,-0.10360153502786709,-0.32042374785406663,-1.3027431790610204,-3.834753368335448,-2.4966596111584916,-2.5321427674917882,-1.9814307673449072,-1.3433519478590124,1.9438746824234414
116,0.48418827227598227,0.976270873239618,0.33076704754881747,-0.7976108454378448,0.13844772003922978,-2.0705428746597305,-0.5543551370387805,1.312749838767771,3.265707761748743,-0.23661140916589163,2.1653457042446145,0.48574250814556463,1.0805121205427919,0.37589970439464826
117,1.8592855173498122,1.6421057320870869,-0.06908734940922902,0.7748219771971617,1.1700245855228981,0.11994340979390768,0.18788606974327376,1.368681701398476,2.5174039625141154,3.335004881183445,2.3212868866481977,1.639144493909364,1.1549887694458723,-0.988082283698013
118,-1.2071183475138278,-1.803869897289139,-0.3010306720015542,0.4892474498969753,-0.5043301983487599,2.2992526077751276,0.7241922150473844,-1.4451746652900725,-3.3723864996981483,-0.9886014914608396,-2.898749284466262,-1.1560354404764557,-1.7421384125522101,-0.22379332892199974
119,-1.0248354520640126,-0.41313239584566647,0.20935572641070174,-0.27222735366323025,-0.6814683802144513,-0.25170228014957596,0.05390555251716887,-1.5328556364787171,-1.2935769367795138,-3.5392971739076673,-1.7484056939445816,-0.9456286271292225,-0.6714480831841333,0.06924799088131717
120,1.3453668551362172,1.7935932820204692,0.17060315392246642,-0.4569022968310926,0.568853005564766,-2.328971518531797,-1.022051251171736,1.8401017543539062,3.0094962177301325,2.341887101775393,3.3425690871176448,1.3707758241325139,2.096556730665981,0.5366871712440663
121,0.17787762495554738,-0.6783052147969356,-0.3366964781674082,-0.21404346967716126,0.16223822885254965,0.37223008540970065,-0.2808166964512732,1.5851328235483977,0.45567684448308465,3.1078032117116745,1.021583225196142,0.23427637616710137,0.11781678006931265,0.5456837469512713
122,-0.9644628740406928,-1.0799973752630447,0.06552694324611577,0.7068514673787984,-0.3359324226613508,2.1871553684696754,1.4366760852631753,-2.4228499876998772,-2.4350698776864848,-3.4824831017322997,-3.4003618704158374,-1.154329619571741,-2.079534924872702,-1.1055486112662019
123,0.32533125248703376,1.1574015175313488,0.35711873707379904,0.4669578987667975,0.16284892386561825,-0.38387364420670034,0.3655562508515157,-1.367297958737353,-0.10600609205353119,-2.211953169367175,-0.41311404796248463,0.19853628228659037,0.24937488529234028,-0.7112700901974023
124,0.37977779576023796,0.1343659950966267,-0.3368195478851205,-1.0780556980688099,-0.029093233647547685,-1.9687022926341489,-1.861220532910039,3.0075161606336462,1.9453958303111736,4.214909499964239,3.1923782770093534,0.7447927842555294,1.8300090214039841,1.6330567414777741
125,-0.3637768858055175,-0.8912019436242273,-0.22575544363974975,-0.39458465074470933,-0.2006867914531465,0.25598884406565986,-0.2523210681653979,0.8495010039349553,0.14830133512966692,1.0810900639649033,0.08932623066263826,-0.24702275382263283,-0.296612984144202,0.46936002118227454
126,0.02491706531638141,0.48616428728030125,0.5356421284865722,1.3356310794616908,0.30196033811102974,1.7826411829583375,2.1499322181921148,-3.38973262460395,-1.7509875187660977,-4.487562179885624,-2.9635245873210625,-0.44706926063886515,-1.5913333952990039,-1.8546890004750711
127,0.09873495248962931,0.15060523634989906,-0.024253654363032298,0.08949607189450468,0.030546509388986624,-0.025948616761752738,-0.013053894329051886,-0.139751831483699,-0.3597639610870012,0.08530700417142421,-0.016433826206718245,0.038380626861193805,0.0881381958793819,-0.03489708301301619
