,AF3,F7,F3,FC5,T7,P7,O1,O2,P8,T8,FC6,F4,F8,AF4
0,0.04813223770488074,0.03048712969042546,0.029181584463776236,-0.03833710031784843,-0.01608635083379434,-0.029009289538528993,0.017475814482270723,-0.15277390034184504,-0.03771951184125069,-0.09473498949036546,-0.054822966019653405,0.03217482230874492,-0.06858448912219425,-0.11873210625599213
1,-0.11745327086008742,1.6366330412830405,0.5821282361941043,1.2090044292439177,0.5653287208100911,0.08579022197556291,-0.9536114159542385,-1.4511834604965348,-0.1966396906622548,0.6669519553885916,0.4237253658006057,0.6260836270113231,-3.8380879700583233,-2.9687641788686756
2,-0.10792069306937264,-0.6435847325464602,0.18186507918407324,-0.14694960872463325,-0.33798577011331743,-0.32083513638162403,0.15949448676636935,0.7414259746222682,-0.12257221907069239,-1.277915709896849,0.32249107028908675,-0.2469948154902591,1.5598055124577634,1.293302886634036
3,0.006704641664472842,-1.2633781673390518,-0.6156042394467711,-1.1893613403246808,-0.4775076515313255,0.3607475374791466,1.0737955758274107,0.8660610396308761,0.28987496058592416,0.04297909049386123,-0.44569789542608546,-0.46567543579876963,3.0338177621482307,2.4446152820325873
4,0.2119053874039906,0.9361227391484378,-0.40622342227189034,0.3610176101000711,0.6774383683110565,0.4015446490901881,-0.4418581569855834,-0.9315256600489493,0.12961450840053726,2.200009578883515,-0.480299464721024,0.31154232929508313,-2.5930385287309705,-2.2544962957674435
5,0.19656200519278685,0.7871099761063464,0.7383003186501622,1.1151687471473388,0.2600407890233935,-1.1255162625589958,-1.223997840448562,-0.04401880639714627,-0.3637327877794418,-1.2063565781277497,0.40237109675056426,0.31279180362198905,-1.67481168880021,-1.513488219717
6,-0.4070354968311931,-0.7918824235707428,0.5951007124771426,-0.6099546197190329,-0.9495086357027348,-0.005203616341313064,0.879102397174296,0.586908346458607,0.06540607666102351,-2.373424241824666,0.5123298020671877,-0.21767764646695692,2.8664715818939785,2.846324604469353
7,-0.4041765571420712,-0.5312295775938535,-0.9487854053869276,-0.9343344027899809,0.10964647940169668,1.9554109918679616,1.3209389479104143,-0.5911638219109266,0.2902256808363737,2.3834515483747736,-0.1687204828698022,-0.30675721386172183,0.20057344722014583,0.3413909814767375
8,0.6804010125204931,0.34302343137662017,-0.6798421784134195,0.8523691841391051,1.0648321235310918,-0.9505482906036804,-1.478925040025091,0.11980789582780729,-0.39491207239657194,1.7876893780437202,-0.5209689729414595,0.09237123908738157,-2.34189301065431,-2.974353168101421
9,0.5183968238779847,0.7124247429947024,1.1879781386695187,0.6098378939236702,-0.6116956208838853,-2.5354558413792367,-1.2679540591629828,0.7432309926197984,-0.003734011850654162,-3.141021039099961,-0.2982690726604866,0.48080987062493347,0.9315211928400803,0.8544291346692185
10,-0.946515946563149,0.11172799124119215,0.6196122959128001,-1.0015373788020732,-0.9180155886420658,2.379972551045282,2.195822445379912,-0.8069842576252462,0.7212618401097307,-0.7127837569427738,0.6688062152448855,-0.11435591455727852,1.2580869313424607,2.6339300013294227
11,-0.48750569188199694,-1.3176178278419755,-1.3493631067650833,-0.1612398399858315,1.1537380620853075,2.5703545245774064,0.9774365966930868,-0.4082700690659722,-0.45134954566141267,3.2229753268472363,0.9018635857308313,-0.7084825478993945,-1.4177645280268485,-1.845803027427432
12,1.0735987541396095,-0.2814973978012394,-0.44877745585999634,0.9603189090364627,0.4355367070226929,-4.023625152092859,-2.9275547112208287,1.1073419381975564,-0.9243916393794944,-0.4202065264453364,-1.0715612665946037,0.3774983277968997,-0.033532482811772395,-1.9206350169978128
13,0.3501842820101533,2.1175469626628503,1.3342486591972098,-0.3139646488430389,-1.5708552694991036,-1.8807655127895502,-0.40174383510119405,-0.13137479389198758,0.9447573187335974,-2.640236259804438,-1.4329893692536835,0.7644061988386298,1.2227637872572537,2.4499693566567005
14,-0.9460750310309024,0.042773099842875854,0.2825573245606404,-0.6781371663567477,0.36544698754169974,5.495921320944657,3.528140551752972,-0.8858806626480352,0.9709959982207595,1.193153470754399,1.7069232254340077,-0.7964664637296736,-0.9106196312460207,1.006567729547437
15,-0.23925561474539306,-2.8014250114426233,-1.1198870748723075,0.6594222561524736,1.670900664973694,0.4852804920685414,-0.4355152608288068,0.48140839583937,-1.3374297180463899,1.651208817981069,1.6754027087354257,-0.46773047773496224,-0.5769723133168564,-2.574597987690516
16,0.5377927978010266,0.5088204192935092,-0.2657318303696931,0.2028900836090174,-1.3394079639147756,-6.386159122085968,-3.8429695899566676,0.32607631142724147,-0.9200181767474415,-1.3567863434952498,-2.401044155229141,1.1258330865465231,1.3279050216779607,-0.08975838255518905
17,0.3306993626633023,3.1447088395735086,0.7930891552837543,-0.7220573572570493,-1.318814987947219,1.3670021348318522,1.4246414931634659,-0.3789607541028271,1.5566694153881995,-0.6504081460646001,-1.529420043864746,-0.1832579495613748,-0.14886914917440094,2.2282241630903297
18,0.043959297459700404,-1.134712841584215,0.4895744668492134,0.3054527918185343,2.230954876468636,6.391020253586134,3.760117964257742,0.1683500549888602,0.8660039750439037,0.9130620831242351,2.911274965081702,-1.0887076757529075,-1.2339561983184566,-0.6559550249599432
19,-0.7534372691969059,-3.1105378178474186,-0.5211030821513121,0.4345057225761885,0.5231244258778428,-3.2403016870093024,-2.388322078977608,-0.13486565611911092,-1.6190162294429093,0.01185062865057916,1.0744069752144532,0.9733672521206996,0.6280799974744343,-1.498231170130779
20,-0.5765377302730365,1.5991397327284553,-0.9265572485338541,-0.6204385098551295,-2.762154008742502,-5.435458014102524,-3.2565139358148576,-0.20513039555933155,-0.8657132569339749,-0.10107564515802779,-3.061025251655888,0.5394826172972113,0.859298842265688,1.1066682917986617
21,1.5024183971127396,2.836441612640204,0.47057251956282936,0.12437754021576013,0.5305208617302078,4.635148696127593,3.134694749958903,0.7158794525335352,1.590985115533638,0.05767258033471726,-0.5214985806706867,-1.5563401942120123,-0.7196444737527086,0.5210446790728929
22,0.8062549253339641,-1.7928705907064801,1.4244234054165608,0.5452786833443988,2.7571333580647983,3.7289750287067553,2.411411237306434,-0.3598539172220126,0.902054449018268,-0.7058521795375986,2.8401485152618124,0.434390686608175,-0.5017293186523514,-1.1899877116944726
23,-2.4039397014095614,-2.5306082163898367,-0.7176602941092515,-0.7321291188966924,-1.5368972386136726,-5.156980817528798,-3.5219174308093124,-0.8973659656756413,-1.5227260161647593,0.39526957750034375,0.07912384973350829,1.6171420095082825,0.4928092236561258,0.5329586264664419
24,-0.5667780380656131,1.7694353887279652,-1.7678401762819058,-0.018297715159243895,-2.2352402810069365,-1.7185679112142096,-1.3745400499152318,1.316525804425958,-0.9084033196927778,1.1587444078296067,-2.397761020368037,-1.5275947506513041,0.37087784188952294,0.8846503630930523
25,3.1619074872177837,2.348726540189274,1.199255979177397,1.1031561947069002,2.205051047605815,4.664504891361933,3.498227712716374,0.35376642360949195,1.4064578502246974,-1.0813636921844858,0.1810627910002214,-1.023814084315566,-0.1357360865413329,-1.4618820994783
26,-0.12450290928283728,-1.6874799894925359,1.7779412535580177,-0.8294588723168637,1.4085206053096113,-0.05761880739299746,0.3067777150159824,-2.190528303141749,0.8305762509162334,-1.0918409705380328,1.9243530804064701,2.3389874227907677,-0.5138359411988225,-0.23858954656719453
27,-3.4755384235385716,-2.3217068576139037,-1.7344260797505222,-1.020084479133733,-2.3976530642431295,-3.3282503803012293,-3.095660872327383,0.8991868683348582,-1.1902462148646968,1.5827635816975905,-0.3619287819814747,-0.10663382043936434,-0.180742172110021,2.0470121995373405
28,1.0460591977895666,1.7055071663831665,-1.3981439798061068,1.7070565811958112,-0.5729954941104733,1.159295263463808,0.6675153987004298,2.484453976862468,-0.6767564368495296,0.6155669832549462,-1.501176095660629,-2.5372862757279235,0.8503514165147064,-0.5998867436932209
29,3.179739658653543,2.366051946883376,2.107889862308273,0.4534199839872734,2.190510109409312,1.5671684850327234,2.3896294226945187,-2.4812092890998843,0.835146864715181,-1.5353566290721439,0.6482980110374159,1.4555719710878754,0.3954469959978265,-2.103060779572026
30,-1.8508410223797085,-1.8951454954232447,0.7199473702686442,-2.2865253241146988,-0.04710129713161039,-1.3920053141180717,-1.467544435963239,-1.9400945561874783,0.5153351200392303,-0.09323475272491931,1.02576253669068,1.9908887952971253,-1.2754352584561144,1.3704629590932726
31,-2.3383092166178163,-2.3578633568218335,-2.1719388691646766,0.39968011738940573,-1.8115239453018999,0.10795170176221497,-1.462357517437359,3.8161958047205418,-0.37021759204519983,0.8056939040078168,-1.14195711389496,-2.6338158842713773,-0.5560750012759411,1.559302547658192
32,2.2176036297990387,2.2207201772549507,0.06603899271478274,2.3631450690162974,0.407917636940026,0.8514854589292302,2.030165693538027,0.6806385258566624,-0.4189851476041458,-0.002372606471597795,-0.27558739912586977,-0.8056485136339587,1.7531768130845686,-1.744726049077393
33,1.2332214386602942,2.215529716976724,1.9103603913127543,-1.1931966494085526,1.4949176152130201,-1.270715497597087,0.40115071504768385,-4.402738672928833,-0.10111236716716863,0.419566965002792,1.7380674307610868,3.3293215278273407,0.7395463317592635,-0.5324914946047337
34,-2.0032663456408106,-2.5878744829210265,-0.7655715352574196,-1.9688875254313534,-0.640603640047738,0.14243559453932272,-2.289686448025928,0.839801307762913,0.394080883585509,-0.7014731561324952,-0.9215623091849948,-0.7364930621067131,-2.341805824115431,1.4331455004949902
35,-0.24275343590777826,-1.9350682923533595,-1.4290410434939569,1.5996746101404586,-1.3419294414252123,1.7015610898723397,0.673870679673901,4.044599379925732,0.45704959735524026,-1.6814947466573074,-2.135833906862159,-3.4035243868412404,-0.9534696627831311,-0.6620212869994354
36,1.3125282856843912,2.9177754740928616,1.2657776435141586,1.3681362534369677,0.9380597628052965,-1.177838660337203,2.197594517913385,-2.0469134804563476,-0.3499378290789119,2.2930526403143623,2.5172467964964493,2.2964734300697778,3.1374634156208128,-0.31794452200475665
37,-0.33477225150333,1.5586176965653582,0.8834844323733495,-1.4826485158112879,1.2745802480867128,-1.4214515074676048,-1.592309013365331,-2.9275304378073885,-0.6444315301429543,2.4224774651377863,1.9917808122131997,2.9025263270774,1.0848434731089716,1.5927327836864085
38,-0.4392852018545506,-3.1867909211252012,-1.5604678479338134,-0.9245528517915385,-1.409261962387716,1.8872509674493003,-1.7776392091104145,2.5035697074920873,0.14001957007441065,-4.502416119005891,-4.186599417234251,-3.591862082835097,-4.1729124849863375,-1.4568157888341053
39,0.4160064943108064,-1.1083890834993408,-0.393682554144825,0.9754606629209475,-1.107529926778927,0.6467652537106043,2.166092679095807,1.5153923634127142,0.7378705629795148,-2.2144677785667635,-1.1310406882006256,-1.9966658054980901,-0.9319180839542592,-1.8683709484756028
40,-0.2922221203575352,3.399666414750912,1.7087322715334674,0.9037754714719657,1.9957836762922738,-2.044303456249693,1.170948699521132,-2.085229553969566,0.3403085388313176,6.776016865268456,5.437536969050067,4.4580589399163735,5.3339411451188505,3.4987213612606585
41,-0.14830266550396864,0.5478553542715253,0.0016378032291185676,-0.4134950282468655,0.6861270545532637,0.3002107531459044,-2.2735429049363836,-0.3314948629781843,-0.9222425759197701,0.943859915388963,-0.31105159485588507,0.8937261124105119,0.3077513394267969,1.2981984299156832
42,0.6957983211103822,-3.5194989185093837,-1.7661072740469843,-1.3212777375119764,-2.50131489962662,1.604512945320696,-0.6189004671497308,0.9983145696864645,-1.057342444767333,-8.471221060217648,-5.83668375833742,-4.846582935746966,-6.348992365899758,-5.293944966138206
43,-0.20279342515436172,0.18605085204668426,0.30820465122860424,0.14943396687593924,0.0016047347181276067,-1.09006832260685,1.9479920083463387,-0.25958470917536886,1.3941376073170817,1.1257080625937224,1.9105326349414304,0.22776236278701717,0.8368332591451355,0.026246658943330115
44,-0.8023987487477117,3.4187712091569527,1.7423893239017612,1.9260021584419527,2.708513509958801,-0.6949516136046933,0.367908696824032,0.34705827222301006,1.8104304263772986,9.09006163555499,5.2280510947345835,4.783099201730907,6.870221609576427,6.392195654366697
45,0.42533712829398185,-1.0916674361695253,-0.552980891989336,-0.3516776697916565,-0.8081902055464378,1.4698747810013508,-1.404247260662557,0.1698993530096929,-2.2311031892192137,-3.436747099970192,-3.138926413301424,-1.241195826240115,-2.337679073889209,-1.770796133191886
46,0.805200401871776,-2.9091895997251487,-1.613257552054192,-2.3357576981960086,-2.5023777870868114,-0.43345417837849853,-0.536863434852454,-1.5299423754373909,-2.304096145371289,-8.458413720580515,-3.8165225172782504,-4.321233698484631,-6.615609490430301,-6.559560125701714
47,-0.48703018439169204,2.017945427279035,0.7102678843941339,0.9008031257213396,1.5058637627119325,-1.318197991342625,0.9638678866803939,0.43068375565202677,3.306109441568949,5.330258099753287,3.6104190522043553,2.055555388862975,3.836344951699133,3.495104221130658
48,-0.9073801340609011,1.8549587111555945,1.3680506270182755,2.253072327809621,1.9239522073567097,1.4753797499257766,1.025480660752999,2.280105277846645,2.2950773400324147,6.785001808272139,2.0647623643902624,3.5215378519648137,5.5072228082455,5.830879758000917
49,0.5387558267914511,-2.6631081962785856,-0.7246492170319847,-1.4470919313919046,-1.90023089184269,0.6662571513929081,-0.9014470067052425,-1.236475889171786,-4.308235239253405,-6.270370552304032,-3.252097325913592,-2.586531287086914,-4.896341935207241,-4.812347536843993
50,1.1679834405048561,-0.30858690503207753,-1.0494240664337442,-1.64143353964307,-1.1347525429612522,-2.147615950660981,-1.5312940011228213,-2.544821902316727,-1.7380357986686423,-4.585546075308222,-0.4643274017263901,-2.4644311927314666,-3.737698793200172,-4.454358056794634
51,-0.7931541358109317,2.688664642932041,0.5540946040374786,1.6020195745483687,1.9059950958122576,0.3152041840783479,1.2909042762552503,1.9585982882606712,4.874921763333417,6.020123751550111,2.3043229301644446,2.7476328691678793,5.17118050052496,5.49885220191518
52,-1.443555005396548,-1.4247217445151574,0.7502664131234602,0.7606179877530234,0.3330231493871495,2.2593411587177714,1.68497618670902,2.4520352711902578,0.8431316937520236,2.5058490391279764,-0.6844820302945518,1.279809180484674,1.7267522095680454,2.776265415010459
53,1.3521075644910465,-1.9047955057761334,-0.21759129283496315,-1.1592598016363753,-1.5537785878145143,-1.3610830769561615,-1.9440878356357216,-2.4384749252300124,-4.775714278474268,-4.711560751494678,-1.1632876603440994,-2.479787688629514,-4.550874480895892,-5.522119512809508
54,1.4680454055300487,2.8608137291646227,-0.5676553481403394,-0.037106775052113176,0.3183673806741476,-1.762788951665216,-1.240654641634571,-2.2051744531981794,0.0007283165861939945,-1.1078093019663926,1.363460577021831,-0.1578498873917217,0.021453515087454033,-1.1285472627838575
55,-2.091701429309082,0.4237552334118003,-0.19394692675758515,0.2215051118853107,0.9499540383627437,2.183234980101657,2.4889235197858,2.6821962067823604,4.049596304032882,2.791382410518303,0.17001307037317645,1.807298835973799,3.2192914956051855,5.003748859446234
56,-1.0304931313126755,-3.536963743323348,0.5451915856668714,-0.16150647415226063,-0.7213978102929022,0.7698291512289652,0.21655840152095795,1.9651333696113469,-0.40975112442349787,0.6906686473358824,-1.7656987337917316,-0.6886204614884012,-1.1026286449804072,-0.24243298133001678
57,2.68475667863826,1.3220872526153307,0.5542882235409616,0.8390838161609603,-0.23200590320377307,-2.55412583716399,-2.554111280456277,-2.812823202037691,-3.0130592235161364,-0.8630033774168875,0.5303154153645037,-0.8788592765132871,-1.5928088162250995,-4.156122333195037
58,0.14593364616989798,3.2437357630404446,-0.6427223195111633,-0.2753627700869294,0.8404085180706757,0.4770275834964072,1.09771625398163,-1.7730377273005624,0.20367314577250295,-1.2077027286336068,2.1294445859753517,1.10690857047081,1.3592282646397025,1.2042648106470202
59,-2.7619258867642653,-2.7334772406155556,-0.7646917301076879,-1.5661103245615786,-0.4574951910682396,2.3788584839911815,1.9615759221537323,2.9710368310880138,2.1214713191218233,-0.5201510200772973,-0.9936304352258238,-0.050682463894073694,0.16439753454952294,3.2221465965792655
60,0.8896622617336143,-2.159405501910201,0.7543298653973713,1.1379561003123313,-0.6949056991752941,-1.6780556212309934,-2.2765436127718655,1.547033550829564,0.4905102647196344,2.307328899872367,-2.5878272695341917,-1.0892299302490185,-0.9267002808700152,-1.7421566852151253
61,2.126758656074672,3.3063362977993336,0.805127038955957,1.64954423129864,0.9859343852951721,-1.7277031462792984,-0.8199479880775129,-3.2167422688290275,-1.748953149299644,1.035255977513803,1.3718734578377216,0.7094514766905526,0.6795892361688572,-2.423895642080352
62,-1.607155934802995,0.8007810202606598,-0.7654240657373171,-1.9990076419694949,0.3594075693939285,2.573189797484341,2.9626750922369873,-1.1506735564587816,-1.292178771618671,-3.482154935833654,3.1164584372128106,0.8010925892489844,0.16294091253672927,1.9505255946335607
63,-0.9009580880493759,-2.8712114214808175,-0.7431305581555334,-1.0801943427953047,-1.2523271962634777,0.8116984419698025,-0.5307408311143618,3.484166773061901,2.0032011264421743,-0.67566531760625,-1.7825836219463622,-0.9307930988436044,-0.7925812573177117,1.9129956629052747
64,1.586747873102986,0.19879176967933196,0.6161716665838736,2.424905036155162,0.04126020605272121,-3.026267825688192,-3.0285326577812484,0.4925702991426621,1.7542930875797926,4.264656119715952,-3.5875497200842505,-0.5208815948794567,0.5023009951836074,-2.0075307137775886
65,-0.490015571414923,1.682367219789905,0.694200530344944,0.15160604223240667,1.2175435210553924,0.0927012399562222,1.6867047858274378,-3.6140593687943525,-2.6767053238029734,-0.28979565333496315,2.2359871606157427,0.7401650542219371,0.30126750502099153,-1.7238676289174455
66,-0.6777265804550343,-0.37867053860855016,-0.3341121759698605,-2.184600657099936,-0.3573799112275983,3.062685256492869,2.6118099302923783,0.400434783257297,-1.5841139973920604,-4.386241418525106,3.8742409752650566,0.511571644399905,-0.7308473632616348,2.120363038003814
67,1.4930900387677921,-0.3038414903877305,-0.7559100223576729,0.6856960360430221,-0.9251701964095365,-0.7404950590854766,-2.36325935969008,3.4416703644664413,3.3594752290283,1.4579691477044898,-2.650258980336874,-0.3510303825369772,0.46242405562661254,1.7496811650657036
68,-0.9044798056189538,-0.33755295924522105,0.015929601422146063,1.352978099249219,0.4593534484326308,-2.8472490679089906,-2.0200540718624254,-1.3771211614934002,0.7782633894043526,3.833800190668959,-3.9306918629787817,-0.890895416621815,0.38982839810353365,-2.443858474394062
69,-1.6778852457797537,-0.6552189058113035,0.9544581786183435,-1.039518668344024,0.49378950096833546,0.9988119084022933,2.497615810609718,-2.887643891488144,-3.646431256504548,-2.4598198658276136,2.925454120049696,0.06521167108370093,-1.092437383660738,-1.767656897537659
70,2.6589642199970194,1.6166337992161917,0.231782834994326,-0.2629876264319939,-0.2816567802630623,2.615446982875106,1.5721171588581542,2.222090613770444,0.39583080060436293,-2.790319938828158,3.8043655743686497,1.571958454894909,0.41645775917114425,3.0014071189375784
71,0.9322908954546811,0.8239245978590081,-1.2368871870554006,0.7522803299039577,-0.07992610574761742,-0.8850865239799582,-2.2346518634252273,2.0022893516830482,3.322356032057981,3.0739969339156197,-3.0171910536082267,-0.13002368554069246,1.2496739790427431,1.522038719154507
72,-4.018029098491426,-2.890652317335081,-0.35669382280948797,-0.6625041979164471,-0.1568149575319573,-2.586488441002822,-1.4667757057715896,-2.7451149652870384,-1.5498831116992273,1.5067281358134879,-3.587799405070379,-2.3063328768143285,-1.3943734336096454,-3.6514773971103107
73,0.4970780678446826,-0.22744664902045247,1.5151865467974601,0.046062313966237445,-0.16957932601206538,0.5568148253038195,1.829628349943478,-0.9460020203610151,-2.4287496122228123,-3.23957318607921,2.9638497746940797,0.6292338170869644,-0.7689086394903063,-0.8387078858552253
74,4.590780197157019,3.641770928982146,0.3878344997082005,1.109606826412997,0.7620278091936692,2.884656337118725,1.7323409357276363,2.853111158993467,2.3616131591713727,-0.1850877937829531,3.35242298657654,2.8016279737585075,2.163901926537491,4.128983924562842
75,-2.1368452865951957,-0.7600415760869139,-1.7342614780283931,-1.0268706248976096,0.1544709841840328,-0.2606515528936655,-1.5364290986427809,-0.07583963437293367,1.1934814665083235,2.9834263615356558,-2.858660642493502,-1.461045275610327,-0.2939059882723189,-0.28077026380900233
76,-4.305665929115151,-3.6464113252822563,-0.4049032425850725,-1.0015770616996535,-1.3919162087326147,-3.4866096170316365,-2.2509173643679143,-2.575798221674386,-2.6938007255757204,-1.0619992424149534,-3.1087329398277705,-2.845733416627571,-2.383615746424148,-4.1533996383218
77,3.5144774406052934,1.6356543207450371,1.9165634505247902,1.8378986392924677,0.16016702058772841,0.2514456999755929,1.5312544703772715,0.8880585580900049,0.11503707810541805,-2.3277983432994676,2.792617424437386,2.4015587276269934,1.6820549054856573,1.635867949366238
78,3.3836075358659583,3.051428285456934,0.4672275627891371,0.49667665340459755,1.8867449175230921,4.20866698909611,2.815373661223101,2.0427713223016113,2.594086462351574,2.165187436466405,2.81216134445197,2.3757650345231385,1.8630869968978827,3.5577826056259934
79,-4.352795556741072,-2.034386654659124,-2.1477049654227396,-2.2665894177031936,-0.7370828658944638,-0.6949524140606952,-1.8770850112694557,-1.4001204962989073,-1.3129378721553762,1.2513277731901278,-2.8063284373408472,-3.205404394121771,-3.019467973438266,-2.893166626592605
80,-2.1724558356765122,-2.2521881197129634,-0.5506354219340345,0.13000493962842438,-2.099245706473291,-4.748564099173303,-3.1868773844693874,-1.4286104623648683,-2.20151593276275,-3.0143667120980036,-2.4032183986590043,-1.4724422525397238,-0.6302885120750672,-2.3780958572970747
81,4.627346805390626,1.8938861602092867,2.505558467683393,2.307063259642369,1.4664844090605513,1.5812211684299196,2.508740536538371,1.624550019775379,2.3378282996058837,0.26350919684074453,2.876905260227122,3.6864676831358425,3.9309708686021514,3.7165163727269572
82,0.9550077551154155,1.6567742620030088,0.5412134069239884,-0.6430288413647343,1.9299093602776873,4.786477151527535,3.1533434672749325,0.8889711702155793,1.6367665050086286,3.41355489701822,1.8528388135938578,0.30605680838706745,-1.0693913663045032,0.8588941659585251
83,-4.473201089671732,-1.4373403764859782,-2.9766830143248946,-2.1078709101958886,-2.1784577426531784,-2.6901317329129433,-3.231857392752637,-1.6587675713333812,-3.196615552658332,-2.1277725575934214,-2.94189981602442,-3.7501237675293297,-4.165018782787774,-3.904174955853936
84,0.14856387814457173,-1.4791424758201088,-0.3012549333137308,0.9490279084862048,-1.3665749754218373,-4.1218198654774545,-2.60183519846704,-0.5086361645924095,-0.9489268343595031,-3.1284972519445313,-1.1859514252341388,0.9227200532617279,2.8463694864734617,0.6300840363845307
85,4.02635142963415,1.0075939645478935,3.4200348649919103,1.8493758196386159,2.680623003745926,3.6444761481492933,3.7578120483896393,1.6394939553174337,3.8804447231763004,4.066928133668762,2.941908572373759,3.3868640904290896,3.677298504342317,3.472063039302214
86,-1.136623522156462,1.6705580079546296,-0.2263557104580028,-1.0953532464594073,0.5108223402748675,2.789253113726489,1.5923496400179808,0.27692617308472417,0.14208123238155784,2.0181667645065784,0.4723054657523435,-2.0206283959611344,-4.290476525481374,-1.7318079997698423
87,-3.3224132093507355,-0.8682879619317541,-3.6146486209882043,-1.636396932303449,-2.8217068667436473,-4.048961224975334,-3.798003290230811,-1.6850621002811004,-4.316084113941579,-5.641931807561244,-2.8567280851654355,-2.6560508083627066,-2.644147050130565,-2.6467285696478573
88,1.9980194036212442,-2.0013974671317607,0.9416971940374568,1.1860741540429853,0.4347498128946254,-1.0883845708874356,-0.38406754785988134,-0.09802651631383097,0.7526784693389751,-0.1762575358877224,0.2078320921295985,2.821632827678942,5.102612738856059,2.236128763621733
89,2.323513494721866,1.0879990056925466,3.376267817834182,1.4706936686011467,2.5578381276772615,3.662371757143918,3.199232346824756,1.8444209685810118,4.389771791575311,6.3914596795783005,2.7171147236928475,1.6781328480869369,1.3996656111066916,1.771256841692632
90,-2.616943345688841,2.215569240776012,-1.5975368941731392,-1.287630736811856,-1.2298879513484164,-0.5057100584058879,-0.6343919403971843,-0.1662617796533585,-1.6218677580687624,-2.0150767038152164,-0.8038412155036707,-3.2082229893040983,-5.187541999940946,-2.1531726569638288
91,-1.041015749966913,-1.5510728083851475,-2.679037800267728,-1.3050614974301173,-1.9828478107108696,-2.5197170850351376,-2.0500750054281207,-2.070495945128688,-4.026504775743224,-6.036946605418719,-2.588356561913718,-0.6286435768407945,-0.31905852400221174,-1.165020292322159
92,2.7971711445019816,-2.155541075577258,1.9053181644077541,1.393964009265027,1.6898290109226068,1.522665796420091,1.1051821233478516,0.6342797302484073,2.2770435942408964,3.977494723381328,1.3208297749094338,3.1438520390675224,4.6750343882011585,1.6937715792814196
93,-0.3551059480236962,2.0544425421730925,1.705412615330599,1.1215309849546025,1.2950533759432314,0.937314311473994,0.6797580197122641,2.2291073514585373,3.27033341972087,4.639984190543328,2.5348699160940837,-0.2871325809615764,-0.30960304762433444,0.9994991463865696
94,-2.3960635363117957,1.800658632334199,-1.686952928601627,-1.4684926815318409,-1.7602713572322992,-1.6860921037477914,-0.8758392929704538,-1.3431583802452087,-2.5274373308679206,-5.149089417570616,-1.820149930055305,-2.702017499303377,-3.862862931369383,-1.165578871444938
95,1.5419961442700307,-2.4120999936282272,-0.7827449349022295,-0.9631306651851798,-0.7096761157956925,0.6083530793698905,0.4731772197191511,-2.144679011024036,-2.3104423945568993,-2.6154314309043114,-2.5817088378396287,0.8891621659482882,0.3792428324693183,-1.2473615856964135
96,1.4697897448091661,-1.2296721160154955,0.9870228435783595,1.5173025374282014,1.5289769128620374,1.0207883120473977,0.08539243588414255,2.2111390770568162,2.2784147005427133,5.215593937489672,2.3944226552182992,2.063105274350191,3.103049870641111,0.8349028132913648
97,-2.181678292537506,2.51113019221161,0.22987310233721742,0.8904545506975892,0.36379731311949814,-1.6712601953269237,-1.0615662473614391,1.672243335655815,1.4296274487060927,0.5797940186359445,2.6882501132548042,-1.089961642475563,0.010432795408497206,1.7275497363512542
98,-0.3152528379641296,0.5585836377658097,-0.07476625427808656,-1.6219691035346522,-1.1656862472770746,0.17088005767760717,0.8956863330340245,-3.0431473019785593,-1.6004075067651957,-4.241071363795309,-3.1255917324119458,-1.4616782262981285,-2.673239843250026,-0.8242489984594864
99,2.109316464822832,-2.31302380772744,-0.19279550751700472,-0.898748923493987,-0.2691672434437838,2.0051808999089467,0.9901769226295566,-0.7725890109629049,-0.8943396890251925,0.8945254134467148,-2.7444473552648603,0.9362150252689281,-0.6045138256406538,-2.2176232630067982
100,-0.6386589703633914,0.10131538710484012,-0.6763259170815037,1.8918409694260585,0.828768924306274,-1.444352757110521,-1.6420893623228998,3.588093035900753,0.7274808462749303,2.6323240045462883,4.0381656162476975,1.0985691822593997,2.6816582416714665,1.0964980397383257
101,-1.4487539431153897,1.8293997827619404,0.5612145466097233,0.8690714964581151,0.3369721930708286,-1.637864923521684,-0.44882148944813915,-0.4422801544285142,0.8360983151647091,-1.5001309654304449,2.5949388176034405,-0.592880770486998,1.1014358313893704,2.5656503822161847
102,1.0368801035913573,-0.6534825199711507,0.9741541263235199,-2.3612049137596594,-0.5976049886492338,2.389506004029008,1.869921750652972,-3.6349267074404388,0.022286607997886714,-0.9590260411837539,-5.061779321336146,-1.0602529788979904,-3.0425751893948334,-1.5236944148373555
103,0.574081204363213,-1.103774622566258,-1.0181529433183152,-0.608227365963449,-0.4496476541919707,0.829709364526851,-0.1937981382075477,1.7234586003245635,-1.1812353467254164,1.291210695182288,-2.0908978809264522,0.2699015463051974,-1.2738167067844395,-2.737001556640329
104,-0.7818612889739754,1.010738343264318,-0.7610769012242516,2.9071534649274415,0.4670919745543451,-2.770055296397648,-1.5511117530037835,3.1088658165027696,-0.37706294005980046,-0.28104978970342415,6.01991103293603,1.2899200779485898,3.5307989583302994,1.9854158684712513
105,0.06948079922561663,0.21094373814086442,1.2034686584284764,-0.0313011902373936,0.5257947935249174,0.04871071963199878,0.5710350540395964,-2.7661989056665384,1.6689664127768369,-0.6233302237161903,1.1599323744804029,-0.1277140819632718,1.0502766012731717,2.778884895836709
106,0.08663594221219714,-1.097009527727276,0.24871376362899864,-3.2605551182406503,-0.39300519640060944,2.5782348481105717,0.8981197978964294,-2.117452817093718,0.23794181093512873,0.8476091245445854,-6.6611934588823845,-1.6267861258539518,-3.8888260578549843,-2.4285269941027083
107,-0.18773576870319297,0.73545288654625,-0.907608051025786,1.023059907451452,-0.5372257809756498,-0.659482593313314,-0.4783972385618106,3.3274880621299525,-1.9615287806865604,-0.02437654878031928,0.1299476669142938,0.21183072559610527,-0.5246351597346457,-2.7435706116291954
108,0.6353911700070044,0.8663951335305544,0.19042270167471284,3.125362682597047,0.3422852688702466,-2.0012007691144578,-0.2426755919245182,0.914961964839768,0.26124141068835877,-0.8226465956836588,6.738639294621693,1.8909251077578286,3.936158051850537,2.857294356893751
109,-0.21871901027256876,-1.5847920804959341,0.1908537824469678,-2.1187833825075257,0.4798070202560081,0.8065479074053091,-0.058494544869496665,-3.3221093228625764,1.804716184454598,0.2619791824832201,-1.5470588958634535,-0.44853556037217723,-0.1055395633468405,2.634904513092921
110,-0.9849234862149316,-0.3328176202777958,-0.2213367788518565,-2.34837150871393,-0.3066450193576659,1.3276693823665364,-0.12089094588194531,0.20144735081185774,-0.8042937523418503,0.5374163265091426,-6.118089052723754,-1.966963552184252,-3.631527776238805,-3.2791597435792137
111,0.8651254390915943,2.1733511559901686,0.6400652558435318,2.928025058169892,-0.33666095184497286,-0.48164407770021717,0.8239727361956259,2.8454356000650893,-1.1617026860732196,0.05260322296546284,2.74295351790087,0.6970075489425795,0.6347429567557129,-2.414905416300626
112,0.781471914908707,-0.4073680979682507,-0.2701364496682208,1.040867322763955,0.27492906245180065,-0.8352204094570524,0.05385876508518225,-1.0088248498367012,1.0441323374895315,-0.3989009101020681,4.870494589580038,1.845752984423494,3.066021276671415,3.6607280692686994
113,-1.3401634856289517,-2.3707093122962246,-1.1898653492699975,-3.0970130258039714,0.07445601610874805,-0.15763014409504872,-1.525763751738325,-2.113370061278256,0.24250297383625555,-0.7734001894042833,-3.371425829517279,-0.8242010847536113,-0.9307706368102631,2.0543260044222653
114,-0.1516887640699902,1.1791512699728415,1.109206932037274,0.4276174250541854,-0.1978443447651389,0.6964228296037156,0.39050137277461555,1.4270774641633739,-0.7829681422914399,0.6937141173397184,-3.292490679517462,-1.611093741335379,-2.4020619256813074,-3.9307387059694507
115,1.3273824604382178,2.135019290832259,1.1848789529992276,2.495734448918003,0.3191322608194239,0.8628716920406728,1.9238621695881313,1.3595087830797206,0.6003085369258475,1.5602912943126546,3.2398766907719128,0.7642335923101665,0.9679353248142706,-1.5783088820544051
116,-0.5435518786909719,-1.7709796268143223,-1.9182134845395329,-1.575063496640613,-0.01318150740247136,-0.9327074706540521,-1.0149901035608855,-1.5116370867672866,0.07808424988098919,-1.46058372615801,1.8213959064335603,1.3875357539466735,1.7968709393008344,4.023103291441925
117,-0.7752160944447705,-1.5512040746105373,-0.6230226701269831,-1.309652755028761,-0.7883907812972936,-1.393438384589923,-1.9212580822012133,-0.7497779045741232,-1.0596770436344782,-2.0610008970012905,-2.4199270673851374,-0.5396944628075157,-0.809421987624028,1.0694023800768662
118,0.9048063870604268,2.0103854771402716,2.312623619297524,2.02559413879377,0.43954092139176154,1.4292537245303936,1.5811419186437081,1.3914328094260155,0.7958286340560977,2.4946039612841906,-0.8622308338271213,-1.2785628845489954,-1.3468115435848524,-3.922229270011009
119,-0.07389581266517081,0.8229050292014202,-0.21793544705879966,-0.02154474109693607,1.198148948983166,1.6003861281170193,1.5840220432991283,0.3523767102307308,1.0358106685614323,2.0859685851672225,1.2453951516829476,0.24261260304725957,0.5598198776155768,-0.6293351358734787
120,-0.7096999554463996,-1.8453664685050342,-2.1033424209662117,-1.690539152131048,-1.0891910096636686,-2.000937511806666,-1.9188592723978197,-1.2002960762090595,-1.5097237450488357,-3.478841846249911,0.6017826727831193,1.3212843969758803,1.0687110643961346,3.6765501732773442
121,0.812072438724695,-0.20399039241028713,0.9197407236883084,0.9957358422869254,-1.3791558206215473,-1.462538312814246,-1.0872702380516421,-0.15761665256957752,-0.6698893568394073,-1.679155532364912,-0.17392735266973647,0.012788927804752534,-0.3138535371927844,0.3317839905984587
122,0.033625281806468774,1.3871219647195563,1.3981904013965503,0.8169176084440349,1.8587051938832333,2.4758237906544993,1.9936555171617272,1.0383163748047326,1.8664579858897095,4.163204220589112,-0.9119353046493129,-1.4736665729797649,-0.9149576844221309,-3.3754011811042655
123,-1.084346622772117,-0.11115798239796316,-1.137584305962303,-1.2779827524505243,1.209509102073421,1.0639282159910857,0.6151409773960327,0.11405355646538681,0.22954003575898985,1.048568797748105,-0.4332392482915026,-0.14518057595915473,0.11941838367303939,-0.1978716646928507
124,0.790407161976938,-0.8768505267006063,-0.5486372005936676,0.12527771694669432,-2.555165169402659,-2.7543341656452225,-1.8997840082973008,-0.965759702877784,-1.8893257828515917,-4.47837796589256,1.4131517973338739,1.6391933804427545,0.8113675814587107,3.1117063553466693
125,0.7779144916637095,0.08507189181435569,0.7755416907019709,0.8532929194436049,-0.6846557309604655,-0.5331282477317301,-0.2669936867751981,-0.15257206722451394,0.07276669372658286,-0.4119747147767346,0.49591825746154317,0.1443782334694922,0.03444404410246076,0.20091393429945945
126,-1.3514029156317262,0.5768375406123342,-0.030373405968570657,-0.6636761024581558,2.9707218280175804,2.8190896189928085,1.784187774625297,1.0081478303616314,1.7589112305222079,4.517152850453491,-1.6824893550056639,-1.719560134555363,-0.703950578276193,-2.9561846196420984
127,-0.07762257053809386,0.13860273875498488,-0.030779664480165864,-0.02571921070718386,-0.06506912128088597,-0.01562192589705507,0.02213304830653849,0.19616773712883945,-0.2007557391631934,-0.12969681156591634,-0.24805576521434414,-0.07158251588892614,-0.19836779050365236,-0.2831344955346126
