,AF3,F7,F3,FC5,T7,P7,O1,O2,P8,T8,FC6,F4,F8,AF4
0,0.03720239475828342,0.016420808924317506,0.07926575253004775,0.049661607041632,0.012727678744408838,0.010341063554730773,0.06634595094403703,-0.018716165635837657,0.007259950855418089,0.001515618895399324,0.19119387134412405,0.005240017963614912,0.033989010887600646,0.07762600108629929
1,-0.4944860814154051,1.4522997892834686,-1.9901393454769605,-0.6809717115868482,1.710928080378506,0.06818681314722513,1.8208852214978777,0.3366675737882568,-0.6002437082779315,-0.9497749586724388,1.4307381638243424,-1.7820746572457313,2.7449758928756047,0.6530922550666765
2,-1.3558454164430593,-1.155701759812151,-0.12963754786927542,-0.09040421325803052,-0.19199636698580266,0.07398113267341384,-1.2203656585354286,-0.22854851256255518,0.1803472697837826,0.2654924113658675,-1.7948557032945847,-0.2721635292916573,0.22929566139590737,-0.7119893370708809
3,0.8470758630233638,-1.4049793267482154,1.816263979941475,0.25119304455188896,-1.8346990996390398,-0.26751804970006027,-1.2715212045077855,-0.24136348559452628,0.499454007862029,0.6616616739170093,-0.6804446008976502,1.667613906579859,-2.685092807342685,-0.48505343791438316
4,2.4804041922528164,2.326579484462701,0.24224444257151273,0.425840028383292,0.4981360101968689,0.030496153395030798,2.049926892187408,0.42002294152376607,-0.26864039200202733,-0.3941570323479736,2.9814691532226885,0.6814192082670106,-0.549883150245991,1.19787517465906
5,-1.4724451169117894,1.2620724597661979,-1.4858816903686667,0.37049506988641795,1.9838318196606664,0.5029768534494176,0.3785830791781318,0.0878972944492293,-0.38327267776417245,-0.16411341575089122,-0.5561496324323221,-1.5896689276245612,2.6529485340888694,0.26094777144242925
6,-3.2630372874688054,-3.5420598121037097,-0.4977537272089006,-1.175232212888402,-0.9870942417801081,-0.398793274461569,-2.3790485309828013,-0.5194433055851234,0.22652817887716942,0.28477707191837454,-3.512429961326194,-1.2562145938818199,0.912758900383876,-1.4897842030491495
7,2.2446292740781315,-0.8905236798057,1.111352106388505,-0.8318152183413267,-2.008699009859189,-0.5531864114158225,0.5845918205596289,0.06178212992192761,0.35987169108998,-0.39926444953379076,1.9579390429900279,1.7781483028588738,-2.690689077062055,-0.10761691933166091
8,3.6398368095412987,4.7360346923889525,0.9382566966786452,2.211047584738654,1.6174268839282218,0.9464760586611413,2.2149957427187603,0.5316418540388012,-0.10451013993604347,0.10108165182538582,3.339038924622711,1.8510421659518088,-1.2373719325541364,1.6632938815759686
9,-3.0180698056520825,0.1491878265944087,-0.8554773982838823,0.8601295116237848,1.7811380794875278,0.24505717090066856,-1.3807856195715948,-0.15175459689867193,-0.500179321519901,0.8538453190193315,-3.2039271932717863,-2.3806297128721123,2.788091780693377,0.08917406447426053
10,-3.649848773231867,-5.746998257998385,-1.5313300562981584,-3.226590630430635,-2.265744472316769,-1.4620700259002668,-1.7106911452984206,-0.49656433261946464,0.010934195883242584,-0.7195920137853293,-2.5967706614828283,-2.2151446793052676,1.408084403313899,-1.8756138901803618
11,3.6868244879105454,1.042143195026425,0.8938613025173974,-0.3921799703170443,-1.2497213422989983,0.4592733378650519,1.9004342702887373,0.15531660664681218,0.7944950713642246,-1.034554689683806,4.0838901417109925,3.3752364226428133,-2.8428654810477854,-0.13731802213050573
12,3.4075468893953667,6.338670146888912,2.1428795645422456,3.8921698807710032,2.777037040073811,1.6976256236638727,1.062114110797067,0.4680118308636331,-0.05802289578897112,1.4380876274064298,1.5234816759394052,2.1126310571189433,-1.3506477560004313,2.261900051213792
13,-4.232202239162615,-2.6350436374783714,-1.3483895724156947,-0.41611668176210265,0.4587517494405304,-1.439037209013479,-2.1738287201802238,-0.08197750950968472,-1.1508494743475595,0.8367140036013313,-4.555195784978111,-4.577596224158286,2.675732491027075,0.055158343337935775
14,-3.0306409889186066,-6.26500280122621,-2.5472128698529333,-4.005984749017695,-3.0244411419979493,-1.4729755055770235,-0.40478380341012093,-0.4896249337649994,0.3057350924662265,-2.05782330474811,-0.3366385060476851,-1.4266880197774716,1.1142536528055682,-2.8199787230579543
15,4.721882166175809,4.41690796133238,2.214733298924078,1.2886901445088388,0.4758778692771234,2.4608876252156024,2.3088355952444406,-0.03227860410431105,1.4351154107298525,-0.258985182783898,4.712793365288967,5.724018453221676,-2.113047187510012,0.39039452558563364
16,2.558047946308464,5.366835278892926,2.4884155599480544,3.5598925751720385,2.9464739800165676,0.7465433315562388,-0.23509522949665682,0.5799905256173594,-0.7321354207303168,2.367045943182076,-0.8685551867550426,0.1942432757661943,-0.902551557986901,3.352615915889504
17,-5.244855814096115,-6.035795469959133,-3.3214736208284097,-1.9655020034873394,-1.4149915252121645,-3.2684904767163236,-2.3985110253062745,0.1430672324660587,-1.5308207257316397,-0.5826471438231997,-4.681340351586319,-6.5706826642483325,1.1065099343115954,-1.3225509081281388
18,-1.9128516642818243,-3.6652521563315412,-1.7784039896291604,-2.7008683882606475,-2.544965947280602,0.3746803735682604,0.9167642520053652,-0.7311268908373484,1.2445118134232256,-2.2069078920786454,2.1388321327225506,1.4314412504042882,1.0142624833801837,-3.5168208223881385
19,5.810325947742001,7.093329972298833,4.351052503991908,2.2949876347259086,2.2344013153155227,3.672996649265843,2.4520499174664434,-0.2135467244154651,1.3875132375601584,1.4793759012653223,4.4879027808061425,6.952347341177403,0.1760868608279179,2.6305879891068447
20,0.948671585686091,1.4061458776494067,0.39297430544650974,1.633263426566546,1.8569770526246945,-1.6830979124233694,-1.7100225673892733,0.9163189532811811,-1.7240891344983604,1.5244103102408277,-3.5780877763986068,-3.2482937941261825,-1.7026824329922345,2.9761593723500037
21,-6.274807907889963,-7.280940601632719,-4.926703106055874,-2.2438153799669527,-2.830063540032107,-3.6059308590802006,-2.3843790239794247,0.22262882179261534,-1.0336288737705732,-2.183897245121327,-3.9984340731730827,-6.784899073457583,-1.3550346967011972,-3.9476788266017775
22,0.43297608181142205,0.9783216147153903,1.4778968698729298,-0.5333102498627547,-0.9351578812705645,2.947969719126437,2.614128117172005,-1.100166874444723,2.079308515746717,-0.3937820248280417,5.200633006176153,5.05370787472464,3.0178275209850294,-1.588645684372122
23,6.357623129976442,6.505811660481795,4.739274563344537,1.844797753653682,3.0996942384389254,3.117709705313667,2.068404541174515,-0.1665422619701677,0.5486553418552429,2.473651517686423,2.9737904438073146,6.038492993969855,1.9588359799904669,4.76488369264474
24,-2.159458940985549,-2.992174925530753,-3.4540820821758564,-0.4766349339504245,-0.13803974362359986,-3.9842331714679147,-3.516310543313146,1.2465360355896935,-2.2771914756522196,-0.9962823049679171,-6.815341572868694,-6.653036442102207,-4.718195097986691,-0.47115954019505957
25,-5.756005636084685,-4.945725510341111,-3.6678518679771486,-1.1400002096985309,-2.9377366168803913,-2.3333400262872117,-1.4226852651889241,0.05783245062876058,-0.012150706170108497,-2.2036007707448007,-1.228336372233216,-4.721435297126656,-1.6154661631147034,-4.639291137699527
26,3.938068750612162,4.23987729232012,5.064851549283551,1.298578565981261,1.213261379088548,4.68441181579522,4.216450978319607,-1.3248216717180694,2.334252352235071,2.3798815840313243,8.028355056706342,7.845582602438692,6.310352393779431,2.7322036954164672
27,4.307597453369046,2.9971503442163905,1.8453860708490943,0.16733947226728169,2.274659473098348,1.3970577595872395,0.4872527707865315,0.076294888887485,-0.5372722511235222,1.340446183170502,-1.1984083985377982,2.895448028657523,0.22576068073022776,3.3939478255174484
28,-5.324257601622776,-4.561268629826896,-5.894769797208012,-1.8198732193938023,-2.0591167633472085,-5.009966266248552,-4.511029890470176,1.3167148503138533,-2.274264102723784,-3.465045193933595,-8.385031031679453,-8.423139457415918,-7.208876102891868,-4.589268771587332
29,-2.113234850792896,-1.1311676579345074,0.3634458282181692,1.003941985350689,-1.1508660325695577,-0.4374624877570877,0.5583554674876252,-0.1983480985325758,1.1039587899526715,0.021626546129466448,3.9670820858546616,-0.710413045332094,1.9640094589406216,-1.2058021137513903
30,5.883465246475973,4.072180277136428,5.722877011377666,1.9132814979626787,2.4116068638049772,4.963472343997953,4.295298180607178,-1.2229978353817281,2.0849300996014124,3.9936337001225115,7.583262610372056,8.20448842121268,6.947610813764131,5.526867031692601
31,-0.4498379674791287,-0.27866512713884123,-2.4721714069171425,-2.227253525597552,-0.22821898584170777,-0.43646128901712156,-1.4538254334963039,0.27043329586132825,-1.6957047019980325,-1.6663465841432121,-6.520446579242347,-1.5742913181963598,-4.423020184722329,-1.4597073921980435
32,-5.3696507354958705,-3.0896389052476785,-4.597022221526488,-1.4897712809048504,-2.085789845252805,-4.5708044386631865,-3.626760418780887,1.0660057105538028,-1.7095318159972615,-3.8050497034499493,-5.6394128656812885,-7.100637373456398,-5.351614833621568,-5.292572752608686
33,2.836640193118712,1.0743220224372168,4.03046054735024,3.2730853981767964,1.5153867670699486,1.124619774308218,1.9697124881646217,-0.2682408251520815,2.2728994610948403,3.290994988876179,8.290153641529407,3.6120031000186894,6.501058613912027,4.022860690499125
34,3.835515774019999,1.9806634139715458,2.808831057229466,0.5720817161047039,1.0915028983814454,3.8862723965365316,2.708593873821111,-0.883158906079775,1.085328043479745,2.8889323449672357,2.9100593328457003,5.180535641371832,2.6043168228104103,3.9458582145503827
35,-4.516090398173713,-1.3229782224255844,-4.763998993220635,-3.887969519769665,-2.338183006526474,-1.5366416976612227,-2.0130155254367756,0.19236654041760848,-2.7285040988886684,-4.576668049183739,-8.921151914203014,-5.042588022744279,-7.629280791420498,-5.975877833629218
36,-1.6271909997982068,-1.0146154306089843,-0.7811075568534748,0.6656754218720358,0.32545226678647315,-3.0069649543741175,-1.7944491332389931,0.7119734633691396,-0.20392190289309628,-1.4021752107713537,0.04558287869288949,-2.6994059212157935,0.8052228689300482,-1.7867851605364842
37,5.1466808922340785,1.224521650943653,4.637521994342866,3.8953230416392803,2.458044086446206,1.6152846822003504,1.6642676207385363,-0.06928255652330154,2.91931859828764,5.277919371502237,8.394854117135479,5.598036385904001,7.484905865070302,6.9974705005377915
38,-0.7276282046423879,0.29386191804902084,-1.0774735429734612,-1.930695377322471,-1.7587142566266236,2.069888515926178,1.063823102730493,-0.573504151995125,-0.8501386324766421,-0.3688616821150352,-2.687294779423225,0.06370838053394305,-4.22499223888055,-0.7689604494533787
39,-4.679300812051846,-0.9799706223797144,-3.8231188057991914,-3.282272998699759,-1.883816243595379,-1.3670467900494474,-1.1192205709471856,-0.060386580049645894,-2.7299083776678654,-5.296408768027642,-6.991185997775872,-5.199801019277733,-6.072683717264233,-6.97356686764323
40,2.687600125053783,0.21300088952642657,2.484600163983334,2.9106478473659605,2.8047618345715186,-1.2194401561903707,-0.5404383403650316,0.46366531546689593,1.9105018788212218,2.095779435828652,4.680199995561508,2.268033852817686,7.0209271957526145,3.295588134924353
41,3.358504086250082,0.7010128267068768,2.6047488104329193,2.2197367532156393,0.8714094616843477,0.8719720575702388,0.5651271684914868,0.1606660904845866,2.127359341394174,4.70206506308988,5.122366785652273,4.0037912489712015,3.7080608891041598,5.962088627991643
42,-3.8600985905478,-0.5754277686872534,-3.325582806841647,-3.3917046694276354,-3.2299333098526573,0.5607230572621681,0.10626892225660257,-0.3578255036684977,-2.7807650152756977,-3.511319338738388,-5.953865964100736,-3.920236182485094,-8.743518674919748,-5.413477993935607
43,-1.632372725814805,-0.4064903537844922,-1.2742311429229225,-0.9999598442019011,0.19396238473716693,-0.2580052520866955,-0.06564606735485452,-0.21572060001748897,-1.1768298610482206,-3.6887154351790734,-3.1407231993175264,-2.3642170071190356,-0.9132983974942086,-4.155766998873056
44,4.109024516104091,0.8179837792137802,3.629935728741211,3.3351851041381595,3.053084937085357,-0.12994074495703445,0.39215322816117854,0.2260202662626691,3.292016997629904,4.481923739354969,6.621925109246594,4.7208353954499245,9.236132099299894,6.8178178722167875
45,0.005698678918780984,0.08888768409661915,0.06138466498583091,-0.07821876068221699,-0.9698869870303729,-0.3469932936461938,-0.4711477664453094,0.2335595622461083,0.021100950725327694,2.485342802324499,1.2280356837847801,0.7191073295955754,-1.74232783719077,1.8654275342127808
46,-3.5803067244398696,-0.9076038551134297,-3.517834165506849,-2.8756927145578524,-2.505055534411843,-0.09825104172214229,-1.008542330621943,-0.049518489061254,-3.3384306303787543,-5.017428796542531,-6.831469792377999,-4.7538354916117385,-8.654063081559505,-7.318376724103333
47,1.1181375760284393,0.21343047656600955,0.8920330371896491,0.8193266608601669,1.2927590540072462,0.8546263628732496,1.2153562232751691,-0.2370372046463414,1.1507002399270159,-1.2671823196404688,0.5852934339202995,0.5626254793031732,3.8109221921512835,0.499685154061304
48,2.6392938560808656,0.8114344495315883,3.148576456247874,2.24636709860563,1.8953350800377342,0.17500284483240186,1.6205670624484803,-0.17108246556914408,2.892110881329778,5.218624948691388,6.644968677030903,4.312719537933839,7.385440570126055,6.901643130141658
49,-1.5594712939951796,-0.4012600586160296,-1.5300107550153648,-1.1858338305740417,-1.2129186118289899,-1.2230569377486116,-2.2716319842014845,0.2494426303658974,-2.1284957675120455,0.10893414980226898,-2.3068083092276193,-1.3081087618768084,-5.087580631206493,-2.4964087250332243
50,-1.7375855118819779,-0.571496683408453,-2.682370790497729,-1.672968325927322,-1.4634698048681305,-0.14261880100690613,-1.9687475531545107,0.4198529691988651,-2.0164477383603963,-5.194969420565273,-6.025414204172059,-3.7675768027114813,-5.897820753807883,-5.780675595820857
51,1.4090994344667724,0.37253999752745953,1.8691209824433708,1.279232214986035,0.9242061157892785,1.4342587057629297,3.5590042550035244,-0.2850010391604597,2.7099734259726267,1.0018642326975062,3.864869644581985,1.5816754672138311,5.639862919275544,3.7714504140074263
52,1.2503835049619918,0.3298106381344407,2.2512473459074056,1.2886893938588497,1.2921647469840172,0.026839070900529914,1.7957526923681273,-0.6763541920720482,0.8833118017051546,4.996535961227288,4.922219648109414,3.4039937501046276,4.566566947810722,4.374679694467465
53,-0.9797277916566858,-0.11101293128019939,-1.9794999019220785,-1.2670754526514982,-0.6402568317323959,-1.467292979067792,-4.794840007599733,0.3498007139768726,-2.7533117768084336,-2.104414067552332,-5.07240320560464,-1.61831878509022,-5.731848484310437,-4.20387669249699
54,-1.3405127133251202,-0.27396503315135945,-1.9360453910517,-1.1040749505889615,-1.3154093380138563,0.14231634955205347,-1.0058860357633748,0.9231665017226551,0.23175044468699352,-4.592738405292357,-3.3891938481851325,-3.3109518430146783,-3.554386944081849,-3.184523631895944
55,0.6738462067552831,-0.2633030381888525,1.9567433715253368,1.297528372417158,0.4909904838488232,1.2953483297163222,5.601650565523,-0.4492927043092886,2.252562738273118,3.1917685618000564,5.697378250705406,1.6818449184352966,5.673690083981951,3.9852723430427437
56,1.9019173269846001,0.5314333476960523,1.7558085924151754,1.0350465382843625,1.398021338723476,-0.3044910941153172,-0.25133287715431535,-1.143614077928253,-1.0127497918170474,3.905995805908275,1.6470184088815591,3.3726642743314774,2.793897789345903,2.592957653749295
57,-0.8135160413085184,0.5275102804131891,-1.886854882606936,-1.4411282130193401,-0.4892927635965585,-0.913240310314368,-5.679425499838461,0.5921619298248071,-1.3938047645657048,-4.164140517287079,-5.5941142970488045,-1.9207906778162365,-5.663602131573411,-3.566807197324632
58,-2.6104230388026126,-1.0805023014273818,-1.678471271052908,-0.9652850005499625,-1.4277452468857557,0.3673966935040811,1.6242609169647937,1.3130622233828018,1.2288081457589586,-2.883967180984888,-0.04019285596006446,-3.365346007763437,-2.0806977641329185,-2.6801295625744816
59,1.4992717859463756,-0.4623957967078394,1.8174808862426328,1.6794820765621967,0.5691266986524469,0.37487610985959274,4.946423456464766,-0.7831025027818679,0.5313735346794091,4.835714072909411,4.809311278256333,2.2968824394947216,5.697332589554954,3.4665638332023887
60,3.068237722851112,1.739458661477937,1.6519946219409871,0.8089027761390702,1.3656228239236146,-0.2422374617221487,-2.702879861825566,-1.3951334911357647,-0.8685219036876904,1.5760082810912923,-1.092652013273602,3.1046343948788064,1.2315654728557155,3.1614399312428705
61,-2.5612779660219807,-0.029096082452759096,-1.751351191017773,-1.9359129980205456,-0.6548422296561165,0.1923472364070835,-3.573890497791175,1.007693014517177,-0.05637251490340054,-5.000449470949387,-3.5919636193189834,-2.6213264525606084,-5.591662240936635,-4.014069541899805
62,-2.9851057896462243,-2.2474552340341596,-1.6407668306076164,-0.5462541397050981,-1.2364430979565233,-0.09942920447457368,3.1805006077901052,1.352463955143306,0.19442892944496723,-0.17228786817042255,1.559643608260945,-2.5636410572684647,-0.22674971479416167,-3.5057381378193417
63,3.6308374174064784,0.8632567324491616,1.6668415734822284,2.125820841696704,0.7112935824019634,-0.6182536710360296,1.9075718495584486,-1.2225982892297105,0.20218326644817566,4.534585666274342,2.297371922873106,2.6763004801769013,5.112603835512808,5.1608818580475235
64,2.314933204913642,2.3923529320334507,1.6455542417985574,0.2228234181790993,1.0820534357160165,0.5825833162509916,-2.9509316961807217,-1.169947344965346,0.345890166172219,-1.0263116925100553,-1.3850848012861792,1.89857995690572,-0.7414244978652258,3.197911523494543
65,-4.305213292420191,-1.8123757956211772,-1.553143927816876,-2.200578367174158,-0.7472489153757678,0.7607760612974941,-0.332839250353048,1.3642731532340941,-0.8932204287369236,-3.4888417287681897,-1.2427708651136082,-2.3545655782569317,-4.142542718612967,-6.469577456735039
66,-1.28100833999582,-2.1116945385571384,-1.6934737920643064,0.08108632847138889,-0.9199403906093045,-1.0329504485824914,2.1100992009436563,0.8754440939744702,-0.33397365405948565,1.7097325431089085,0.7723557393747607,-1.3684174450758688,1.3456683762830695,-2.0225052345251444
67,4.330068286247853,2.6137473295246476,1.435803609246568,2.166862044487839,0.7816131072253473,-0.5851368946628462,-0.842318356559259,-1.3771531393779286,1.7421201477099115,2.117100836566512,0.5989704472756283,1.7408414778094432,2.795258486386019,7.309009399942445
68,0.27498847437345386,1.5114566148733906,1.8037221749066932,-0.29135027014921194,0.7379204373203089,1.2401164828914268,-0.8909502750735515,-0.5399703487273781,-0.386254987466614,-1.6941176558600715,0.005644931616294219,1.190766607459056,-1.292034247723046,0.2168334342658034
69,-3.7109492444852235,-3.085730730356213,-1.3715810072357475,-2.077369805099101,-0.8074473952175997,0.2069592706206594,1.445965688067934,1.2461956932494258,-2.224856135807344,-0.8114891457458673,-0.36978904781796207,-1.0877473963128228,-1.4104723078816457,-7.171805720932432
70,0.3210190376397804,-0.7994898876120614,-1.9532903078183643,0.3723425939668755,-0.5239982165430116,-1.0594048921796415,-0.4156431783143193,0.25100252435321574,1.5937968270441052,1.0261357275113085,-0.7150737692790832,-1.4106324106010426,0.49336623581532085,1.602977881812904
71,2.700277824539835,3.1870856513741646,1.4109082579427303,2.001781401683676,0.7864848499377662,0.13506943907989363,-1.4512232731492336,-1.0114834752561133,1.9542456296673687,-0.04072237156223199,0.4466428335846163,0.6932770359773109,0.42061738535710325,5.952904324187662
72,-0.30001204377921614,0.181098106336549,2.071234402731257,-0.3381849944324455,0.3020606019878781,0.5050938183695247,1.5228502938047195,-0.07167361671427569,-2.776858334813676,0.0030553875708837757,1.2133086465362994,1.8552730444089067,0.8463501220341643,-2.7224847963461727
73,-1.6719108570450865,-2.997013881709758,-1.551020769707067,-1.9936060625118848,-0.6801171383651307,-0.1795531871315894,0.9658516500367681,0.7517756013260154,-0.9008610979990062,0.21908253157670066,-0.682090673297278,-0.7406798197784035,-0.15083095989200698,-4.035466321073214
74,-0.2972348874983997,0.21970022499497743,-2.0736545197509844,0.24096730849811232,-0.13951868988418503,0.21993698107274914,-2.198212717776624,0.010932958252673187,3.3875126913089773,-0.9540081129995012,-1.443527885327309,-2.207010340048362,-2.2897159264432174,2.6779520752753316
75,0.953418509014909,2.64404239128856,1.7149737665304938,2.0679860284023053,0.49231720628174597,-0.2232818950986634,-0.21504972616333523,-0.5443542016312397,-0.5711900534305728,0.2252537282951578,0.9344247565293,1.1871586627517443,0.653129059881404,2.1280875326751283
76,1.2293467226976003,-0.3761852323428747,1.9219636866250684,-0.14392814623938974,0.11517403303780288,-0.7896244643093012,2.3196095363365354,-0.024643310036740734,-3.1278261419587987,1.4113647177698068,1.4107417731591627,2.16292779239747,3.345965714653759,-1.4899571554882307
77,-0.7028611604122375,-2.237793335197285,-1.7793938237036035,-2.1993390660547303,-0.28919080364082234,1.0110366293755149,-0.49949592046984215,0.4255773371315632,1.8827137678796657,-0.976966800624382,-1.0793429290387104,-1.7678233933728438,-1.6644610800416102,-0.9341886750939071
78,-2.18228064163595,0.32245379285212783,-1.6650153417389828,0.09366837294325171,-0.26695449510685954,0.8976899179384739,-1.9301671689238074,0.04755806819161346,2.1055120480438347,-1.1579709693711324,-1.1731561181305574,-1.5979497507285714,-3.685773505087788,-0.34237116140353013
79,0.8836545505766059,1.843742880489684,1.6422544108984207,2.3385326297238462,0.17672867908373038,-1.9035588265815744,0.8850272750814985,-0.37703652535119114,-2.5346621540305465,1.5816123669384654,1.0193209848560185,2.1211577718268786,2.716710276016517,0.8285294850310535
80,2.9010266363242816,-0.10730279723636976,1.430060471504891,-0.10529221617210886,0.5551155054416115,-0.412595220227298,1.2537104790509108,-0.035559454834767974,-0.7709290593864659,0.2701864129320751,0.8460137404053956,0.6391254716191673,3.2801661066998586,2.077441086825231
81,-1.3303161241147925,-1.5006848183960768,-1.2915358797482397,-2.439778259966097,-0.2483501679999241,2.508245663455463,-0.7748699418219039,0.3453355070426779,2.3528348023908254,-1.6378902337670516,-0.715193095648952,-1.9719864996230732,-3.344143240378201,-1.7067439565397715
82,-3.2595622910965036,-0.22289379785449479,-1.3585216917328262,0.1675999311768047,-0.8658091357372951,-0.5360265009829418,-0.6315738107651592,-0.008608400041452958,-0.32487860161631404,0.9130299679397985,-0.5870740878829147,0.39468832354776545,-2.3932518658588107,-3.0650028988130664
83,1.8491290073104287,1.2461899670451535,0.8287061119464699,2.4815342703283347,0.5332444857943816,-2.492249579342407,0.2216019042284645,-0.2817682140344062,-1.5464329568150563,0.9719488958861842,0.2274321989824526,1.2703392336007708,3.279573231025032,3.0695129201273406
84,3.2521709581872122,0.608082633848301,1.5202348677658746,-0.2642165152068866,1.0536029984136555,1.5891018345757209,0.3835001311959859,0.041139507517116744,0.8084777952758924,-1.9367648078976223,0.5419276654443492,-1.155880988901332,1.4414302303927142,3.0057542366769803
85,-2.291283142300264,-1.1138936421013037,-0.4253427756851826,-2.4678480592689453,-0.9732617625953366,1.7396624257886435,0.49948850543602447,0.17677030249706918,0.5577441183031258,0.28599386136909805,0.2740060701596276,-0.20769413617811328,-2.542417477264831,-4.274493611307446
86,-2.939098499652726,-0.9561233577657142,-1.8584323220627355,0.39560635119952886,-1.0006664723564231,-2.298276425414505,-0.6522094082713666,-0.009510374315890918,-0.6404423364170556,2.4274075244298263,-0.7662552594778186,1.4404122506487547,-0.8043213880879452,-2.024849568181754
87,2.570144287925792,1.0977502037946179,0.2324831496728624,2.4080013486473293,1.4375501161216835,-0.4178220909590338,-1.0011502371709955,-0.06874821982911711,0.1967161777565921,-1.7577443614926347,-0.5617461912928512,-0.8953304280021244,1.3920997500716263,4.815350866429569
88,2.3973951556391007,1.1593018846670762,2.2035373392786646,-0.5833530452903699,0.6663763804954089,2.3114025300136904,1.317696462803194,-0.10868440142521384,0.07105623691707003,-2.251931649143342,1.1749793888626423,-1.2711085067127468,0.6863513842262956,0.5565728388306772
89,-2.6386564129323156,-1.1156560041972152,-0.2935805638476503,-2.288215108332867,-1.7662598333615847,-1.0788293187917097,0.9652799219347633,0.022296989483903604,-0.5349381494084015,2.980036793540834,0.45113193790685535,1.7596648169924758,-0.19706053994641248,-4.499723945640185
90,-1.7072093968331181,-1.1540324312260002,-2.3543417021956063,0.8474292277233365,-0.10971331536667127,-1.5203828525796454,-2.0379731893351574,0.2834864802010578,0.5592698793545375,1.5695832508272862,-1.561901772495375,0.8499867610436644,-1.0786761632042303,0.8751606008310113
91,2.465203861548489,1.0168607090517523,0.5129909602892797,2.059437501256683,1.8265500349164505,2.281841624374115,-0.30277008638628444,-0.08761777601946102,0.5496011926561918,-3.6014479899672414,0.1063842100781749,-2.275554341890524,-0.7002058654209913,3.4701604898649965
92,0.9669339422639209,0.9901721804906158,2.184569659726529,-1.167199008583511,-0.5219790388474442,0.10794274673931242,2.403848925741165,-0.44135239398032344,-1.0378727814714641,-0.7559346581396218,1.689114258221551,-0.4181458635253674,1.8034389375660846,-1.8697559686327416
93,-2.036107805378446,-0.6526356272708645,-0.7016900978477257,-1.659675003175492,-1.5636365561918142,-2.8312444379410353,-0.7929364539850848,0.26398827893770777,-0.4737982438670292,3.5278085484879855,-0.9937398296568508,2.518010322252093,1.0692802895736997,-2.0913365204064593
94,-0.3067377413123009,-0.8546849437696578,-1.7160328051326728,1.4551867928196462,1.0354311960728917,1.5240922681218811,-2.131473220347144,0.5030407982196572,1.3771385558114857,0.2344357339294047,-1.3984135606979924,0.11411956374644308,-2.588683036883646,2.274252590027752
95,1.3840135508933424,-0.016700463918902543,0.6782213977567322,1.066408961092905,1.0311066105679876,2.6098295888929,1.9269642564887566,-0.49043639454906707,0.478817467818889,-2.954698640512086,1.9810204677260037,-2.652774562409192,-0.8264931674827605,0.7743542411384747
96,-0.12702327706383673,1.0114252472486638,1.1163636193994408,-1.5732598095053854,-1.255038533598282,-2.9116342846950807,1.1972209739072228,-0.4310520567524897,-1.7406883214549471,-0.2887439941604104,0.6830962009312611,0.08509964332754533,3.137324499927239,-2.1894825080468667
97,-0.6165175606820865,0.8416720718378843,-0.37103990343145343,-0.3473797569864276,-0.38739043998431105,-1.77524040063234,-2.6769825506687663,0.6736782049218006,-0.548281031655404,2.2747252573054526,-2.8297401246284704,2.801085320425003,0.04276967228721202,0.18409466265287913
98,0.22062302417224375,-1.6671428456767865,-0.6198551591383862,1.3972512188349326,1.0896548463547457,3.702800589478842,0.1475303440048876,0.25772360392731314,2.267166236815018,0.9369356355830474,0.3159092833487418,-0.3132068429909862,-3.188502499248219,1.8776255794835934
99,-0.08584920630895887,-1.4935751449948536,-0.1335771137782082,-0.3321702618290899,-0.1474915927658269,0.6811612747343924,2.7752706760405177,-0.7409626144933296,0.5106145164378608,-1.9015109519814586,3.392272036746296,-2.9503615516786503,1.0619702535704794,-0.6914736675151796
100,0.04767884189342293,2.8257047090436584,0.41158446130787396,-0.90004794248143,-0.5786062843212766,-3.7785091232597363,-1.4833233249812836,-0.07267041971631617,-2.92807396004129,-1.9223545096830132,-1.3827599876949517,0.6952315044935177,2.585187826178428,-1.6221648180245154
101,0.5166224380681504,1.585481310505183,0.6250628297903864,0.7676257458903636,0.3672337222849998,0.2742690413136629,-2.2170242990442874,0.6866408740416203,-0.19453641426116566,2.088955986346862,-3.658338631349768,2.962450246228642,-2.1517435568908096,0.856148748779734
102,-0.5738889248556994,-4.2153695353677705,-0.5348144478868898,0.2001189337972568,-0.10583594893158563,3.2735903796440584,2.398368119664628,-0.028097147596924884,3.5241954556320176,2.823726259133206,2.327919953147429,-1.2385486322979256,-1.344335565562738,1.6005854443664687
103,-0.5212369725284011,-0.861364241632829,-0.8667917997091774,-0.8183209295895564,-0.16262565155455172,-0.8064237406947815,1.2524305077986577,-0.5805847569923855,-0.4145672595168737,-2.8251369255702863,3.7308529920917883,-2.667951734978716,2.8570160777469806,-0.9044137738709699
104,1.1473625365726197,5.348503334443892,0.8687219211069892,0.46675442585599075,0.7096028281548731,-2.4960579664720353,-2.6549487286273825,0.0029301211607828948,-3.8184862923155687,-3.23263336120851,-3.0670961747237575,1.800355498190346,-0.3050979161761063,-1.8181486623743566
105,0.06833368703560873,-0.6388981683244949,0.7079673609756789,0.4992198247758626,-0.42152164297493977,0.8434582778830493,-0.2719837902232598,0.5279117303789292,1.1337805128617937,3.843044868087851,-3.7480784966600096,1.9853044041685577,-2.9026591057616056,1.058208173710783
106,-1.5221347648165673,-5.7073992125380615,-1.1852594326191563,-0.8514511121035813,-0.9893582058613071,1.7843037254088512,2.276939518021084,0.10365224243896533,3.703344628768622,2.9185901418165754,3.6407953061676857,-2.1479589131971446,1.9611672884892337,2.1235805380861477
107,0.7245853544122155,2.532689493205359,-0.15276887500119612,-0.0005911376378617463,1.18620506149074,-0.5302140041075527,-0.36254667913419075,-0.6008417084799473,-1.683958242817045,-4.735096526655068,3.79354796338671,-0.9944398371268511,2.2330219740916855,-1.4257511481685714
108,1.5096598182254914,4.978548029964854,1.2526823815269175,0.820217144226205,0.8118683585975406,-1.3657012668221766,-1.5238676516441103,-0.18227414037960327,-3.2809461432460427,-1.9149135271837778,-4.167682357305708,2.0749958830564146,-3.1794200170942983,-2.29486993907054
109,-1.6276149499474517,-4.207792355510663,-0.6439399505863788,-0.3878337406497076,-1.8436161634334771,0.14215518313154007,0.4681423323115726,0.7843226550013163,1.8570545100959108,5.115530378183913,-3.839751870744798,-0.07446012153610476,-1.0617303415364672,1.9501812525331046
110,-1.0494509288861995,-3.2228236026879933,-0.9328440884196676,-0.4348366985107046,-0.2166343920473704,1.2757553985590897,0.7650825538276771,0.12499818219963858,2.804981212466191,0.5000429275686562,4.756858276428047,-1.5101282830525198,3.6510290784183494,2.1563673316612273
111,2.3809395065408134,5.05758171652402,1.4454026315862734,0.41511165985820553,2.126610143615138,0.04765245431272454,-0.1058636993702086,-0.9723345242999044,-1.633288715390098,-4.763949911522481,3.7548332844224612,0.929816850542148,-0.201165144326495,-2.4376466477279
112,0.2269198582582391,0.892626909945181,0.2294449002038106,-0.06598149132123109,-0.589643919610869,-1.3669713479148005,-0.31182281581333293,0.10152419082623675,-2.531243331138491,0.9077875312194588,-5.4224190034747455,0.5640030554445209,-3.3395949810864405,-1.6751392276323036
113,-2.785835304589378,-4.7363987580061515,-2.027953609249322,0.0037904588620957984,-1.8975134308507235,0.1115067988143277,-0.4676973521660434,1.0226072064676994,1.1767968108362212,3.7012907298162356,-3.3725924930012052,-1.340926890495565,1.12481793736151,2.6537623800307504
114,0.7650623982950835,1.3229759741283846,0.7258962948706089,0.3782983057731662,1.3090613078254858,1.3953900131578414,0.2860108191944071,-0.4220845028412427,2.5791445089661638,-1.8982222544617686,6.043083300590152,0.5065212781810712,2.495440019860004,0.9905504419544766
115,2.7669543155129444,3.318509078829601,2.258995847945275,-0.7423971703944996,1.2085984614273495,-0.5904947402270367,0.9382368462846011,-0.8409567786991617,-0.7256769722431201,-2.179335959056991,2.5977338151446485,1.236644604805404,-1.4494704022571907,-2.4463609663051358
116,-1.7011480937637349,-2.7639659311072102,-1.7344615513427262,-0.27798600895975006,-1.669358029948455,-1.140196020257284,-0.5885040866113126,0.6832147667056166,-2.8857457996681486,2.2069873631671437,-6.39441414244972,-1.4000608824251,-1.5312809027035403,-0.3577946159556671
117,-2.385141296662017,-1.285040014807151,-2.130417705372104,1.5226803162841565,-0.28643902771451746,1.2028799984434444,-1.0901767435675307,0.44553738504107976,0.4558215307313177,0.5929036045923555,-1.4981302316230163,-0.7359143017137587,1.190734195492041,1.8353276872717523
118,2.4050438780973,3.0625713193759077,2.608577105700422,-0.27859495429101777,1.5330385214900732,0.5029737235752672,0.9792899683394599,-0.7344243456771018,3.265450717548708,-1.7993912802609373,6.253662403460192,1.8935863412605511,0.8248683816814014,0.0263334574681053
119,1.7998958034872279,-0.660677083345819,1.7414312990967384,-2.0441753493265336,-0.5546217715445703,-1.6895011875111638,0.9000719951967432,0.029470624744080035,-0.4002872766742967,0.6536775402682471,0.32961335160900307,0.09586433996468353,-0.6010446787310312,-1.019073272694471
120,-2.807595007531257,-2.289110104982158,-3.2362649686744986,1.146977791685038,-0.9528750276737128,0.450839141961818,-1.2221293540210387,0.5148680894854967,-3.5252437861559627,0.8727252362072562,-5.538593513706316,-1.932071915332662,-0.5563362405112241,-0.11069296312203211
121,-1.1966464842536793,1.872997823069547,-1.241972488696366,2.1102741275479726,1.0343409446029557,1.8246346636306388,-0.5199596110670807,-0.3962490799402118,0.458941400190363,-1.2791960807146994,0.5424524774853653,0.4007738040001194,0.017128186801315233,0.28536242719907406
122,2.958552530601797,0.9157071971074466,3.6079970494747666,-2.0724873223531497,0.15076010948477778,-1.5173388843329068,1.210977529593783,-0.094977317338743,3.5641149086433495,0.22010916997300317,4.406553462585666,1.6435069229060535,0.6628865819891943,0.5231206784882401
123,0.7066822730611458,-2.020196307514573,0.760470040985814,-1.690483341354092,-1.0139732653782347,-1.501526108645976,0.1666937964058011,0.5082902053151171,-0.47687212898036846,1.2106952625124348,-0.8095182829961111,-0.569132394149466,0.31457413479406376,0.1328937309075001
124,-2.985111178720157,0.38690706045949846,-3.7945563387853167,2.8005011458257307,0.5707458927495374,2.4297562146356486,-1.0080927013451597,-0.35166396587024945,-3.407930507999178,-1.0947745875428339,-3.2393883924142726,-1.2709686609020487,-0.9210886415640704,-1.0121944253756825
125,-0.35490332533471874,1.2076082832343944,-0.34856953208467245,0.9032936617252408,0.546301722658108,0.769042984243477,0.012249075824865095,-0.3357514112087938,0.33873748608796556,-0.5942194312263382,0.3953464336014758,0.3992925907646228,-0.3398602219205347,-0.17897856099052128
126,3.014146064747588,-1.0311181243861887,3.8862130070872567,-3.160049667087017,-0.9473608868467015,-2.9529135567245595,0.7786459911098942,0.6312212884865412,3.1739581271215087,1.4617840422075534,2.493333674581457,1.0528849126881632,1.0964181618768214,1.2947385587035654
127,0.06342054598262326,0.0839607470352103,-0.027462185107544723,0.04986141492049976,0.15056021610600478,0.18862014558628606,-0.01464391583653099,-0.01888485876943813,-0.029346814813030666,-0.26590299116339844,0.4662325282230661,-0.04920263447675404,0.18336324275479204,-0.0015224842848325366
