,AF3,F7,F3,FC5,T7,P7,O1,O2,P8,T8,FC6,F4,F8,AF4
0,0.11037285053094398,0.14406559790425563,0.11185140644926489,0.14274149113819154,0.05970967567509918,0.10358463722380123,0.05979254546003808,0.01790031964546021,0.05545150705708082,0.05841363237246678,0.025168166569322952,0.0760696536861759,0.06712370531809082,0.058960056704493294
1,-0.9182576847581483,1.0854653379670518,1.5223340712725286,2.9540832221212665,1.6305236088864696,-0.15306438468973835,2.1834286000626304,-0.43928957285900605,0.6575667459123017,-1.779040532050243,-0.7700328299012985,1.249581733412773,1.9518302313964155,1.3412758060686132
2,-0.5466830863475584,-1.2663490961201262,-1.1878069045388757,-0.51161308524232,-0.6330820786981778,-0.024437108379120144,-1.4953965213093918,0.19223640492089017,-0.07962245370936968,-0.6354456572767543,-0.14635327501621048,-0.3489993398138402,-1.5913638087767608,-0.9776329993755329
3,1.1103809145318302,-0.5078590119176218,-0.9583641781989946,-2.6549373627346533,-1.3777101895597479,0.12541798016547048,-1.4511136725666869,0.32060175420819226,-0.5470822122348046,1.971063006056817,0.8493406484872025,-1.1652218565086978,-1.0598745694666951,-0.7973077552494132
4,0.8593695696271665,2.072682768756071,1.9320699814555997,0.6968254877171671,1.1258685842191773,-0.0459902051893142,2.478094733278702,-0.34713498285247346,0.02961422593323434,1.1068090243463014,0.23208680975518609,0.6093628675125355,2.634936563347392,1.6035007950020455
5,-1.4005174027536051,-0.4416554751715106,0.06240431201387006,2.203237893658411,0.9048864558850033,-0.041022365476822704,0.24838184024984422,-0.1240111844043107,0.3684596515236311,-2.326560297275266,-1.0017518624336934,1.0053796494547917,-0.44269749270522274,-0.12951094805372154
6,-0.9996811675689352,-2.367024155725578,-2.177972949897503,-0.6291511361275084,-1.4602889941824186,0.07200577572877608,-2.72372228781756,0.4145111965319365,0.14340923897361368,-1.381007365198522,-0.25373558879456776,-0.8460841514130278,-2.876845798498308,-1.7420895718991167
7,1.6996013167420885,1.5108533725063724,0.8954144921945456,-1.7439431989780372,-0.24214375510413727,-0.0685153010803267,1.0027869980725526,-0.10487866448542145,-0.18073480391976815,2.746097040850713,1.2087613179659515,-0.7391623544308075,2.0872341902902476,1.1475028118817692
8,0.9724562177437353,2.079781041966842,1.92074459914472,0.32939479319550274,1.5397475544432975,-0.03191772256019306,2.2086786417432047,-0.386322151549278,-0.4688959915141264,1.4105644617731325,0.18093690046349206,1.0035334639523006,2.2541503707136274,1.350702387630695
9,-1.94494132039069,-2.4188001429493995,-1.6764091062914328,1.3880771347393797,-0.5266218976197882,0.14873897481645634,-1.8862025486984648,0.3229855333969262,0.06298768664252534,-3.11312456982854,-1.4490057498171287,0.35835418488065385,-3.3782994886142146,-1.9458458316002856
10,-0.8086472849475956,-1.286905385010346,-1.2801825913626546,0.12758950693671586,-1.284255064196289,-0.06325068679248247,-1.1601920810385644,0.27132964089440603,0.9445003320607388,-1.1967376054964132,0.026654664325915876,-0.9926097129859542,-0.9706678108769888,-0.5413712666265026
11,2.1153028236298375,2.935403136496012,2.1445466923493113,-1.1838536064186425,1.256437929227705,-0.14087496576967107,2.1429526608879996,-0.49612440241445344,-0.10446945735344679,3.3207408117388746,1.684305027053507,0.08925321370049334,3.9543778150120628,2.284010610017764
12,0.5256380190263381,0.18290230529500498,0.41812580693592233,-0.6681877124995035,0.6792232790848759,0.15767846584937728,-0.05000064364746381,-0.08563985097891937,-1.5225263507544733,0.7825477479804399,-0.41206680545779667,0.7300055006000002,-0.5880701711684604,-0.46298324650567135
13,-2.2088924340787868,-2.947560518652439,-2.2695208350250824,1.1353423756872854,-1.773424244584537,0.014445913275657196,-1.7488137542129252,0.5953468017427089,0.38355736119036343,-3.2891088560785926,-1.8414577879175238,-0.49189396672249436,-3.6905461092927374,-2.050618100399471
14,-0.10692110893896471,0.9901386065065415,0.5340468059900884,1.2533942755576573,0.19537482199536196,-0.15961394927919315,1.0566949167847877,-0.14912192000691568,2.103974108346636,-0.24352210779046898,0.9887413454499856,-0.1879865730083441,1.9953105787081071,1.3980490581844365
15,2.1982916500298515,2.477737919978832,2.0746064170572893,-1.2479243666231807,1.931801450882162,0.19983731809505942,0.8926996041025238,-0.5915473687914378,-0.9366625578038013,2.9774599057633138,1.8167335714097177,0.7002809346223514,2.7108068543204284,1.2799125440056829
16,-0.47530659187043367,-2.0257249834944466,-1.4948723179357404,-1.8667185122447216,-1.175202417407444,-0.02291244529317723,-1.6301894909435792,0.39808836196910574,-2.5505895079961647,-0.32131136276178013,-1.7006402233459075,-0.5693162056384591,-2.9213155321514095,-2.027467178389176
17,-1.9993295806867306,-1.6436237196128032,-1.576488346954976,1.5602890608985756,-1.665743105406914,-0.39816915709146145,0.1234682915809038,0.45913781195285336,1.7271948778913724,-2.3971179516478602,-1.518064198943013,-0.5817703387294271,-1.3172931163690995,-0.13186013620255807
18,1.2011426681449264,2.8036260854242645,2.3966453194343487,2.46843745770619,2.0566704611673035,0.4306759890776457,1.7340510298198895,-0.6041550648784103,2.7203936319611914,0.8059921802069706,2.41079858807277,1.383882293209033,3.2209944637199093,2.195558530497106
19,1.4904171097783951,0.5850192675292363,0.7654155855925547,-2.133019723770318,1.011171863250011,0.4274530784162817,-1.0128713835785592,-0.19284754352571418,-2.6324485104406947,1.6213779201531031,0.9268741901598976,0.08084441128682754,-0.1271972778205224,-1.1504007333535562
20,-1.9484059293721494,-3.28255894465614,-3.1317001283746375,-2.9546758981087766,-2.654461674313062,-1.0108505952753428,-1.4991754176498215,0.690950946537278,-2.5193612958056706,-1.1289763565089286,-2.9428618997349867,-2.0436178929462936,-2.9500371375992915,-1.8596462381685437
21,-0.58733584651064,0.5933312774328615,0.3581054734798861,2.9959826158218283,-0.09137390634616763,-0.141463852276687,1.6053223850874627,-0.1703135290696976,3.4646963712229804,-0.7756268345220378,-0.1357819335617707,0.7420086030071039,1.3192420842345085,2.2960711506242903
22,2.493527524511341,3.4493261552338885,3.5323073875377857,3.158684833974815,2.8465928322641116,1.6077942747539373,1.1370636124139923,-0.5860526175104174,1.9467418405821602,1.2697415589139767,3.1624751662518706,2.3523664647961064,2.3146984956437606,1.1019692613569883
23,-0.6663723483912735,-1.8262110768850153,-1.716960907737823,-4.08760981005918,-0.9211345570960807,-0.5316237628258641,-1.886161157074377,0.5411278210850751,-4.0268631112773425,-0.004620799677472565,-0.6744761050916297,-1.7138797329950333,-2.1007002023096804,-3.070628518791879
24,-2.589583789955046,-3.269716472206189,-3.412532861374347,-2.9045074965620117,-2.593526893102548,-1.9968974239557078,-0.83548667695843,0.2590205550332434,-1.1066542115980913,-1.2828931005882396,-3.0504554382722424,-2.202723859949429,-1.5762524849892203,-0.11585169564383009
25,2.0570228187248025,3.04196857900062,3.1132890972350427,5.2280753003770535,1.8466264929460252,1.53765079462072,1.9657572777953654,-0.795868469192639,4.1798635170772185,0.6345583650697278,1.3167576479799852,2.5980371975204664,2.4851673691697673,3.3396331284854397
26,2.089811792659409,2.6852661069143102,2.657310983391942,2.0890664249784234,1.9332076405864043,1.9534135035907074,0.6808202449895834,0.2457089905646447,0.17381098094917066,1.265889472062745,2.716952878833942,1.6213220423380084,0.9422219588682166,-0.8418382854560618
27,-3.2496554976506355,-4.107205116226997,-4.2492206966840715,-6.150836460854962,-2.5297912913198664,-2.682479367106388,-2.0008646086076403,0.822465066378581,-3.8862652602615553,-1.1204610376189241,-1.6933769344356393,-3.1709083007566026,-2.614899761572988,-3.113080390143766
28,-1.0459727617643348,-1.6669458834355741,-1.3087815949605446,-0.7492664432712476,-0.9632765287559789,-1.336026118109783,-0.6361046323080185,-0.8051558369681522,0.6700219076761705,-1.2887275009447938,-2.34036981963153,-0.7672411296268986,-0.48587548958882937,1.5295610764600702
29,3.9165931118438237,4.814976775671375,4.817646017583372,6.5848639136703095,2.858392501156889,3.666471573405438,2.1065650897339694,-0.5757929478478925,3.2075693383968304,1.5425288863435913,1.8475481971697214,3.30044541788377,2.6631142109200883,2.5461018266860895
30,-0.2828897098940411,0.2932152070622906,-0.4055399350211141,-0.9234730477615161,-0.17902343575721572,0.15920295080161018,0.5787644047158778,1.254793369364394,-1.2924941742182428,1.3305280455994755,2.0627849339877824,-0.11857178751050446,0.13245367869277022,-1.8088220134038142
31,-3.8813489968646357,-4.944468332426782,-4.6243883229279295,-6.351579677743038,-2.7742701401262138,-4.166406634800258,-2.2988088992236233,0.11143088341699413,-2.2633463514095866,-1.9801578126559203,-1.9359707357752647,-2.9982191390367827,-2.7256511244322894,-1.8828237666651317
32,1.5259336819969478,1.2060982361323924,2.130323424528148,2.6323970322262915,1.3361863905685176,1.3742657091211836,-0.37589710091384065,-1.4540011098042016,1.6315492304423531,-1.2743305730408043,-1.902012870964153,0.7992678369031214,0.2762060931415051,1.7027684794294535
33,3.1989452306521833,4.371485365853653,3.67845338065018,5.4310836119057635,2.2807734299891904,3.947939736838843,2.4915241697344377,0.4252345779890034,1.1840765889594804,2.4245877724097493,2.1331575468537114,2.422367402364447,2.7583843371494288,1.3553539461211637
34,-2.353623626689922,-2.4872888673091653,-3.506472179921296,-4.0671480653140915,-2.351644099884246,-2.9058467353222306,-0.041114642104681416,1.348439805430161,-1.681507935349892,0.9764387348278875,1.732690337513907,-1.136342086114813,-0.8686707165108374,-1.3903191483655446
35,-2.1276758683075188,-3.166698921078359,-2.197407181101687,-3.966866140670432,-1.4438577190452953,-2.971348106740811,-2.5448713280556268,-0.8543980328123187,-0.08518349357461456,-2.7398203761400186,-2.5162118986480695,-1.8192703701401056,-2.5965447754587805,-1.0770485996087233
36,2.608240631394503,3.2118634231917453,4.301893720680381,4.995727399099461,3.093335146100596,4.025902283223374,0.6383249164025289,-0.9963235452616217,1.4691265283395638,-0.3750687594983451,-1.3528995978130403,1.1534160822266717,1.641934269453552,1.1247904131800064
37,1.00856850226777,1.6131419990992428,0.5184662926781952,2.2097770862988115,0.38089026279460997,1.439943363471824,2.3360659466534934,1.0367344858161913,-0.9363748162022861,2.7058326025514727,2.9915448077819056,1.4144119734481506,2.0482585742000547,0.9828695674281364
38,-2.3456612407045685,-3.1915358289149482,-4.479988249216762,-5.315980695657324,-3.473180344177197,-4.422294439176843,-1.2915486040541049,0.5433557667456841,-1.0417332600266902,-0.426573088292858,0.6092766163648881,-1.0297350902366533,-2.4257935268724484,-1.1039849004172528
39,-0.11947658747552771,-0.11613953481364975,1.0395237035475096,-0.4334087780493407,0.7624496490193121,0.24760216570472418,-1.816235725057459,-0.9313801708901182,1.8019703485463758,-2.1285321917783175,-3.3094254009701802,-1.2956427007468745,-1.015122060873366,-0.8577022020794497
40,1.7739605939848393,2.4770684359238957,4.1692774105969095,5.0503343039397,3.453990590814768,4.01036171396258,1.8359822810676123,-0.1574952627376997,0.4661070009430203,1.155656224828182,0.47922919720336943,1.0072808506901691,2.9346349549738533,1.3524830919100077
41,-0.4191163527728958,-0.9552948915483472,-2.2859636625928412,-1.1347689420929599,-1.836251104126888,-1.637116919097959,1.030508542650803,0.6085757288054181,-2.4611642427322806,0.9624544795507373,3.1742402115741974,1.3549776629247183,-0.4201037369696317,0.4541112821225541
42,-1.13194573534832,-1.3356135680948047,-3.5567578945765557,-4.300982077341266,-3.044124791517652,-2.9758032191701083,-2.1242697704162032,-0.04481915460363777,0.1802646785488054,-1.4547317642259303,-1.6680657941609882,-1.2445269253037752,-2.884980502671292,-1.6845901295249206
43,0.6444153523753874,1.4110469601798878,3.178439910192684,2.3381709983553636,2.698914934091,2.394147869972489,-0.10231611580141443,-0.21119363558642323,2.902233635336985,0.6150189159417777,-2.409281362197797,-1.3402236571233603,1.9824048768951996,0.3511554253379174
44,0.5803751195638075,0.12734195790746317,2.7770541112412515,3.2036090906646604,2.2926649991595456,1.6992685533905656,2.0693086154120754,0.045055332676395304,-0.834424494091216,1.0242033146936713,2.5504415279234522,1.697206984797284,2.1274112793236903,1.78457398464098
45,-0.6730440550911747,-1.2905573097172407,-3.7497771356654317,-3.07786742554054,-3.2194009132432773,-2.43036526696835,-0.8017457293422122,-0.1150031651555663,-3.141696037112626,-2.217940783373934,1.0948445242969072,1.007959129438722,-3.2803427551189683,-1.4477697161461383
46,-0.16382394716138424,0.8476826939818678,-1.8728741048256496,-1.9101661264385625,-1.2983348243544326,-0.5944611916841684,-1.664885254522498,0.08029512427445461,1.471957864386421,0.2350315640093041,-2.728774838514892,-2.1104076837107164,-0.7345637715473975,-1.377724601690382
47,0.6039962717529411,0.8033563710406827,4.004361400529295,3.2953134845636507,3.2880540847575386,1.9180510587270383,1.5116062424625558,0.28691002657142495,3.187129802225282,3.359488359861257,0.4058885292309833,-0.29705504390392323,3.942425482037441,2.5044872257802133
48,-0.1479712202602821,-1.449726540485461,0.8512081699983296,0.5990486753170567,0.22677855124815946,-0.05989569166410378,0.9883765782308013,-0.20805828768601836,-2.09905117017707,-2.1389281989623155,2.019942869954613,2.148116506846588,-0.9969910813668627,0.4044062969276217
49,-0.46706982206660186,-0.20636690946170017,-3.869420391808973,-2.9828247218061845,-2.8548086828835917,-1.1885859735896944,-1.8926781606571308,-0.3131088192954008,-2.999649476618099,-3.621395254362975,-1.5711613410783034,-0.5881865989308693,-3.7599178037890693,-3.1166737826311524
50,0.38234279178443564,1.7058947338596266,0.21356834619889986,0.5203580071190718,0.6927211826135888,0.21197235231819128,-0.187909230046943,0.23479519350443354,2.702729120162574,4.240875326947715,-0.5834606657082351,-1.5968011968207758,2.638850549584883,0.9081075240373054
51,0.24342986928803156,-0.30774329001451844,3.246690644619069,2.220552470402555,1.986986278984269,0.5712108073716945,1.8820579756400926,0.2748382036772193,2.497769546383225,2.8239374951273994,1.9497608905885875,1.2517891237657048,2.7743604227580962,3.018583087536184
52,-0.5128912518604065,-1.742627107150491,-1.1195747265676208,-1.2433396305159328,-1.2217129915401332,-0.01481486962194762,-0.5494307065114667,-0.12626193039468617,-3.1908884172860748,-5.96354904770063,-1.111592824125144,0.5222447675776102,-3.7831456333596947,-2.132763439502097
53,0.06891879683190513,0.6601086836490359,-2.1315626269565673,-1.201898140043028,-0.9045202569801213,-0.2545582282313544,-1.5130971999637595,-0.2735518275939605,-1.6208280015294636,-1.1235430319176427,-1.379399685096173,-1.307340395976136,-1.2675695950132781,-2.239359176474531
54,0.47389719986441514,1.6992089831524912,1.5840174967543155,1.4456631845286119,1.215510001790917,-0.28630317935869337,1.0483406923757657,-0.07274330761701499,3.378156950776768,6.802656555268954,2.479534734248555,0.720777508806021,4.190679326823639,2.8521879348507495
55,-0.40404289547350397,-0.8705282821154035,0.7088975260969185,0.20337675920100204,-0.05746569901944364,0.234334859342157,0.9131462681554489,0.3751236965775573,0.42010732090902847,-1.0164500116291248,0.07308630735869483,0.5951272395821857,-0.3458173541026625,1.103503438042858
56,-0.2258518391601185,-1.6695055262135838,-1.3828372975940115,-1.1554159694167,-0.7229922238980842,0.4913808620868584,-1.201228087873856,0.2677340381956348,-3.0523464894069967,-6.522005440757962,-3.075155001037489,-1.6398373807868205,-3.8682389786023843,-2.873014573473402
57,0.6375557393523602,1.0102291429845076,0.6569731437083499,0.5090387710581122,0.5714360578119609,-0.36147575422258915,-0.2657528560540064,-0.5775182610735887,0.8902618440133943,2.9855562019139583,1.4771610507335236,0.7081787964690592,1.6765204650967727,-0.06662889109340885
58,-0.18248934992474586,1.685092521491843,0.49852801086278076,0.5627160969529831,0.009202183747630325,-0.5375424623311504,1.00414076903209,-0.36421536594247306,2.098096211377467,5.249993906384472,2.7793543758412276,1.8373379793703122,3.040261827690578,2.3168618484225822
59,-0.6547599365686972,-1.157049432120536,-1.5510800116733312,-0.7925655484234133,-0.4748873731492431,0.45400825938665546,-0.2523465713521057,0.812823403597019,-1.977614362081359,-4.2559664806967445,-2.7254613793639795,-2.1473918761315547,-2.496505724310472,-0.5189123099341455
60,0.6083945515187531,-1.724702198969257,0.8209419009364991,0.0572662134089379,0.540492196507503,0.5050724976023943,-0.5519842816328009,0.31378564061596703,-0.6024190449882159,-3.424841898847252,-1.8211685099128412,-1.202489887447612,-2.031975639168251,-1.5334071104793343
61,0.4294779060145264,1.3665069485163235,1.6893085155138547,0.6886746105333107,-0.12982106539000984,-0.40770223695665064,0.5312316601711143,-0.9783885068868806,2.5252049674999486,4.579519861123288,3.3027206626886145,3.181904249387599,2.7904784208116107,0.5677833601216659
62,-0.8769425294892069,1.7313937500735648,-2.1357890485807074,-0.47279342728935647,-0.6014185384974469,-0.544717063675277,-0.006852555513002571,-0.13866052316569732,-1.1350382883695473,1.6077076271678983,0.6407459790375333,-0.03046453047340667,1.1259229744540942,0.8935808673221697
63,-0.056090592930072444,-1.653927569228353,-1.0525978785796235,-0.387476287635777,0.9062429173805188,0.2475559913714306,-0.5550566361541979,0.9825316538938305,-2.3855345672904296,-4.057927423985315,-3.1385582788537745,-3.4165023789148976,-2.7060056684329172,-0.2608282604932143
64,0.8724393277185356,-1.6328811986607694,2.9859835064369236,0.5997044970793426,0.0781679416433398,0.773475322278463,0.5329121600297374,-0.07367380828414426,2.7086966391703666,-0.25187118236283973,0.3178172984408496,1.3787127965314196,-0.4649949191354135,-0.5952770820600497
65,-0.29020885708649335,1.9833491532218974,-0.09678767717820147,0.1126668757784,-1.4426893193036034,-0.09889543036663626,0.3848951330825569,-0.7869895676660938,1.6594077088653136,3.054908177533131,2.435132365742185,2.7637986534601073,2.4402809234556133,-0.10529073436310621
66,-0.6014151093242738,1.3698238746445388,-3.0744239963778712,-0.5172215377912434,0.8403746456478217,-1.1991793545795522,-0.9422797866191113,0.20386801161169255,-3.776465061574092,-0.4595260993169745,-0.7748872128247726,-2.310903832185937,0.044381279163777036,0.5978815291202845
67,0.441608515399239,-2.2710904574086834,1.3210151160487993,0.0016544669313247745,1.4546197331246058,0.10252836534670291,-0.11145940014784256,0.42902236089826734,-0.6497740202811342,-2.0022743108147787,-1.5372508725143588,-1.4730458524053103,-2.133200156111445,0.3083860289099295
68,0.18948884633799265,-0.9287896838656859,2.3764346010590023,0.3896847379926645,-1.7752093934051405,1.7140158314140927,1.2159736362036506,-0.1498966969940772,4.195549373358785,0.6334418603028532,0.6817403805503678,2.46062123582261,0.2195581214357333,-0.7087713540961286
69,-0.32195010721901174,2.414756468968838,-2.1785180637977843,0.03363071062977495,-0.9164475478705302,-0.3277054442941553,-0.19191542036529027,-0.01245396225495481,-0.28266038522203335,1.2058521402990476,0.7811989526357124,0.022064378644672453,1.824538754603262,-0.3071321289184217
70,0.18330621877643333,0.36115299840215415,-1.1342294938374506,-0.3506955983470694,2.345781488535676,-2.155657544115259,-1.3748738662145705,-0.12839579349458213,-4.050344341125325,-0.551332101084892,-0.18902344740356572,-1.7663550158431693,-0.3986635938168493,0.7439141123461471
71,-0.01828001865616261,-2.34182509211874,2.3829576580119083,-0.10225625296214562,0.053163051492339644,0.7339449919444957,0.4898137661001544,-0.3301469694351549,0.8761710822485798,-0.7474647858564369,-0.38527924439104133,1.0769717449413425,-1.4863880964071727,0.21061981265394902
72,-0.3703632011076968,0.2318871126076339,-0.2485953130191201,0.42657572873276434,-2.344763386008301,2.395806430878006,1.443510417410098,0.5894919466454148,3.567650835202638,0.4966228730421411,-0.43935377691696786,0.4865711457987225,0.5002955827929926,-0.6470521378260131
73,0.4294944792901872,2.050278025156186,-1.8878416824969042,0.07955794527401727,0.7916325575007502,-1.2007252366789423,-0.7731804873572647,0.48787685772377093,-1.0503172385478121,0.5145753392801706,0.4011253658386276,-1.4782702626427517,1.0936413199106985,-0.15630362764407005
74,0.32456109440264413,-0.7464617947737994,1.3581780367031429,-0.5418269071266545,1.8082157328814945,-2.4021089674519134,-1.4295117590488495,-1.1238878751785664,-2.9820293460313465,-0.6223182004693716,0.9259993818554761,0.9115202432745773,-0.4784173963488437,0.4974078529843469
75,-0.7336690557480743,-1.6117940109151014,0.8758749112899655,0.08352677983600958,-1.3267844329788732,1.6021011609046572,1.0323676793352536,-0.41220904062328256,0.8803907238165584,-0.3151881268295673,-0.717474534759431,1.131021644531705,-0.6776593952620141,0.1947403616746827
76,-0.11530516019694581,1.1266692327409287,-1.9047146765707603,0.589375752388838,-0.9603305871797304,2.2382556179981195,1.3303448720588573,1.5937984179489952,2.4358001133374723,0.9148254629145612,-1.0724325481802865,-1.943619150444479,0.2887556353201193,-0.42189813542067833
77,0.8029647929475483,1.132776349656767,0.32761362714324965,-0.3405790423592626,1.430728015458651,-1.8767307563583393,-1.2404163610375647,0.13191929095995314,-0.49921848066505065,-6.635013684767009e-05,1.1079187135381732,-0.2852421490705895,0.3288100323200402,-0.25732715276862894
78,-0.10484699315319244,-1.3838006476047577,1.7965609385096049,-0.5082358590588869,0.08337581945890844,-2.0067608881678374,-1.156398940038091,-1.8806895955107055,-1.9652242327836191,-1.2453061818953854,0.8294257647836362,2.3034266105167607,0.05688178638674893,0.4884418710067741
79,-0.6141940000570566,-0.6996811204860396,-1.3745271950478861,0.5942553275036871,-1.1682708249665086,2.0486723434279237,1.3618010312914837,0.2605550086464534,0.0011395300804642374,0.4693111778980225,-1.3187485077258734,-0.6283191357245705,-0.15228855908837072,0.213977214791586
80,0.1658402043201099,1.5716214440827019,-1.141150900151874,0.31631662483935374,0.6080435750678219,1.7749050325048878,0.9460433077942965,1.9224205450243796,1.563019658003008,1.457288795004504,-0.32097161603901864,-1.9798554441473466,-0.47397637330399195,-0.6550771569716141
81,0.2608377678321763,0.34567495553239747,2.002678357700003,-0.7632122988486058,0.7229326782583351,-2.187354083485676,-1.3794721041465279,-0.6427714966117746,0.5880603478939764,-1.0182550456179023,1.1790917034052788,1.1946290443587584,0.20995143052269294,0.03260913838974105
82,0.04823319898377293,-1.7374350295261554,0.18612682551065599,-0.08587115225621923,-1.0315793124969173,-1.5341988811972889,-0.7546537096875482,-1.7291504149531638,-1.2576803823165983,-1.4398196381514978,-0.20327285461661448,1.24342533474059,0.8337570614589702,0.7991529160141666
83,0.07953026849456647,-0.05805858516307864,-2.1024444224537726,0.8229246430610819,-0.2981038704458322,2.3354123526570993,1.3153933837002014,0.9028038632456981,-1.2626744873256754,1.5022738381544816,-0.6889658089247387,-1.2003726863436697,-0.483486474924041,-0.4828506933429889
84,-0.546668088237391,1.884880640895053,0.771646991279909,-0.10971264006540091,1.2303584319678256,1.2211811136315212,0.6221303764786623,1.3755583717386668,1.142141877264741,1.165178426031707,0.4841032261364873,-0.5045711505442945,-1.0165978715949793,-0.7954151242736709
85,-0.21052914595217398,-0.18381258644421206,1.7294996777821219,-0.7996307561941904,0.03787683994108838,-2.455272661043864,-1.222262514865363,-0.9739839263465611,1.9551759141007172,-1.7595865500813879,0.03177384609697602,0.7215708426113037,0.8760825801371657,1.0420553657047829
86,1.2171688665756715,-1.974350866570204,-1.4788834525310908,0.23524812958182809,-1.3207156538723432,-0.7862462751555164,-0.5447869019923869,-0.9732655735155225,-1.3225020464909596,-0.698357792524374,-0.3890058609278064,0.10839444651303119,0.960606482902351,0.587206649787086
87,-0.007162779691716038,0.37027061928392363,-1.0681150511278206,0.7335001657728675,0.008844467330769646,2.435117212266589,1.1475868559334217,0.8536437986803992,-2.492924085289102,1.6599469150087898,0.5121389544880669,-0.06728115404897005,-1.2470875369405863,-1.5777196361997394
88,-1.8556800044274087,1.9603870864437107,1.7948395194154831,-0.29538811756235583,1.4290016911146861,0.26316839493239835,0.47831148249717265,0.6323224974685693,1.8176594719980832,0.19068436852927712,-0.006834896532000966,-0.1671785092419585,-0.6843227287927716,-0.2084571625850306
89,0.5963575098009011,-0.4519334834757037,0.36067762969798806,-0.6456226189919038,0.11644129324497272,-2.1572636409005606,-1.0974965561975212,-0.5995510558849316,2.642427744633403,-1.15094661382313,-0.7167990047254911,-0.39512135162646095,1.460555975255339,1.9908493258697726
90,2.2337138082623205,-1.8405925804844443,-1.7193010468602163,0.3071334307073648,-1.6409136014212586,0.2126999631672958,-0.37451037599145204,-0.42470965186443943,-2.4831701413037286,0.14471272207977431,0.4505806835741693,0.5186441757692617,0.27876423356828967,-0.25068539753354424
91,-1.444125498628209,0.36938241659402465,0.17412085786687925,0.5331440595875412,-0.3137978637612972,1.5890486303080815,1.032306486809824,0.3044858089708645,-2.229468330572608,0.30270426952793794,0.5461698553392267,0.44291363078889967,-1.427706584042051,-2.2568697465332104
92,-2.1804269536942864,1.6816932657494337,1.3738728889985088,-0.2716904486889698,1.9737566300030926,-0.45934332491575314,0.2243097464960354,0.36384316429258595,3.026344088926573,-0.08982317913656761,-0.6483009884028352,-0.8339342155644794,0.12297363940491263,0.7077520950854597
93,2.33318682091182,-0.10665196334755185,-0.40928319723358647,-0.3903304745878787,0.47036231989287625,-0.8360237300282974,-0.9014878231927862,-0.058387093737791496,1.2643699431290603,0.6675264370441213,-0.19246252928148197,-0.11930123314996754,1.1306175724378043,2.4134958791865193
94,1.6475850968345902,-1.5999994327848244,-0.9447963979518577,0.16873983739585427,-2.3758315018692358,0.3494729559033553,-0.07076105926790234,-0.4090716931103077,-3.1244424525924877,-0.4861322710689697,0.43867368788920863,0.8162529240533073,-0.38525168629188306,-1.1387904917177234
95,-3.0136019962451512,-0.2647319196050205,0.3421394056261505,0.2338611391021447,-0.5054205382833289,0.11625364073283784,0.6919491859545733,-0.08547666005581146,0.014025114259242605,-1.4240651893778677,-0.014388117269166683,-0.29445567877263423,-0.6234975732547959,-2.5056838033656126
96,-0.7304108918332421,1.699767862043626,0.6086064252647481,0.02544097834134567,2.752690868936032,0.10314714086487353,-0.021134037320656836,0.4930131987364299,2.587792694709715,1.5294095282583093,0.0934709316223874,-0.3779966662101541,0.4064349644415107,1.5824921018792473
97,3.2862871494475554,0.5842208481479195,-0.08178553696279103,-0.11186290794588034,0.3987465471132358,0.33644335801227626,-0.45069526153024686,0.12424528167970979,-1.219419512554159,1.6145518478637915,-0.21502369200400506,0.4390941877580494,0.014516781669103772,2.524115533313184
98,-0.3636572138065603,-1.9999335912530225,-0.4680315458312416,-0.31191597026916107,-3.0106643131233755,-0.7291930611116859,0.015450864299804537,-0.5573043319864672,-1.4718971087498784,-2.7570660136662872,-0.6331704476345779,-0.30379126111613275,-0.14423253794117996,-2.0922735832411155
99,-3.0652782760545163,-0.6558868524233931,-0.20152980480143565,0.09178983685628869,-0.18943305803259222,-0.38590529024451015,0.26316742589927883,-0.09301931600418702,1.9910436931507363,-1.0212423012951466,0.9575291521193551,-0.07609935564830805,0.5654608425106428,-2.379476880003194
100,1.3834221379836766,2.3920308435311464,0.5204509476117434,0.6520640945531767,3.0974968368228004,1.2741542483620454,0.06168775881090503,0.576929756818132,0.06547316430200367,3.715354343959502,0.7814952644188473,0.8814201652044058,-0.3746222145880036,2.6634639031169858
101,2.3972029261837915,0.33864938917322673,0.3438855094319626,-0.2355998084878736,-0.05373835076647364,0.058005906549290505,-0.2035656719212231,0.035254151502553024,-2.164053935994415,-0.307271708550685,-2.007463724932588,-0.7885423552238647,-0.9996013090246205,1.9363178325647648
102,-2.111184875330826,-2.6610148099801547,-0.6671111227945999,-0.9666955309226717,-3.01902809551792,-1.5139366637692513,-0.13040012488749173,-0.559935366433858,1.246648969363901,-3.942055455407268,-0.2607254381294826,-1.0192343902301386,1.0623631183042626,-3.181520776130638
103,-1.436015155459065,0.3705688079931126,-0.24716587945903104,0.5728235438343844,0.2725712772099961,0.4783641019714856,0.2926051595399298,0.0241991751142364,1.8388755182477388,2.0237664574050442,2.9535737549528727,1.9196068373585418,1.2183506130093473,-1.0965182850896336
104,2.4212159941062295,2.569349794979044,0.7557936658288441,1.1504999494123131,2.8242931377067433,1.3507727934604905,0.09785552143730772,0.5252554668550004,-2.1710568041203975,3.1681890989153847,-0.9282462734268538,0.555494263155671,-1.7956305804177013,3.431005978646227
105,0.3875818579752878,-1.3075933463412328,-0.08772049252923642,-1.078383471457661,-0.44601402172171195,-0.9975067198371907,-0.48782896021752864,-0.08533003941727148,-1.3089731110590295,-3.5876370656587144,-3.36969702340979,-2.983752962975915,-1.218689448170697,-0.10959468487726629
106,-2.30272180351838,-1.9687936602973062,-0.6400801689425571,-1.0999131778569426,-2.5710285209125074,-0.8412882538432915,0.09733977687856116,-0.47654295671985647,2.63806949036911,-1.4578260175997761,2.482399616158607,0.4441815555039465,2.4533381977580326,-3.1750454013131213
107,0.5535404099595131,2.1891338297882275,0.5616782103750675,1.6617746532608524,0.5885031454745657,1.3185853347684424,0.7052186744161748,0.1549307827644853,0.889753380483939,4.471325667528613,3.023400276432054,3.7065748796863116,1.0601396527775766,1.4790153937272028
108,1.844740639086012,0.8845636029025713,0.2363349337206774,0.7516549379990941,2.2949530248471666,0.1514866661769922,-0.46122725422190797,0.3934858439943517,-2.8060832799536883,-0.7925311241176117,-3.924567809556574,-1.75348960803121,-2.9544458778663283,2.2748630431983234
109,-1.2535725137314209,-2.7225892217367966,-1.011126093308928,-2.1776641270226866,-0.7249776474377858,-1.3702245144810588,-0.8527177169687378,-0.21908696734124,-0.7478316429331053,-4.371137581293218,-1.994063079755341,-3.9631917519679507,-0.8362481323772583,-2.676166016371537
110,-1.1933713360837246,0.47389176462000876,0.43858997203497574,-0.12161321374803535,-2.0012917383782995,0.52768236912641,0.9452941082674121,-0.25032660968131415,2.940268131586385,3.0003968085527024,4.819574991395194,3.1080414859555585,3.2787580245279186,-0.7899181543372532
111,1.6611778094190135,2.728017350228637,1.2658436710875056,2.465642601053048,0.8623581718073255,1.1939530204822206,0.8582263881043285,0.230339593668249,0.8269137260128727,3.3205298259473803,0.6382867043365636,3.7697129778998093,0.6333272144535717,3.35263607546029
112,0.5000801270089038,-1.7860766436830358,-1.2625268001080263,-0.6765451052333553,1.6801924133613955,-1.0570657176074838,-1.4615915779943853,0.050739366518552126,-3.2396392100870375,-4.617356339870711,-4.967198787704527,-4.297847586636397,-3.4599011935571324,-1.0000513070615942
113,-1.7992264131494016,-2.2137295940614266,-1.2141721302444077,-2.4121217981118233,-0.977709751547323,-0.8982101365403693,-0.6879427684727516,-0.12596547998520424,-0.9082964960041195,-1.6580214463485028,0.5783849029770672,-3.216637649092108,-0.49727982760524764,-3.295889988926449
114,0.11976085391712553,2.7455896813713285,2.042444601772532,1.4535139055149424,-1.331405614097546,1.3852182102513704,1.90263417951961,0.14742980602367767,3.714116168479052,5.317651494465908,4.474037326965875,5.187640703955087,3.5552638751918186,2.6751172282715654
115,1.7360921826241131,1.3687096455085264,0.8520327813883586,2.00753229758119,1.0300885839738736,0.596498462201717,0.35872633562862516,-0.12790504385828225,0.7656198878288194,-0.12143249667127802,-1.2939008861333028,2.4151315022292796,0.4253753320799491,2.534120859708622
116,-0.6066874467399851,-3.1780825736950593,-2.581129723751567,-2.009286117378011,0.9787551538794932,-1.5381699647034983,-2.165832446782269,-0.24226901129066855,-4.182192547502334,-5.078053627747928,-3.6735493679821234,-5.691511271850012,-3.611723187170785,-3.829458268707333
117,-1.5513974741625893,-0.4769883967123391,-0.2932571735904105,-1.3647040279387634,-0.9863475955367185,-0.36255149217050503,0.05644565970665224,0.49358770347990905,-0.3199329120115418,1.5512453393633503,1.396244294051927,-1.4934020492732685,-0.3842062155128587,-1.341571453833442
118,0.9548806187011791,3.096758096029704,2.7531966243502555,2.2153224794336484,-0.6636694965988893,1.581515901154848,2.185138888706023,0.13634432114845318,4.388289218464476,4.135119363599737,2.9453166919913802,5.7611724336169665,3.6468993633634144,4.231732789397173
119,1.3088555918940528,-0.20114745481448923,-0.26819842002215094,0.6807262195846484,0.8423535385578668,0.21780428476921604,-0.4391857310269408,-0.8535229612011551,-0.2971417428689722,-2.332081879981193,-1.0340205565218632,0.6183594361923896,0.33951927717056074,0.13649519564281623
120,-1.1951084774315854,-2.6742942994531345,-2.5588788189982914,-2.0724250378647935,0.42252249668884995,-1.5812954332650146,-1.9634055493563158,0.2006230747756476,-4.168338426268133,-2.8634004389232595,-2.5349524456214994,-5.4183643960448675,-3.653386467871841,-3.9179003889082242
121,-1.0423040008237103,0.5220661477523116,0.6327591868218497,-0.15623455212648782,-0.6249817427120149,-0.14554111253076552,0.6604647498265973,1.0516680951961748,0.8086622047465523,2.381428451555411,0.4979264587993156,0.013989338785041718,-0.2790762599921782,0.6844839043482921
122,1.3717507080346707,2.1549706201011873,2.129863200203727,1.7124372038547793,-0.2644269507366126,1.5819065154783296,1.587360976101083,-0.6941661950367299,3.564876304619472,1.641909426576379,2.46848475658872,4.802159034006181,3.618621614562809,3.174093890440022
123,0.7551255652584055,-0.4874946371162301,-0.6771257759130607,-0.0891317976503069,0.3736674905731037,0.11417916242079865,-0.6329358647647333,-0.9684735861497603,-0.9467490251795286,-1.8011055901758493,-0.04971204423466945,-0.2482385773966133,0.21679768973353336,-0.9033273419348065
124,-1.5205180763444,-1.7578928557229834,-1.6804132475022586,-1.341167681578156,0.1668787667747209,-1.6036342817805647,-1.2076321007750785,1.1813431952368296,-2.824610744435441,-0.7622078522962615,-2.5956535932350095,-4.168899847367493,-3.5456586661859424,-2.416820462288456
125,-0.43047714325791153,0.21158693244063895,0.4083520449882448,0.06463598590983341,-0.11513858373233933,-0.09379945742517115,0.35740136155965935,0.588785718166478,0.6068132065375081,0.8049636621788732,-0.20192398550529916,0.06641195261507848,-0.17799915828633833,0.5621542940376728
126,1.6515437573844385,1.6148205534020668,1.4208811074234493,1.1492151369395538,-0.09481187329123135,1.6503466081490794,0.9830652660238243,-1.4787997564105355,2.2804007494233054,0.39418036456726596,2.7210287177212216,3.8084566928672468,3.4616185350342223,2.021360553851099
127,0.04906009948589379,0.14004025448783441,0.03572725925772127,0.1013151309534182,-0.14855229012096674,0.06078482371219392,0.06454489299575016,-0.021822241082880178,0.08410726815445424,0.34722464068448383,0.31510010427742563,0.36134945759555853,0.17512141732217715,0.06411889162025532
