,AF3,F7,F3,FC5,T7,P7,O1,O2,P8,T8,FC6,F4,F8,AF4
0,0.0073290829859628155,0.08988073605583885,0.01361069732423192,-0.0023919196205978675,0.05890105484397302,-0.008685325856332702,-0.025500068341063744,0.031210612660306218,-0.01659936166619038,-0.014841747380666931,-0.02775771103291321,0.023542057621610532,0.015441825173205321,0.03494339258242988
1,0.24706662123878423,0.15056430244736366,-0.21810009835198224,-1.8829575806257142,-0.1625436540875765,-0.25634455514131327,-0.41795847713461876,-1.3392254634791845,-2.394392784935987,-3.0715519913145735,-2.9015981289448636,-2.5673902922591507,-3.9238300918120426,4.767591880676273
2,-0.24769353942706868,-0.19351201028510318,-0.133477343798695,-0.11215065176793892,0.44795967478772064,-0.034195676116462126,0.31351062147348807,0.4910998327327892,0.17898115475387816,0.722020079338991,0.8052375053673836,-0.2524433622034686,0.6697754058519644,-1.4670404929696106
3,-0.28844544844850073,-0.3560523931380934,0.34753304501467835,1.9128605824252478,-0.08533649913887549,0.26568896795573627,0.27542098065460385,1.1588704389638342,2.1451472156501983,2.5146599270403933,2.320349174702691,2.487326312481991,3.236527608182792,-3.75116262177406
4,0.5814167671167458,0.5289953399151343,0.20816650168702155,0.23778007878989157,-0.8127781072579707,0.09926373366969034,-0.3861662897130672,-0.8392811171229322,-0.07211272952204492,-1.0074846925750351,-1.123672514741879,0.4999633490134713,-0.8717222409781353,2.2539713651743667
5,0.3054248401400986,0.6158702429084203,-0.5701530628082587,-2.010591289944912,0.5176485701163304,-0.34604336715768064,-0.20936524296267672,-0.90601821702572,-1.9340581118994133,-1.719025264323713,-1.5179327031993528,-2.3601139111051466,-2.205760078934544,2.104635716689303
6,-1.0411707110072095,-1.207139833157254,-0.20179646449018346,-0.34549105657942797,0.9206516569269186,-0.15570473983160016,0.21318165685164414,0.9307812137951611,-0.335397827498309,0.6818683405460015,0.7948449525111928,-0.7574460594591749,0.33987459186597185,-2.005031623710315
7,-0.14864710678855847,-0.6194698155028059,0.8478321810205878,2.209046972857876,-0.9759210121372006,0.5387967860771956,0.46584460720071175,0.7496097712690774,2.062797527213979,1.1368292925719417,0.977232640146464,2.2221828193755515,1.3787748336205221,-0.4753407169739354
8,1.518318242082913,2.0799653789662997,0.0808762112736582,0.35491962137183114,-0.7511550902046992,0.11705614108254596,0.004864170122969347,-0.8247623589775355,0.7997577217425048,0.10616988428025638,0.004348732969289749,0.9809629119739971,0.7831631082466378,0.7485823430361883
9,-0.25491561204750773,0.15565022895783137,-1.102769708938405,-2.4815108449575383,1.2970332131613458,-0.8159129112963457,-1.1317282299931517,-0.7794562404125546,-2.6347207793218135,-1.0977571008356644,-1.0390323030081494,-2.0714651815749314,-1.1960610659300877,-0.5008640799119823
10,-1.824165239170307,-2.8188088918807166,0.14542867395803355,-0.1799768199197906,0.37071239117256705,0.10272563302791267,0.041173895495117546,0.645027381883338,-0.9608043315977473,-0.9696589822878607,-0.8451433606189711,-1.1322476199785938,-2.050747845357877,1.0661781814574451
11,0.8307237059082311,0.7513663066871514,1.2442816131321284,2.72286330337585,-1.3599205571207482,1.0631086078804388,2.0325944411327925,0.9666881675327038,3.4420608912737927,1.635708305571184,1.7170819564661346,1.8656342887339397,1.7769532929958927,0.4731939642198648
12,1.8131372634394858,3.095479638334291,-0.39743412331397027,-0.2035715099458367,0.09931432809077452,-0.5114962126873757,-0.5556902835282096,-0.4725445920316038,0.6011560371083363,1.5099697055223766,1.296737955559734,1.225058396051066,2.95248338624422,-2.7470316848418457
13,-1.3865999133797113,-1.8482388407091626,-1.2303091770699435,-2.7887643942545406,1.1053135604574378,-1.1321764042063165,-2.8065575373058347,-1.2261682288892182,-4.073898898141967,-2.4951332917362707,-2.709985841033642,-1.567245310293004,-2.8908564148240306,0.4578891347823726
14,-1.4813775231595834,-2.749490457636694,0.54894276829449,0.7180787429334687,-0.5136318858059606,0.999273926674382,1.4784265548939401,0.3018534836401214,0.1787145428145607,-1.5277685923745197,-1.15638550545279,-1.3307019571594154,-3.159578846392615,3.6541899569546397
15,1.7212702978266354,2.7790136429681014,1.1192925544405612,2.571220842696641,-0.5386945112922656,0.9340506514313787,3.1129543657683465,1.5167303805754344,4.176342748094584,3.2952249646194125,3.585148159945924,1.200065978047684,4.10592846070097,-1.763845568604802
16,0.974655834596523,1.8508310638517518,-0.5054071772395584,-1.2025544294768884,0.7227020488368656,-1.3740067486929537,-2.49061130957733,-0.09548539445940049,-0.9971636453075506,1.1000476500456364,0.530547188987615,1.5279377021808171,2.64520668875306,-3.4948055099399036
17,-1.7347266890730924,-3.241540383176723,-1.0596330627497264,-2.0634931917186554,-0.2654813679592681,-0.5111078402659127,-2.8414632000834783,-1.8831886060658267,-3.6880665038747007,-3.7398603802313555,-4.011145023730911,-0.8645633858656113,-5.008485693660672,2.71137044102919
18,-0.5074715153605116,-0.6486528146556156,0.2876730291208115,1.4813625483224568,-0.5929304477667633,1.4585752037847923,3.1897946810030704,-0.11903049887344339,1.4206124216094946,-0.49818651128878466,0.2589996763985397,-1.830880388547666,-1.6413208401954757,2.4799600835715627
19,1.4690193085716041,3.087954787883688,1.2023997238048127,1.3751277637466643,1.1554524048370889,0.03736153947012394,2.184404641644442,2.396031426636142,2.8905771312275883,3.750282094592444,3.9041788615255975,0.6887497898998955,5.367383324824763,-2.704738900028964
20,0.25718950515067374,-0.534787087228762,-0.05145061666291107,-1.4437893828457047,0.0453258463253608,-1.1916211348722108,-3.323031847076643,0.20727411349414138,-1.2339675398702565,0.017099853927843998,-0.8667896597859637,2.1528964486717332,0.4914558346418398,-1.250139277432297
21,-1.0667707759970526,-2.3437834993308457,-1.58542931569194,-0.690071780177702,-1.910421356527535,0.2587120201337933,-1.5252212521526536,-3.0376061367017466,-2.2398383784223364,-3.461895368279682,-3.424777589680443,-0.7427786717640275,-5.178123099017844,1.5915619805900036
22,-0.30401511853065577,1.3969091021034705,0.007278753119869728,1.0922110909601934,0.8896841267056491,0.6703286306287933,2.9302716141195204,0.0036832941487616776,0.5751326821918642,0.17604947228451828,1.0950677064613257,-2.342471231452171,0.5007994477835322,0.5783348414603758
23,0.6959079123864773,1.178469507797952,2.073771113163339,0.1930720326869187,2.291773980070067,-0.2044649215426195,1.216273760857501,3.638862049066229,2.092448913149658,3.114672706663038,2.8545139816002423,0.9792996456810098,4.60573108081753,0.23083426114400452
24,0.6378834264730101,-1.7103309413926433,-0.2785962701478057,-0.5388336394885331,-2.0348113369035263,-0.10989639790991758,-2.311854551530922,-0.5858262631633746,0.14864555044328065,-0.0980123776748753,-0.9606287468955391,2.2738993233244473,-1.1595999746299561,-0.9814677411132005
25,-0.5009679779704478,0.13092808711581833,-2.415226278744349,-0.001679307676272415,-2.1374395260252683,-0.2371130949609108,-1.3859932273099267,-3.939167554157882,-2.502993177299931,-2.9189329691006347,-2.439183669896095,-1.2477104166482382,-3.890014048381778,-1.985614991708749
26,-1.1948859158497658,1.3622138194967632,0.7923041346849539,-0.04024198237172372,3.0903242862639253,-0.2540232671610483,1.8493975479640319,1.4078427597245466,-0.5002715145200891,-0.09413293638298648,0.644949398644308,-1.9322086293792324,1.4550058528563588,2.438887382646322
27,0.5981858343339906,-1.2370549539480784,2.3913480902461552,0.1304774973384511,1.4572740818993244,0.9591925242797271,1.8869656070372942,3.745329187484339,3.211110036132426,2.968495350447588,2.281806109770726,1.378259836683535,3.262073112534337,2.894890547204703
28,1.872579781594361,-0.39964282520163863,-1.2874101990001958,0.46823247127860684,-3.735951878266362,0.2624610768241793,-1.796557052729696,-2.162705496540491,0.2531168844978221,0.196002648506484,-0.3765248819983722,1.4321280792904774,-1.4818778247751987,-4.377036451675667
29,-1.079384044883353,1.7881599429134802,-1.9700108433457943,-0.4936682917040418,-0.4654734987077286,-1.7691335943283648,-2.400239543792578,-3.081063560096105,-3.807676750994182,-3.2232442974979154,-2.3242834618985517,-1.2811390342274642,-2.881431436393869,-2.5754186212311203
30,-2.5144648940741208,-0.9358673764959253,1.4516645268073995,-0.6239426420847868,3.771338149095643,0.11923596819328795,2.1604050819462217,2.5264060901442917,0.5067409371555838,-0.04216182713023894,0.3145332188307515,-0.9561034516551503,1.4201789096244237,5.94182566108817
31,1.9815423614491274,-1.5392667632770582,1.3541259911677028,0.937378069376512,-0.4887962724160799,2.470546311134872,2.6184816293502617,2.2134356446601124,3.963918691896486,3.539731822455481,2.4061823988455453,0.9945162910147963,2.7869730335701233,1.2402748578344414
32,2.904807255762258,2.2343860182046047,-1.1061055180395507,0.47747346520640455,-3.2174288685896024,-0.8146112668826994,-2.7245284083403147,-2.350449815938027,-1.4556925393851297,-0.4391466590568703,-0.4847427409443727,0.6531214353595294,-1.4720656523108058,-6.421268384870163
33,-3.2233029188034372,0.47558726311097105,-0.8853343125627375,-1.2894144139573964,1.0695592735338926,-2.923881609907743,-2.399852708374368,-1.5239151031811227,-3.589313781637103,-3.721392282300156,-2.3590920644507776,-0.6516455980875502,-2.8733684395513,0.40388658844237924
34,-2.8218667864329823,-3.0377200204975683,0.3195819098853659,-0.09991819223360798,2.31361517111149,1.6847707392508657,3.1789310721752724,1.7601576895055815,2.2191849629757097,1.1985913892951332,0.7840279998316896,-0.5664460202059524,1.7728201559061074,5.5954353820072305
35,4.562697655742166,1.1267329724984934,0.8574864898899482,1.4154151703045597,-1.1032208585728,3.0664927744734105,1.8212445293426975,1.2985213108716178,2.846756157261586,3.5789314751807675,2.0909544885372204,0.3935805356122791,2.923714531789292,-1.5090019513601456
36,2.149300675929047,3.0257043143134887,0.6220010318233353,-0.35601761850284513,-1.405731221907311,-2.576922580422123,-3.2750195398605895,-1.0905438434952794,-2.556839532845322,-2.061296830495123,-1.0397078424622646,0.6356431809278684,-2.306030649433876,-3.830423209529934
37,-5.638446436458614,-2.7669286671209656,-1.354997601597283,-1.2682299693650247,0.6455924282669818,-2.9035304722575312,-1.1245286543827644,-1.5669550454360375,-2.0403887342656826,-3.0027937152067783,-1.6280097509926257,-0.2900439452841166,-2.711315825663943,1.4979902977596098
38,-0.9834361666195721,-2.1795403599441974,-1.3734400986144735,0.7044166137463457,0.7865034604394217,3.3542067229256523,2.9316440435881197,0.6968379022572991,2.4552057144276715,2.758186627337381,1.0927522812671278,-0.764306029281915,2.879693309860157,1.8747385217878474
39,6.1067573941831235,3.9114307310449936,2.214967414488449,0.9126323016784732,0.06709212396564433,2.4915552328306507,0.5984737443980422,2.088856594482786,1.4502207168152617,2.0347000667275994,1.1021719650685347,0.3219557298269928,2.1331819726875385,-0.32076323653822936
40,-0.34683602888093007,0.8225524239635031,1.716206913117945,-0.793257980619768,-0.5761559249716319,-3.9113992954673518,-2.257374253269523,-0.7541340397025882,-2.097024788759542,-3.008343961647627,-0.8693965522855261,0.899096723083098,-3.2006413442805903,-0.47844965054557315
41,-5.813490927132757,-4.229428054412532,-3.132282877906639,-0.5094069695606891,-0.7483232713953923,-1.9251200760301794,-0.45414698046505725,-2.493068367473924,-1.1998909529874442,-0.9003434589781254,-0.6928687845062845,-0.4326365073622248,-1.2990617452771698,-1.570212041448736
42,1.388886700103619,0.5059245298139583,-1.65894617981876,0.5662371256174887,0.7012661503061797,4.188898213728225,1.493906258223571,1.1628355060112119,1.7370893197604698,2.6400050991132873,0.4124478351118472,-1.0599339534743402,3.0247501390530362,0.04578607643001621
43,4.901969641519826,3.7501426011168957,3.837779107082076,0.2579926660190083,1.1962453356413474,1.320413909554924,0.7414212142382229,2.486003113209693,1.218240272926134,-0.03686166585316105,0.5503648648975901,0.6040603316863408,0.5121589430843567,3.4909196947863985
44,-1.7663615089820455,-1.295867115847981,1.3967250485673957,-0.09052174473914254,-0.9691748642126518,-4.186849155696913,-0.9107407849094585,-1.6097303358762747,-1.5551034943331379,-1.6993043195155761,0.13900004197489824,1.2986166566470556,-2.3047142822895506,-0.5009168842604221
45,-3.7800888147061382,-2.8495659671622358,-4.237887130943104,-0.31893190044475256,-1.3649671728179402,-0.7874302316406405,-1.3336454491843523,-2.010980773873451,-1.3071586227006122,0.4063481005297303,-0.7354587609361543,-0.8952853502085902,-0.13790252081059182,-4.876962243390358
46,1.3686074081664394,1.3094489690401194,-1.1636756471184984,-0.4655551724959665,1.184882531494885,3.967304480731999,0.6928682411428995,1.744778083098365,1.5634443146232595,0.4811741903887429,-0.6091193544891976,-1.6177466734061983,1.2495350513495094,1.4150574640310585
47,2.945646441591879,2.0622051988554806,4.43389610806814,0.7506730785510806,1.3484449895812343,0.39479766550353956,1.9839037644628181,1.2745696923773384,1.2747352017067273,0.0018135466402221228,1.2016965923009013,1.4064894686587943,0.4237872855775229,5.5173310178439
48,-0.42085608845286465,-0.6910030929757887,1.0776607182117224,0.895919883741985,-1.245009605568045,-3.6314722634796026,-0.8643684227749837,-1.3729806946043117,-1.617774549574869,0.5552962638173103,0.8532895978381335,1.915265074473487,-0.2564278127801247,-2.291007170666027
49,-2.7526065758334832,-1.8113950252241204,-4.617948736562696,-1.4885479961057393,-1.3018916323305483,-0.14579188593798761,-2.431301307557362,-0.6324093959706236,-1.057469019236644,-1.113239314631717,-1.8231701364679767,-2.1871108513860276,-1.3625666645437193,-5.559478976528755
50,-0.6139648152601029,-0.11886570361873232,-1.074372182703653,-1.0317216082585317,1.168049283198617,3.2744794401768007,1.279807757740486,0.5586066481817707,1.5216327072232163,-0.9660988760698951,-0.8019508686198241,-2.0068057928697356,-0.2551235018809361,2.821568115531868
51,3.24244369449584,2.201702442253227,4.919455415222086,2.3710014739057783,1.351107091526715,-0.014756527622252534,2.514382390113726,0.4017977624366162,0.7604037159263467,2.561785391103915,2.4470807809701904,3.1526474332059653,2.6681373948323075,5.321621388762701
52,1.2562728184712133,0.6192244830137132,0.966462470708111,0.7957451855522761,-1.0599928935259144,-2.939755914956253,-1.6900472453676454,0.4083537058326661,-1.1617547796674124,0.5190984875225834,0.4651683740289696,1.7242532508849555,0.027958209831661397,-2.9777278005217886
53,-4.134232219159517,-2.9845487857244426,-5.30207908653691,-3.1954002705006856,-1.5345390737681777,0.1589975025006043,-2.2415583878279786,-0.7027952526869915,-0.5913989254447475,-3.8183367722424246,-2.9409139787670964,-4.077045725583185,-3.876273913329848,-5.060446700546061
54,-1.2352333328847447,-0.503935363896906,-0.5832946300896261,-0.21958617088851964,1.0451921347350828,2.602540323937626,1.855822584766542,-1.1578411600297114,0.5922636879867672,0.6885432134992258,0.09282203519335062,-1.030764333581106,0.9146105507675882,2.9090601560837337
55,4.977805698028218,3.7086266298920383,5.573796687889977,3.7773160122378036,1.7970456401978483,-0.3204365258540472,1.7839024810044521,1.4074509501375931,0.7287761123749709,4.4056250421173395,3.213986432152224,4.680032930838844,4.5238328781574415,4.8475147997573975
56,0.5968511636684296,-0.202054168413582,-0.10009932171374059,-0.5727653632625805,-1.2011607638986599,-2.19821756938746,-1.6569993825081348,1.4148658317927065,-0.016174540293363713,-2.2573086829628943,-0.7847666290179397,0.07357854799416533,-2.2674541373257484,-2.762318938034831
57,-5.379740772816151,-3.9607857348254574,-5.498198346629907,-3.9947871491144515,-2.0262053137049314,0.45961180783121347,-1.391305110464987,-2.212818767836983,-1.2014903814718476,-4.098211269127497,-3.213539428141457,-4.762229739374996,-4.327580813242457,-4.609389940074004
58,0.35551245705834394,1.187249767329987,0.9230551595798963,1.4002219657944293,1.5244496025744783,1.6822410724549803,1.1440450657914365,-1.1139147038669992,-0.32617230047628354,3.6499671829056806,1.5160560486530776,0.8662258536538552,3.5555484231844603,2.559894806625641
59,5.173707673250473,3.5588488330527217,4.93415066122268,3.8127644263319267,2.105885215576857,-0.47848035189253063,1.2723477034986326,2.786815663851153,1.8535425012361118,3.008188443781039,2.912349813909342,4.304710717212917,3.288790137417457,4.2634567015131655
60,-1.2380313370361804,-2.032407771740905,-1.6063075337942814,-2.066533179483522,-1.9339299411195836,-1.0834557003974594,-0.5058415004614606,0.4052076253160919,0.2973713576944488,-4.413488468096176,-2.1807513660102673,-1.4987618209647238,-4.308224182870558,-2.210929123017868
61,-4.450119184320947,-2.6017431773188906,-3.921397038039997,-3.290745331478782,-1.9624059725366771,0.2804878267628221,-1.498578429701336,-2.9059958572952445,-2.4148559075761664,-1.5162196039512637,-2.3080278890104466,-3.4732027679862023,-1.6863362276400222,-3.825625161050957
62,1.7671374542620928,2.40778932867899,1.8797709592531657,2.4048878348040623,2.300962029218141,0.5120111055059386,-0.028233069638204905,0.4316881157832958,0.048756589320000245,4.34686997480786,2.652363253723806,1.64817541748881,4.223385852619413,1.6168441718034958
63,3.4534832877584725,1.378720060107076,2.6715057921996554,2.57410310757714,1.590392079193167,0.15985658028389835,1.9808008499421983,2.5238368443399617,2.639220251657326,0.09186785622619581,1.4420832617652486,2.5328559709118212,-0.029958381481259927,3.4108426879908755
64,-1.8440956049387818,-2.18429651430549,-1.5978301498575314,-2.3233921388306,-2.4905544371720016,-0.11118302992711133,0.29921798132390387,-1.1087104670784533,-0.4809139810895952,-3.537619665432856,-2.7914835533780953,-1.3047111689027329,-3.2605532000289053,-0.7684734258478287
65,-2.4339248508295066,-0.2185030400941426,-1.4818027739957498,-1.8634928607687828,-1.0572048580336613,-0.7642469822759113,-2.5247434575107577,-1.7565066779853171,-2.432545428999743,0.896310037020804,-0.4266816032302394,-1.7355698145674467,1.3959130971146942,-3.1448110386701678
66,1.5193862240803386,1.4271110500851836,0.7894947537561214,1.8412997669174012,2.401686096953901,-0.01922981326906944,-0.2856300865038413,1.425162181550528,0.6977846387122251,2.2678932532157923,2.483187445778111,0.5933696238590748,1.6368542160038695,-0.24371832421087591
67,1.5512255682682443,-0.6283589825693149,0.62512449657825,1.3591412086573669,0.4893617491579683,1.3786275270287576,2.931131912872482,0.8152992007888286,1.9031885202796006,-1.2870489167966812,-0.5473346038840149,1.2462317480961833,-2.077822592011426,3.073572827189531
68,-0.8938568693780542,-0.31608287162864,0.36461636443607853,-1.0961903028814348,-2.0003513070153898,-0.1201592384872412,0.09783642488353132,-1.3092260426505213,-0.47023895302739493,-0.8619853599885702,-1.6951768940519445,0.2974698851617702,0.25962448312084885,1.3032426867897757
69,-0.8749179650623379,1.0295247368584284,-0.26564113550714996,-1.1924961797004792,-0.043160275908102334,-1.8467966607334285,-3.086736313124869,0.07138609103900556,-1.313227255911889,1.1157777574183436,1.2437124783972628,-1.1302120470013457,1.9583251085720563,-3.1488661765102917
70,0.043694938602819706,-0.9360068873894669,-1.6011566638974715,0.30662939224180097,1.3398675864497274,0.4272539514022952,0.08931072151261238,0.8103918587917114,-0.25331281579673415,-0.43384919088798446,0.5269375485300475,-1.1715642504472972,-1.9975100989774905,-2.3530838326392183
71,0.44820105880758343,-0.9517373361980519,0.42403995769463176,1.3750129344893576,-0.13839539135976034,2.0857924109095305,3.005469609139137,-0.7167127820890613,0.9629885700512542,-0.524490827742051,-1.4553985726870005,1.3740985978860445,-1.1453091542188991,3.298321982335778
72,0.9790539662863643,2.1244794952599104,2.6523360182696027,0.3024523786886958,-0.5608945915230851,-0.7547848906469882,-0.1279023055995517,-0.06601148157961297,1.3214069779086919,1.4857705633648586,0.7840734299716418,1.8426252265522716,3.223228915296154,3.4150962050330413
73,-0.34178169966988425,0.43108626183086785,-0.9876155906424877,-1.7934026286217795,-0.024635024744572312,-2.118530662488192,-2.807552119962513,1.0075550988853579,-1.0671067995367534,-0.3339853422766985,1.0933483192924591,-1.8965753789339805,-0.08474829275704054,-3.5185092351254568
74,-2.0867084058273817,-3.05957867410679,-3.3090976029061525,-0.5790025738214373,-0.1361232340696115,0.9909560435833588,-0.02904741219934735,-0.7376035646301715,-2.4326826802455366,-2.230605666675531,-1.9164929452604231,-2.137988560164828,-3.7406503186472597,-4.520827496226862
75,0.6413039828807643,0.4343548060043513,1.747604065552944,2.2565369598409784,0.5072691171714725,2.0443640276578945,2.650578834963941,-0.9182263703344509,1.6696732888051273,1.3370496570531265,-0.24820303034070465,2.5342309241740404,1.3790404750800649,3.9072990755935524
76,3.1023337118978027,3.574381952118673,3.4622591477154305,0.48959378998404596,0.5468573117424392,-1.1166071130568522,0.3007994767394515,1.4028418924582533,3.2377707250102876,2.6147828125450996,2.5681806059274326,1.9280952951316912,3.5366266491811382,5.604976086285307
77,-1.3706477699175097,-1.4751810225549584,-2.4487017387990773,-2.5687663826998564,-1.1648776375793117,-1.9643630765094697,-2.6411616398466777,0.514643409740259,-2.618333144945615,-2.3673796033004555,-0.8096936737589123,-3.0300305003292674,-2.403396689195315,-4.594067482424686
78,-3.774698916979149,-3.5593231339482343,-3.1246208526352017,-0.11449429122695653,-0.535729198699111,1.2037252585295817,-0.5120361828360677,-1.7609728058963505,-3.45587021042159,-2.5753230701416467,-2.571833155590085,-1.1955830734770232,-2.759689993330967,-6.45131043293182
79,2.4088013326037214,2.4570519792358865,2.8453560443038093,2.592530958815719,1.761382476752945,1.905908209774572,2.7629171464913607,0.051992116113315,3.5978466550024195,3.26250961197359,1.7033032293108181,3.071384028235208,2.916990195650615,5.603634760779151
80,3.8739506183785783,3.013929261826068,2.434648788579693,-0.3950743502921241,0.10020401009386855,-1.3541065572072386,0.47912405313785794,1.7168988117197586,2.9780875810923897,2.0863508504054953,1.9753142451766965,0.10960850608171731,1.6682478646905639,6.75452354128325
81,-3.471257879629485,-3.128727096796206,-2.764070321310631,-2.277266174799436,-2.042215166164686,-1.7941308990673217,-2.857142268969036,-0.5718129983829512,-4.217810243338422,-3.8014537130484642,-2.0766110177483688,-2.3997171951928578,-2.817045012273727,-6.749233447061158
82,-3.31903460744809,-2.0776807471499494,-1.633443681057531,0.8692324218443973,0.6046347845532541,1.6137925107616529,-0.11906337039427886,-1.2885891178046391,-1.930285616097137,-1.2387968884638254,-1.0465108748602772,0.9602008329936957,-0.5630061668307598,-6.283272186864656
83,4.189181985566278,3.303596958445153,2.163375279252279,1.6561300403057486,1.831958822042876,1.4913502022345342,2.6794190684950023,0.8301672465441317,4.142272620307994,3.7666821106238557,1.7323030680824856,0.9573419731027538,2.151165216615691,7.645617396997907
84,2.2583253705553794,1.0049102862476773,1.0045760165854112,-1.1598802044669296,-1.3034611617481666,-1.9157186860845448,-0.470525285885976,0.6205551303539542,0.665950764358641,0.2844932924859689,0.18863155480395394,-1.5394908391879611,-0.2853575009119574,5.051306158190631
85,-4.256877294552102,-2.9334076477540356,-1.1682784238191593,-0.8262847480209875,-1.1169765642449465,-0.8844509612949121,-2.0226933849447377,-0.6798269088477384,-3.229828658763348,-3.062025191482427,-0.7218637254131403,1.0105064812691293,-1.0961097152959518,-7.8615715174670004
86,-1.0468481281642932,-0.08315151812473594,-0.7811539242311488,1.1647707356921775,1.6965265343175397,2.087798818702431,1.014085895586884,0.04682561040950538,0.3297382402133973,0.4126707514799341,0.20984422452212106,1.2414877026040447,0.7004546727345936,-3.3826315046597046
87,3.572529354500376,2.1293777833632745,0.05035235172450127,-0.07416223032928314,0.07047369665562127,-0.029328811242816062,0.8546042825315086,0.1044984383339453,1.6307068651274879,1.8144238116128055,-0.658477050608146,-2.9809098204173305,-0.09534762910284736,7.137449866848181
88,0.12153155267452014,-0.4666951394371187,1.0507573344201473,-0.8413927744929574,-1.5791853891411085,-1.925985356609816,-1.1659100676482637,-0.4523125588240772,-0.6113461778441475,-0.5183576876089924,0.06877860206742274,0.028771185538958285,-0.6390510996185967,1.8129187297586589
89,-2.297868485429793,-1.1166373445733873,0.8576951738494377,0.8897876845007427,1.0011587258691363,1.1069300947759158,0.6094391599901184,0.7588673973803051,0.2155800708040512,-0.3803171294442536,1.9754769185853214,4.329938903655649,1.1681461864190688,-5.543212237465837
90,0.16816427635411899,0.5580583484659228,-1.70559933441235,0.2156765198000666,0.9322413019178775,1.2960631655445718,0.6870912449417604,0.4093168223425799,-0.03568031257073051,-0.10539146792804896,-0.9805815335671582,-1.9734730393317585,0.18960315856268764,-0.8674262615633761
91,0.8061424014731234,0.14844295403069432,-1.2877691295867115,-1.4752414250786692,-1.7744970818927965,-2.0952781294396567,-1.958860067316786,-1.6576105177646312,-1.7082474365531946,-0.7728201531157098,-2.829731521972221,-4.597177508707137,-1.9364337127460767,3.4815229207584513
92,0.3038391100229451,-0.24702673171047412,2.473105164378124,0.6167864584038983,0.06151311533881129,-0.21422936341647567,0.39794801187301265,0.11731404819992834,1.4679489608784888,1.3054747608702553,2.2416778203037673,3.981465331365432,0.47098503246485596,0.8304485367827251
93,0.4555945007932797,0.5746163694043993,1.1466169856104154,1.7269152261638185,2.0386610031234382,2.7239300258339347,2.7640226756073067,2.312385033180762,2.308817514388206,1.2623085044579263,3.012132995750767,3.710493771487829,2.3270767244193387,-1.5288983019261502
94,-1.3944958017907223,-0.3089933898821977,-3.02240624682809,-1.50386392375629,-1.086516347639736,-1.131962349518483,-1.763625476310251,-0.9893067446866872,-3.195178892485952,-2.6803384638341536,-3.455689399096024,-5.373593905804629,-1.1456958486112736,-1.6252961063508637
95,-1.1276596452694825,-0.9488838386554772,-0.5548927668794796,-1.6123601617149173,-1.780050785458966,-2.815464104332555,-2.7954708017447905,-2.5232759168359267,-1.7737648129346881,-0.9626409957168174,-2.5697882189873518,-2.046383603552293,-2.3798049147694464,0.19709578013298612
96,2.747632117026098,0.9108415669728237,3.0990797139930253,2.2682177753267263,1.8209971889527352,2.4345819214206563,2.9078423244638762,1.9419433642801047,4.5500261000666935,3.7482757192224763,4.283327895621815,5.70396283097523,1.6822477720323223,2.8590273987065986
97,1.0586916165558755,0.9730998701059299,-0.20556765720253184,1.186239677045457,1.1837929555353375,2.3675699744089362,2.1646350822301095,2.2473592322703504,0.2861338508754204,0.060218660781896007,1.7509921732442124,0.2768254653657061,2.2076480264789042,0.2669568262350171
98,-3.921375755026786,-1.3688028215253907,-2.6234168425415962,-2.7522925608802065,-2.065513046415743,-3.37219441989925,-3.390081164078964,-2.683336136808897,-4.959610945022408,-4.156869278864987,-4.56591871725074,-4.963910121327252,-2.0078004548087063,-3.998238829310822
99,-0.34762566362907,-0.7322635132597954,0.8084854993168659,-0.5830057216033774,-0.5513780491039444,-1.5700757152241993,-1.2949494668016788,-1.6125543525884167,1.592368861925084,1.0400382490696531,-0.8662698660720689,0.9345384107720615,-1.9394861362448312,0.044239826561252915
100,4.536142489787546,1.5388564669471858,1.7091995612955013,2.8644070393509065,1.8176567939891102,3.733652026604898,3.059963510665286,3.0045041120224742,4.199244718063767,3.825771057922946,4.343572729585146,3.5752722317224777,2.1230424482485524,4.584748652643298
101,-0.6991019402763812,0.3752566368667697,-1.0054919128851725,-0.01659274118687551,0.17107035003862284,0.7426223511554069,0.7235604532926577,0.8609764611755497,-3.1457990790880626,-1.9052989272580843,0.14907658242015087,-1.2365227852939098,1.674124407283524,-0.7663147548929636
102,-4.394434284496428,-1.3518603902367732,-0.605369616718466,-2.610056707756695,-1.261833044782806,-3.5079155367770984,-2.148438214792061,-2.8528301542359547,-2.5019304883660625,-2.9542338656951634,-3.7754184945530445,-2.1676935382735922,-2.0679494361358874,-4.397848143086929
103,1.6744528793465545,-0.08658931457595745,0.7011970717021817,0.4384344847383255,-0.19774183604092163,-0.21064226253254587,-0.8317711405216888,-0.2474366894155814,3.8086202092764214,2.2618634267128725,0.3080746304503759,0.7344522013653202,-1.4662010393847256,1.4258774740375646
104,3.5387747030180514,0.8400575527820062,-0.39962999401781724,2.0946101795801186,0.6804278267758368,2.895468196457986,1.1648945368019819,2.3381263023023386,0.46033743982270686,1.9000881290671492,3.027935569178211,1.2545159183489858,1.8869684375671827,3.509524641383469
105,-2.2060413583830334,0.042173453543851006,0.03768549428833935,-0.5714767476551762,0.5943351944254913,0.16909962263907358,1.6466176122456873,-0.06105881941118352,-3.403633965158269,-2.0867597011734067,-0.5236947379622489,0.10491715433553611,1.3416592877166806,-1.6242754926013168
106,-2.2329283800328827,-0.1486530331357166,1.064921635706611,-1.4911878028504713,-0.32704254916228676,-2.2265654006669298,-0.6491468643868031,-1.6717902349036777,1.2364211380628487,-1.002672946475682,-2.2062616054613806,-0.9830730757963351,-1.6175061356202047,-2.228912333185733
107,2.0785977608247252,-0.34632725378909274,-1.0219703820999086,0.4064769641428941,-1.1598692380644067,-0.5980931781320503,-2.8197625755097486,0.04079172895457245,2.195052267916159,1.5700343716699265,0.5488875723732447,-0.7345669584543567,-1.3195943623747615,1.1754506169447507
108,0.8716009845885944,-0.49110578253069725,-1.2517897890365233,0.9807848768092442,0.3196505408024807,1.8170764660130514,0.9060428336201882,1.069996840896454,-2.1003367301769083,0.44328884183487377,1.359505895786213,1.0969308700420666,1.3033355219364484,0.9691000642985269
109,-1.304898884631621,0.9701688184859113,1.9986741781285136,-0.03833580652072732,1.6290573126214176,1.2766810266916275,3.7949398754049892,0.19963373853074398,-0.7360753220335867,-0.9840741740020134,-0.40866263745659426,0.8348705503964926,1.4155595578371818,-0.15619320419381194
110,0.15469418167298482,0.8397124545774268,0.947916324988682,-0.6866847627851699,-0.602204180808698,-1.8306353990611797,-1.8586428466603107,-0.6669039730820117,2.0291489657934205,-0.20647859868604287,-0.5321293230000119,-1.1272852698669291,-1.0111547258752087,-0.08889839573664444
111,0.11837846883280144,-1.731289451041295,-2.711844587372119,-0.3733205678885574,-1.794163920244728,-1.8927335220754982,-4.075817057182901,-0.48602132194271724,-0.4009283147559954,0.5393043808311591,0.10158467256627912,-0.472905833685385,-1.621905746902654,-1.1426272266482764
112,-0.5941336878130232,-0.7570786707603216,-0.27073665162888916,0.632343558526941,0.9888575468922147,2.2187267795214427,3.090709687214629,0.4763316216332803,-1.2977068301609738,0.14543391172916217,-0.19527368396104902,0.6980521276183486,0.824870404076727,-0.23230818755795674
113,1.1153298488475654,2.348023334935542,2.965626081030831,0.6706317798644105,1.589968389421799,2.192384946284985,3.45726168289208,0.6647177530170548,0.8699008228759696,-0.30177359321018493,0.3565671785205415,0.02633879785211131,1.8858714524541176,2.342213465748055
114,0.41562754276997355,0.28559112490019223,-0.5526904850613389,-0.7431978538365771,-1.262631856720514,-2.7690790008645934,-4.048684779842561,-0.413941443617228,0.3826076658978598,-0.0996949214322447,0.7138919944583851,0.23614095228508894,-0.8127365503847983,0.03901856615921106
115,-2.038282733887964,-2.5622438621684474,-2.6882329869379666,-0.7610345528025712,-1.1051965798002377,-2.0887013259902196,-2.1096441671245487,-0.6655730320978175,-0.6597521953280817,0.20497579464310872,-0.8925135898251525,0.07620545486543573,-2.1124241993554573,-3.126805507415356
116,0.19819809288952092,0.35013823603360433,1.242826579683822,0.8909736937572713,1.2751189263540867,3.2299838688299536,4.2945551649528495,0.36059247410444933,0.2730096014015126,-0.00816717025697419,-0.9365810782887111,-1.358380425167701,0.9892200899697687,0.4527330571191996
117,2.434557434509165,2.2737259489078654,1.975464340118047,0.6482582488051438,0.5250913680615249,1.6749841137673769,0.48883293030447067,0.5153156036910391,0.038440794530414775,-0.1326887708325902,1.3770682030717476,0.36096842180888317,2.1993023584066234,3.3532938733988154
118,-0.9470165692762937,-0.8464280913379746,-1.5637926625701473,-0.9574407439060478,-1.0005856783998697,-3.4359920718624983,-3.6865931729250256,-0.22911654273537463,-0.43653615395774,0.14888504953302528,0.8498454996544103,2.1802406075245035,-1.3019916307680763,-0.9754322223507977
119,-2.2974514495890634,-1.6048015823461694,-1.077663350066381,-0.4181232558924694,-0.043247612994665334,-1.1475663482966822,0.8674423250953499,-0.303594685994679,0.6119810812606502,0.012433793457660745,-1.6697008067010515,-1.1639909764846161,-2.0834472826361794,-3.0720234329731144
120,1.5536642226050432,0.9813788907300343,1.4277497247135014,0.8864933497446902,0.529060131401538,3.3679270826833827,2.4163203447270885,0.0012395940150845182,0.13787379199491043,-0.2383048890171581,-0.5300109165498025,-2.338599848972088,1.6566545403198139,1.3341498823818851
121,1.7964624523218071,0.8431651981995236,0.3099507533686488,0.18933892697385807,-0.21262020030403886,0.694263563907861,-1.5526212770170265,0.12755073749620843,-0.9758835049078073,0.13998719200068427,1.6749292589220666,1.8820108599403438,1.7665509927300407,2.4585536621012616
122,-1.8784012989042513,-0.7404774369986178,-0.9498837659864676,-0.7019170715564456,-0.015305495189059397,-3.128756350694743,-0.9085022652243375,0.27667630847649116,0.39939317937649144,0.219843869438701,0.11539771797479252,1.819329566336797,-1.9627794895647028,-1.471607929649134
123,-1.1636670542179701,-0.2837649595050252,0.0882296229479055,-0.055201028361889205,0.21438993583044838,-0.41361004114104344,1.4257046348750662,-0.04609610077806501,0.9210898626925732,-0.24725406878527903,-1.3762022141377388,-2.0527161208268736,-1.302955063500701,-1.704379752102904
124,1.9461146779154868,0.3232710979754766,0.4061602318282311,0.48613589399074886,-0.38520850768200365,2.8680405600249785,-0.35188715246822805,-0.5271026583485943,-0.892672920663475,-0.11696523515969819,0.24403426512132334,-0.9732880464411713,2.168991966993651,1.4492930637135475
125,0.5669389013359399,0.061385439305844204,-0.07332683363157695,0.043739994804755676,-0.025157258056193003,0.2968714999205308,-0.6315849849203612,0.06254675061738559,-0.51772357481084,0.24152345638535408,0.8348181196561834,1.4800674381850478,0.7619854600204389,0.9316466219435089
126,-1.876714752290675,-0.017748082351770188,-0.09784941746190964,-0.33316184782492064,0.5676200433101367,-2.7063743338506505,0.9894727405215602,0.6811980160761024,1.1319731936569781,0.02041352259579129,-0.4309612971740509,0.3161119775671693,-2.26522423645741,-1.369864538509419
127,-0.046691202981922884,-0.08091453179712321,-0.17781532584596485,-0.11292034868614474,-0.2368280215931302,-0.2609324097097988,-0.4767697039978859,-0.13553922002743188,-0.029446384222353145,-0.12416696655556603,-0.16522654136722864,-0.3567085536434131,-0.19484882255172772,-0.17310037651893367
