,AF3,F7,F3,FC5,T7,P7,O1,O2,P8,T8,FC6,F4,F8,AF4
0,0.15822151139364488,-0.031120468147820206,-0.022524745264794616,0.09147177590701724,0.022589493141930594,0.03283057334258146,0.05141377613093809,-0.0230144493519805,-0.071712983539588,-0.06129385936082627,0.0041244578701676755,-0.021347457150811915,0.03147340033063894,0.08245161354211704
1,2.8387757864530463,2.4737667356953144,0.8736920539679499,-0.5288345528500272,-1.5193497459931726,-2.9967556862855798,1.622746097186708,-3.06634680440684,-4.157130747003498,-1.7777336061867792,-0.7832239455323255,2.3361236484986883,-3.322586182514064,-0.6391848972359423
2,-1.70727013835595,-0.015409509836271078,-0.2079173344414586,-0.31542476715705475,0.5722750911196679,0.3140967268942093,0.18008827033171,1.3492506282044292,1.2202014236605656,-0.07548763673192818,0.26883213787480825,-1.368087028940202,0.5875099425682687,-0.34402395769627714
3,-2.2568085751520446,-2.0603281870889867,-0.804135487836716,0.9416361346029499,1.3969941809674706,2.9581626355020134,-1.6384212083468084,2.405930090161222,3.635923353566275,1.9092472035544117,0.8001662859724941,-1.5843761934638525,3.251458096625132,0.8556946317105624
4,2.8909242776964543,-0.1894208562667181,0.39954988875777353,0.1834437239356026,-1.1149723135259917,-0.7343762069243795,-0.34617509633900806,-2.2876861015828034,-2.06960501560998,0.13264056663951948,-0.597081732281157,2.3185720086041464,-1.17869870804237,0.4677041515364216
5,1.3248435660711289,1.3811838532000518,0.6788836503552294,-1.4820893023577373,-1.1410660168305091,-2.7952393286505446,1.6244641419250063,-1.3021498348473695,-2.773877559330092,-2.126705096313417,-0.7997993070075738,0.3192566454758374,-3.1060439000796323,-1.182986191116605
6,-3.5107487967206072,0.8111310194744238,-0.52131096452762,0.43919650375384894,1.5323794351216689,1.2201380258024284,0.41819734265558056,2.5849788100778066,2.43221747095782,-0.06908437338825744,0.9881667453728196,-2.531878230202408,1.6927202788007047,-0.39703608157735587
7,-0.368487849902606,-0.7314722217593447,-0.5271676289208417,1.7551698420643422,0.7690338247803442,2.404224822615821,-1.4936848016194748,0.11758548351261672,1.8353991991566923,2.3464193446613155,0.7039761667436442,1.027263021205238,2.905305643648026,1.5063407856783972
8,3.5648794477078543,-1.8371999658593001,0.5600649394274957,-1.3918115622972065,-1.7406787420967504,-1.6645393820164414,-0.44572708633699337,-2.2119536040704193,-2.28007423736131,-0.09086785533157316,-1.3679101707700756,1.9758345415788636,-2.0802942813421255,0.15599812374796765
9,-0.2993069199828292,0.41758351700296353,0.3810986649810939,-1.470021382639097,-0.3478485652504512,-1.7486287106379925,1.1962253349886192,0.7817613114476062,-1.0881267238594683,-2.516694554361432,-0.4902777024917306,-2.011184879342582,-2.7094516765925256,-1.7400926755541644
10,-3.24283220139694,3.068928769771148,-0.521431581352659,2.2910219661610705,1.682777556483724,1.9053047512570058,0.5283816923729159,1.3635995591171286,1.7433468854642078,0.29381826888057017,1.6299226338348984,-0.8894936810292733,2.3383936978895092,0.17609632714067452
11,0.5008422381373197,-0.6421011397520646,-0.2668701540771279,0.6100553109558282,-0.006280488564794423,0.9147181514206614,-0.7604272721070571,-1.1650603494298324,0.7088869158473222,2.63552622484055,0.21908264028350466,2.339238738149037,2.5879375239395626,1.8652511748341543
12,2.8410612518216887,-4.17998793706141,0.425764496671223,-2.7283818086617107,-1.375162818826565,-1.815722534509024,-0.7565053260099032,-0.3694081729231495,-1.0488191572823506,-0.506910053958346,-1.7103940826208046,-0.31439539195216326,-2.5357089484361635,-0.5208407941476706
13,-0.26508000937661036,1.4226819205350871,0.19950982859836022,0.5423961797904598,0.1702370215886393,-0.09736304022786511,0.2871195321492387,1.0153488471749572,-0.7296220244971493,-2.7202166014295606,0.004680266348703733,-1.969468730448902,-2.55331600711095,-1.9219507439163306
14,-2.6247643347085976,4.821582884840125,-0.3022660921285568,2.4858371737832097,0.9269130255140501,1.3911070138060877,1.1587138667018375,-0.44582766348012787,0.4259100939468098,0.7354955989975969,1.6283708459931865,1.2098785890457442,2.7776485444486667,0.8528072342322683
15,-0.19462844442996552,-2.5690668169213877,-0.18093860480161642,-1.5377340278166836,-0.08034163092048115,-0.4846298555957202,0.0952984570916646,-0.5169830797736454,1.0437576977239384,2.7606647953864556,-0.09998150863287195,1.1111903405045196,2.5173552172909224,1.9592544143553612
16,2.6975884042012024,-4.743706237752527,0.1829939406998516,-1.65671919766006,-0.5057560102119315,-0.7749736558286121,-1.685679155010137,0.8902735415855441,-0.02066793054095706,-0.9933638719094974,-1.4655385841030226,-1.5154286783764714,-3.122630363510796,-1.2111113657287031
17,0.5976891221923473,3.727281342150153,0.19992809658350846,1.9765526854722673,-0.22066157792635196,0.6997268951381084,-0.2853727959206442,-0.039347640220298956,-1.4676559548388828,-2.703478669574886,0.05256414200518217,-0.12871504787868154,-2.3199903292198902,-1.9747218434690281
18,-2.9518776235369417,3.897755082717077,-0.09662160994265213,0.6129814959345947,0.2627171617710313,0.201141268073878,2.2334504301546123,-0.9690951374787965,-0.1467096085398229,1.2535004661082394,1.3112251350959179,1.185735117845478,3.5108434869716807,1.6579679408889754
19,-0.7532848520716322,-4.486029661110332,-0.23365204330442324,-1.7035483065922215,0.5922930627962275,-0.5754635141137013,0.2430605470975184,0.39083522711271745,1.8285858236233332,2.4882913864492617,0.09497089399079454,-0.6060179781555693,1.8265882286014525,1.8876836632177794
20,3.1376835732649786,-2.483861174573191,0.06155955785875098,0.16290878180473964,-0.25924507699910654,0.1203175183446216,-2.6860803999881866,0.8600056324370257,0.16500369351295902,-1.4278518208684179,-1.22178185418834,-0.40649219124258473,-3.767279150566447,-2.208022716247884
21,0.6679662787535137,4.5213899411831235,0.2520780591199857,0.8854083453746153,-0.8603260421312988,0.2843923402925418,0.0068201137599862285,-0.4178332464774593,-2.0396612220559707,-2.1116812842094523,-0.28498266959255775,0.8489514200556552,-1.0312809713961073,-1.5721021007028209
22,-3.019429581046568,0.9128657730892015,-0.07980978843906714,-0.3002870309532945,0.44112792798177225,-0.10723918544718726,2.9523191427449906,-0.8134651132343231,-0.1658201090014497,1.4043105407687002,1.2212257239469242,-0.49523949978235343,3.689102625210184,2.776576127139681
23,-0.53417343752563,-3.7321504614475245,-0.22616115214001722,0.06255393441278295,0.898873032314791,-0.05015348979375419,-0.3925623234654997,0.19071199348945517,2.1275703479143653,1.6655859744994228,0.47442520169063146,-0.5570430630169955,0.09326111320922302,0.9361035898762714
24,2.5281904764235454,0.3210106096759636,0.13485219293466624,-0.2868042846593966,-0.6723944257291949,-0.16250132641403134,-2.9841641282753795,1.0224740481362775,0.2403659794021362,-1.123002778312152,-1.327027565676431,1.1802252337764083,-3.1654421321992836,-3.1876956346960332
25,0.6011349500667452,2.3054463423051357,0.13828511490536868,-0.667265300177964,-0.6846036351601846,0.030513223087603576,0.8187697627925246,0.07268472202323323,-2.1991166276321157,-1.3103485563291892,-0.6278911914502345,-0.11932373762699588,0.7226961421734996,-0.0014314019925255922
26,-1.8125390889824091,-0.818156730054347,-0.19651507763770468,1.3568460681352075,0.8059226124114681,0.5072670781255347,2.781130125170449,-1.5212278740051095,-0.38121983382697444,0.6378749094005758,1.5625400601276032,-1.413303725056728,2.2541137008191097,3.2468229510747735
27,-1.0078446758163502,-0.6710419053800102,0.009503559568292299,0.6191367521480632,0.2985678186087798,-0.24727621119296586,-1.1869502881477303,-0.12090032157808278,2.3618531610645017,1.1896290780557965,0.6901315316118443,0.9097151761093998,-1.1667424042204322,-1.068488222006857
28,1.1534133130707118,0.4294276795734813,0.2324531182833772,-2.4510687045217616,-0.7513227664466435,-0.7466305130041693,-2.3885144855265055,2.1614629292651895,0.4825200536630485,-0.11299873829632673,-1.9344288830541176,1.1284592925481136,-1.1693390650509756,-2.8410222166488364
29,1.6863075809784724,-0.6475306757783723,-0.1946522687477316,0.08059842818507004,0.11782024609976179,0.5988965374533217,1.4159596229830531,-0.19871037048663787,-2.6409762844189033,-1.340424390409628,-0.5766896141678765,-1.5271453501140522,1.1148088952294841,2.0147363985809528
30,-0.7984481090725735,0.6806325241125085,-0.22131177604712382,3.108290641544573,0.5096046221787047,0.7886013924889114,1.8901198606090113,-2.6810594497634956,-0.40397447079055504,-0.25397991028577005,2.3912813018917443,-0.4292869891690787,0.1913779518822647,2.011361725032558
31,-2.3972546133769432,1.224559160583155,0.38283645577406117,-1.120797252127795,-0.4262810435702774,-0.9363354513326734,-1.4643877474104947,0.854473180998848,2.942974134481206,1.6604504610087532,0.20655439160602043,1.7620032115211228,-0.611454411705868,-2.583950044181991
32,0.8242390679131875,-2.091669425251851,0.16009053451102578,-3.0817840257637643,-0.16526919032313322,-0.6522672281120101,-1.3887509340066737,2.8339674841322386,0.0666537476074646,0.33682279723620323,-2.8033389826704056,-0.4642120429476108,0.4472679856529159,-0.9566563703042796
33,2.8703223045412054,-0.8862288111624145,-0.542453254554061,2.0335775129150266,0.5458660015339786,1.146561282862111,1.3469288296566513,-1.6375527106476553,-3.0952362186736515,-1.9586043420311927,0.43667435401872146,-1.5372959625163525,-0.16795959357280676,2.634776265776075
34,-1.1116909935649617,3.279799987189678,-0.0605306005385597,2.448944069095108,-0.1547345617801879,0.4268332577831008,0.972776429430732,-2.516349718982028,0.47679313655292566,-0.14744156269399653,2.993143097617498,1.295516776312049,-0.6389775746565883,-0.03552992919687273
35,-2.951722363834122,-0.23081533685687064,0.6557408232522071,-2.4241396091770073,-0.4782517065126329,-1.1939771455349766,-1.1303502598548332,2.2611842142774266,2.94622702885441,2.058174448668117,-1.2569078106003462,0.9153124131930505,1.0026501476421474,-2.197935980680725
36,1.4375740759515794,-3.8021464249257595,-0.06315105543625497,-1.5569216898202776,0.3354874796936062,-0.20719563007567154,-0.6811974453284402,1.8223177569519686,-1.0472819634444228,-0.17776384430288178,-2.8118226193150946,-1.8481341739087829,0.4114656549165067,0.6978184389480877
37,2.665644174197112,1.7307189398370841,-0.7181002615523151,2.1580642106444423,0.297889407225432,1.1078324158870725,0.9030373346336477,-2.501345718747179,-2.4684477322765974,-1.8873381296541674,2.050925216396376,-0.06417441818654279,-1.70719191497951,1.462616279013593
38,-1.6073197159808947,3.448015943706648,0.2048052706158366,0.8351239585732043,-0.32018693445050633,0.05082467925902945,0.48837466338583263,-0.9986783496067304,1.4272190994429201,0.46057499321254297,2.2220447755913586,1.997872239365913,0.11612643137686006,-0.880598400003137
39,-2.1658389676145706,-3.0956260798710553,0.7261377123070115,-1.4095714158881387,-0.11383346890854834,-0.941464016221863,-0.7309738937168518,2.3040606845977556,1.7964891843941346,1.501809064340545,-2.5774460852208527,-0.7981053456557259,2.169928498892378,-0.6994704306884838
40,1.5383763858955926,-2.3090937945070493,-0.36413688237665104,-0.5777846114802088,0.13045942463764704,0.0260146490547769,-0.32154476456558445,0.3233226945809371,-1.4848505900317497,-0.5768831721960812,-1.3384469445006792,-1.7333851299662115,-0.7917036535373173,0.5955553399119649
41,1.6324880172247527,3.8626931514294456,-0.6664091064606829,0.5522931336567768,0.019945300771644404,0.7400771142917998,0.625702749132545,-1.8033913949896927,-1.167206907698782,-1.031874767833651,2.662137606313423,1.4649273050486529,-2.3460956421929384,0.16062025210672487
42,-1.2563792904774211,0.7462837509413633,0.5312156516568068,0.8119889527890328,0.14646150956586673,-0.027502181236410427,0.10348932132155643,0.026595517048452956,1.2590054393549488,0.505497535684126,0.3953029543095458,1.1466057009558408,1.4659104562472753,0.006914875795363336
43,-1.1941934496297797,-3.7837829810676533,0.5195728512030382,0.04011921344829862,-0.054010367073391526,-0.5351837806385029,-0.5437755973009903,1.2457368301405805,0.7901609326713958,0.5962311873016681,-2.28534903883722,-1.79395646908329,2.2341955401295475,-0.0025680531823951305
44,0.8376849801259721,0.7398117131674475,-0.6718506818427328,-1.312816203351169,-0.39789606067691546,-0.03871436521167016,0.2043508292473353,-0.04865216439018724,-0.9463435913706958,-0.306064538685405,0.3509496852294395,-0.3980832145083252,-1.9959226149874514,-0.7043488560934564
45,0.9136778465720559,2.909996255196939,-0.2825243726832724,-0.17363256749719694,0.1825202529942446,0.35582883557189293,0.41659091089131123,-0.8670439627925204,-0.7247046799343628,-0.24281656597048254,1.6017461988086994,1.7391049216334655,-1.8704709095028798,0.2571613182740451
46,-0.3604321341223215,-1.6931495285762843,0.7325497873577617,1.743905966324422,0.5361460221431753,0.15886936053745943,-0.5825689617190035,-0.09956143835858061,0.79189560204277,0.052380377155387084,-0.7389837035241403,-0.33378494376490636,2.2411105993645513,1.2751957154969644
47,-0.8141118470895425,-1.5621659405797572,-0.007862703096618294,-0.09547158960691879,-0.31767724380200846,-0.23324855385421253,-0.19096604042632878,0.7881399059799988,0.8410725134617922,-0.04845186762416908,-0.8731907844321333,-1.351983252516206,1.351833552862871,-0.8456130403607982
48,-0.1043808879396056,1.8698157197812586,-0.6702068183914053,-1.8387587762392859,-0.5376531229682274,-0.2992231198888621,0.9659600484684867,0.18537135955682046,-0.9458512760315947,0.2254582612368594,0.7774966302333693,0.9035257399298787,-2.0859701087020452,-1.5509044680413597
49,0.8977551565606585,0.19246691282756398,0.2737143265655098,0.5224737243464411,0.36022842694901597,0.1856902045738368,-0.14238912831392106,-0.9730164559153647,-0.8926432992354523,0.3133621629238632,0.3435717817839537,0.752921626533951,-0.8597344977023177,1.6133461590203597
50,0.481327449854275,-1.3143337964475248,0.4885597435679527,1.5264989077739655,0.45333251137355257,0.4036515800921889,-1.276343075085589,-0.007766342028089643,1.372891493319571,-0.549874852251025,-0.6327474532272501,-1.2305697828106297,1.5029101003586998,1.4428160933309688
51,-1.1351266461424736,0.8041529085182226,-0.4280011691366493,-0.8218207922084738,-0.25042366968400576,-0.19311991522128316,0.5444174562113433,1.2563923681075602,0.6577115320400531,-0.5469702615194446,-0.12036153169294801,-0.08589514383161811,0.6379051867122155,-2.367628205465509
52,-0.697713761829696,0.3073405010869421,-0.25163879833137764,-0.9450975586958196,-0.38348873095143543,-0.41745163592638335,1.457468163324975,-0.5205589607270915,-1.8683837618595944,0.9552775969794887,0.529675867211069,1.3029577993919532,-0.6231060524927302,-0.9536728976728125
53,1.4469130874856009,-1.2392736827253399,0.42197081179785034,0.8150911510876534,0.003700824026493374,0.18722136109899432,-0.9455755483957173,-1.4175471885986128,-0.06752199007197907,0.6854720382022459,0.12897997989905433,-0.5214148470038371,-0.8986203443075441,2.914542718078654
54,0.7222579804440957,0.788288502780742,0.058036570319753754,0.3495272661437694,0.4258255926160577,0.32838624610745687,-1.496893200847748,1.34083509673424,2.1705725319267692,-1.432388839369393,-0.6176238577801214,-1.1593943469362649,-0.24770135076485283,0.18028421751806029
55,-1.7168818820249543,1.168469859772158,-0.2742257753070044,-0.5041261878680783,0.28888670141723205,-0.07643287232138221,1.2761161812619957,1.2683791061026288,-0.7517048158228355,-0.6373403147485017,-0.16867324103730325,0.9794073271169438,1.687683867856884,-3.0995680645274244
56,-0.60565847338497,-1.70039147282473,0.009676935929129276,0.023998019293806856,-0.6196983176716702,-0.19555154205532194,1.4270028435678104,-2.2690904794638858,-2.1027417485345374,1.8980545898341588,0.8757461407523253,0.8650511059274049,0.7176623223259595,0.6975855359754428
57,1.8476971989648217,-0.8043300179289564,0.059020303478318506,0.04345349114983129,-0.5011017651729952,-0.19883919954533544,-1.4956009404887276,-0.7272899061458565,1.5427649040329958,0.3413823289655754,0.04242284172655871,-1.2423381902435469,-2.7892689126385233,2.8503837893239643
58,0.47725886418709523,2.3463810304809605,0.07483263792191443,-0.062114669900151145,0.9163718560962856,0.1369891420000913,-1.3046910971292691,3.060303499647535,1.6661566947627497,-2.2112752010607055,-1.1157304531991865,-0.4915577039962097,-0.4895364062882216,-1.451833621087657
59,-1.8273735707335457,0.3619338077426924,0.13690558018468385,0.35630029200753016,0.5365871656219989,0.6121428697474813,1.6075964052898561,-0.14363403002394468,-2.048607223727739,0.18458398824527528,0.31033818813276304,1.3065651473439626,3.7545389785960217,-2.2089651893876696
60,-0.47918217265417035,-2.808425786982301,-0.27842795639650386,-0.19919703998939836,-1.1960483242096678,-0.2709198654612964,1.1785290346369752,-3.4953053165388317,-1.0355633547085166,2.228246685000883,1.0883346089428214,0.10179418961636096,-0.45095684827636207,1.8656565394767992
61,1.7516602489573379,0.06867692883369808,-0.2558632823494475,-0.531151348371164,-0.38444992677622075,-1.0374752780323901,-1.64969245470445,1.1525767848880193,2.1383982558904924,-0.8327336378486553,-0.7562892711441485,-1.2037320801668352,-4.078190916458491,1.3345372486809166
62,0.6702014175133372,3.2091363955303196,0.5379784563915827,0.6208068526195738,1.3279651905841021,0.6386542838980659,-1.061931162077546,3.4600990444280066,0.46306681180074594,-1.8690120481635644,-0.6408518696117721,0.2620762923280486,1.7556869702212343,-1.8039794570850958
63,-1.7695450774597452,-0.5464501737862905,0.28180124775028226,0.42055753284507946,0.13123663170706995,1.2964107201111164,1.6620419873951058,-2.041010030143943,-1.8620595137662805,1.4399911811447232,1.0279165871455505,0.9855981972581908,3.454804394906977,-0.4657714830026593
64,-0.9664491984186521,-3.5725828453437427,-0.7938541413912537,-1.0373635309267475,-1.2426901340517182,-1.1568864514601815,0.9315108229214274,-2.9864211100736524,-0.14528653741620134,1.1617029538089596,-0.16391971994231447,-0.5834988271876882,-2.819412121472433,1.2677323089482269
65,1.9736665604994612,1.1879141345993194,-0.22507189117470847,-0.06479847316065235,0.08237732029245379,-1.248306940631977,-1.6544457420314183,2.5714690898918353,1.406489466961544,-1.8542055572604703,-0.8776334207966318,-0.7024746470239064,-1.9805961435776374,-0.15268836893484833
66,1.1736401712389173,3.765714057456671,1.002486763201243,1.3202513148693316,0.9744711388568207,1.636726806187428,-0.7543952970508168,2.238277885907849,0.1286230158195021,-0.2385300975324261,1.0456549060922398,0.8638872517183553,3.0466898915013405,-0.40420662527514173
67,-2.3059685758632433,-2.023006776705697,0.10347876865663039,-0.43500748919823645,-0.13872073984330727,0.8738828514207306,1.5976792852245185,-2.6031981240544244,-0.9812373513671098,1.9999877323497828,0.24319288705542774,0.38735508251716544,0.17447635842749043,0.35531066402309525
68,-1.107189176656894,-3.5657801662738113,-1.1284513107516707,-1.4056043434600156,-0.6461240547281923,-1.8686501713957326,0.5248036594859148,-1.4551864916676323,-0.30574283295365123,-0.7195498403490695,-1.6383899866153202,-1.1052979183632439,-2.156214021815611,-0.5394014459480356
69,2.5522485797856573,2.8990735648349,0.059571417644816466,0.9620118246022492,0.010122501010692356,-0.29960223763152644,-1.449140862714416,2.1280550976619015,0.7023522433652577,-1.9083872493399026,0.6770748045936874,-0.057878850823621084,1.2200334441688425,-0.11666770799651176
70,0.730254857404442,2.817064128891155,1.1370304209954958,1.2924236310170805,0.40207962259424745,1.7293041765569845,-0.27892685134722023,0.8803775946868609,0.5016328997967612,1.5630450385058126,1.6911584561086797,1.2968309285149275,0.35986743422286266,1.3057814467617828
71,-2.4472588892608877,-3.50861883262003,-0.22221986038391228,-1.414609429830917,0.22475239937563865,-0.25696258466283783,1.194858306877621,-1.2632663086925746,-0.5440199637389159,1.6911328586126857,-1.4965929028394347,-0.2655227055985349,-1.5693787061202875,-0.44240683228333183
72,-0.21536892718530906,-1.5759421739450752,-1.004913878719398,-1.0265501137413306,-0.326848163126171,-1.2481580238403345,0.0715670150355582,-0.6992416045020419,-0.5917433249677985,-2.23451164606517,-1.2217504212540027,-1.418589201786033,1.691703779586377,-1.722388835001498
73,1.8359307266232365,3.5378347552027414,0.3177257358326234,1.7215940398287466,-0.4275474444080591,0.5916961864216707,-0.8727379380948775,0.21612318673585387,0.38368992018673675,-1.4723610485252476,1.830792597180037,0.5422772653365265,0.6552716045705922,1.1102038802256324
74,-0.12301221696576863,0.14183578806080455,0.7450804295761428,0.6820651222289932,0.3968306228281424,0.5946198004482588,0.07050099434426008,0.9973414922497733,0.5756665164942936,2.7743822398743316,0.5283846195164784,1.4639347613685372,-3.183824495873413,1.7563541273026628
75,-0.7903007527048856,-2.8491216072171976,-0.27216764840526014,-1.8476586699468158,0.48528738347636574,-0.6079376500442719,0.5529840235728058,0.7643297728285796,-0.10474831907293021,1.318237396978194,-1.5006490659490919,-0.714625637832116,1.2077240099759339,-1.6754703449032116
76,-0.005733092418731543,1.0597489922161403,-0.42352893041253575,-0.3438458371524392,-0.4959599101465245,0.004586537570081076,-0.18023830782094408,-1.7369096902154546,-0.562062142177506,-3.2703590584367626,-0.046918367633048845,-1.463626739075814,3.5007790199651088,-1.5034256879750598
77,-0.3972718092106719,1.579564688848052,0.04264155241319008,1.7935602292258108,-0.38513824857125134,0.34815886568795196,-0.28537096791705147,-1.4443955308945267,-0.3158700417719556,-1.207022793918829,0.633958210263124,0.7365697780958358,-3.3047810381822247,2.0084964743376394
78,0.7021027651777546,-1.6783681629751475,0.14692194558309987,0.09167121080658332,0.48935174998395,-0.36679390374920556,0.33510479158701006,2.75510806525381,0.6818036148352614,3.783416473684907,0.1319171569114667,1.4881605009951198,-2.4979407087712673,1.1207150883520571
79,1.3472802134273096,-0.0857494029393563,0.34780814820726946,-1.5915624593664799,0.23338723538065453,0.04648778746680245,0.05360071457487293,1.6703978353987001,0.793741020053489,1.0567524767427863,0.3908926004585788,-0.612657255001394,4.837097146994318,-2.091698357078389
80,-1.8096114601887248,1.6001877522943155,-0.020053260661086383,0.01285238294847611,-0.314772560635006,0.41704774234599257,-0.5975403305597154,-3.7968516780164547,-0.9940520331852073,-4.296497456577653,-0.8797425505211021,-1.6154811979836388,0.5536196472835486,-0.7435301066143938
81,-1.7761779819864203,-1.234429510974448,-0.804752298386051,1.296212277897794,-0.2032141469576347,-0.4146281488406641,0.22175225733417803,-1.4267872937707464,-1.2016825181523683,-0.7926455838822204,-1.1251697623287482,0.41558612494222297,-5.266153083194388,1.9892545205047336
82,2.984015786499938,-0.9690172377456074,0.09461513086055529,0.06579275125964919,0.03954014627387964,-0.1879423595884569,0.9524083878332404,4.59139426421056,1.4525318863926473,4.717578329544852,2.0820737963603104,1.8772995924125195,1.6149547549060548,0.4329309417832861
83,1.626216349631476,2.128674315035724,1.1957370939040146,-0.9723251998805285,0.43587710104257343,0.6408970190968549,-0.6232664612394369,0.8568053755156324,1.462480895534809,0.413420863897634,1.2591708588356203,-0.2579454565704542,4.525164382069656,-1.78046753737507
84,-3.853268664905527,0.06031640749967125,-0.3394201559501054,-0.3356431064770279,0.15248972278620118,-0.22889596564275277,-1.2937636880538683,-4.957611749304453,-1.955922862237232,-4.937954574893815,-3.326366504801682,-2.2223668001052426,-3.2737554533331985,-0.1799002622179887
85,-1.07843845311215,-2.566165061443517,-1.407473883158005,0.6836074319880397,-0.9470040638481436,-0.6773410487547504,1.1571124157662493,-0.21573267090651038,-1.5979836512994445,-0.015021233281910153,-0.7594990434404868,0.22400319864672896,-3.0103212512324347,1.5011265334054118
86,4.178192467104237,0.8972636886921083,0.6512376864045959,0.7812032910804336,-0.04287453243853644,0.7395777869418834,1.4834553518601392,4.89185831275099,2.4453604127188795,4.915548002260533,4.1894995031454965,2.5358766596208135,3.977659670074588,-0.042744452734399446
87,0.45667678331826933,2.662832192048831,1.3963252038945926,-0.4851759628630961,1.589080998302888,0.5211024868347333,-1.7155108735116409,-0.24366331691304832,1.6911816860800364,-0.25008051143883325,-0.12697338845994247,-0.3055786022085755,1.371600749518435,-1.1308582581860958
88,-3.9388989267522545,-1.82440902847833,-0.90214025854888,-1.3691514649862402,-0.5075614670197115,-1.2770013153680617,-1.4506342448055247,-4.5811640362157435,-2.9731255696380736,-4.734676045044873,-4.431932680640136,-2.719061250062627,-3.724905228084497,0.21888735427122086
89,-0.08290851919894056,-2.5263196845609777,-1.2043616565176771,0.4208630328945212,-2.09474979061041,-0.17602006700262995,2.1220655101304122,0.4075079859336303,-1.7801863734163443,0.2666112216785556,1.0017501032116862,0.3993556303004416,-0.21123999557184509,0.6354107627401211
90,3.3234604454021786,2.7502580818064524,0.9982260487742236,2.051610629522333,1.4682277574898026,1.791005165192038,1.2624765809967045,4.312218666105329,3.677982954512742,4.597285581901019,4.1011100804715594,2.780255887573868,2.9033809837018616,-0.2641933037957987
91,0.1518456023372971,2.1494897056713165,0.9325697510127469,-0.5222053106241784,2.1874446338786453,-0.36809937895408845,-2.2433267018560503,-0.38112707686727565,1.7607188661329525,-0.05641181531191905,-1.5146387232777014,-0.38817462161792815,-0.16818170341084032,-0.03549922219820471
92,-2.641748510187113,-3.6734972533215227,-0.9182117639215756,-2.7651445845266283,-2.6195133418527456,-2.216382240743761,-1.1050368190254811,-4.306388851163163,-4.663636219332161,-4.731094373148079,-3.4926430057695836,-2.861069312095634,-2.0688522308922943,0.06351302562748608
93,-0.6668897809574085,-1.4420063049483551,-0.6869553402388954,0.8031996632492787,-1.7130930303171337,1.1192555484256426,2.0945057086183696,0.44849421020369706,-1.384660675243294,-0.18075258353211607,1.5361731722263585,0.2606496800528274,-0.1454737178512533,-0.5500405726794959
94,2.206350986220442,4.451124219897187,0.7121188904103378,3.4289287866945264,3.623020817543263,2.4514288485764637,1.1704836430612768,4.568659610535902,5.852554400316023,5.249942994871769,2.9854870350652045,3.1535366194304477,1.6700287278730073,0.44508007226689805
95,1.4489930991867752,0.37818740798957334,0.5280709630023852,-1.2471142981733738,0.7321733645742361,-2.037365665416899,-1.8578766214773916,-0.9094643361208976,0.38869255634287514,0.1320192520444914,-1.2108458399453683,-0.1750297676850926,0.7754521270791812,0.9302031192375375
96,-2.221280139761252,-4.824361019663524,-0.46308388004567747,-3.9508570627628776,-4.1590524669644315,-2.375644231794158,-1.516993651801972,-4.850453747312385,-6.925014842016701,-6.04460330582048,-2.835881177619276,-3.7456576078604975,-1.855836903778309,-1.1944411577317375
97,-2.209598461193646,0.8610585573443645,-0.45141433223101807,1.7901514415123725,0.4774661453467878,2.991320170970389,1.7839161683984919,1.8751454956995421,1.3044797591442967,0.4693016099181446,0.8583062743420661,0.39524652444123365,-1.2859600749820665,-0.9368046042867517
98,2.7135811805639936,4.58588424709471,0.23594191637378437,4.249820327941081,4.073944722715247,1.9113890120594086,1.9989210612908312,4.771729953401324,7.416898743766524,6.784356812796071,3.0443381305061794,4.503386983613879,2.4543302693503155,1.9821333429643435
99,2.66330622505927,-1.8843999154344957,0.4073864722180807,-2.316809880113244,-1.5207533261088593,-3.7602111938421743,-2.026974879166576,-3.1466339658397255,-3.4383360146661315,-1.668555742640628,-0.7757132335314709,-1.1172773590728344,1.4128952203683138,0.53505416465208
100,-3.53433313305093,-3.77525703624967,-0.04283690519855445,-4.291811507876467,-3.466660215120757,-1.100868739666789,-2.328573289962998,-4.050253114103242,-6.952192257503809,-7.055986705884923,-3.3736912922934694,-5.091890879200504,-3.1197885297693815,-2.5560558073496145
101,-2.6389962973317904,2.2624075557699084,-0.3464182524577514,2.683365593099279,2.053239291700681,4.101262640417832,2.521582722731627,4.269717278559605,5.444953469918929,3.2069883600336935,1.0562103113895691,2.297159923916446,-1.1731858729944138,0.12709073073492597
102,4.43317936392434,2.7505250614558263,-0.15479137316045383,4.120910809206355,2.663622841076398,0.14652676086775906,2.2455564466492732,2.706197017954644,5.487452269845739,6.581544546513768,3.5081607953995873,5.147967582156447,3.5536801186292375,2.750061386020565
103,2.1399332599051792,-1.7820852938537275,0.26083878747176437,-2.771416077735267,-1.941383241517667,-3.8655673163374593,-2.9898202926050668,-4.7567445266103565,-6.662067764426836,-4.601390394205799,-1.532044388774488,-3.609648931910047,0.8042106182815719,-0.7765436201995661
104,-5.174340835075357,-2.0574789750892757,0.4102886639967386,-3.8575425191115533,-2.0805237061753425,0.6297648494422622,-1.6922131550867638,-1.1076967180054547,-3.415279270409404,-5.393923917442213,-3.257315222871379,-4.502611032226022,-3.669657480952822,-2.584674497964815
105,-1.321083476802898,0.6178097719533597,-0.19766975883682436,2.5481231000574245,1.333261215692421,3.1021111710781932,3.0901348514193048,4.357015724654597,6.647420211150853,5.363956331623094,1.8761570970257826,4.585610643056416,-0.5836096090333991,1.1561512227715052
106,5.63428893920142,2.154283408678885,-0.7445161391275217,3.649898458709861,2.0293960887012674,-0.9110501593686532,0.8798182652969457,-0.1893116311323525,1.440965670552693,3.858044536786799,2.6816587811424553,3.30653585228038,3.614092364425404,2.2622677889157967
107,0.39535783436128696,0.7041690621905878,0.23404645846365704,-2.093213284856962,-0.5954451494565601,-2.0812532181746803,-2.6252467193444518,-3.213775500623094,-5.420280121221851,-5.249705637528336,-1.800510789814895,-4.853658105123876,0.6435463277668013,-1.1665528244556067
108,-5.827925465053148,-3.1511950600280625,1.1166864209389886,-3.597843509727407,-2.5659459880668103,0.5400582098850122,-0.19298566015989108,0.7256655644762463,-0.27536357528873884,-2.508690758247878,-2.065676561904158,-1.9708024698335462,-3.643676495003591,-2.051964065196326
109,0.47646412205635214,-1.542512913305838,-0.42948165954637896,1.5649433988638164,0.14004910856076158,1.2052062009308175,1.683244207722408,1.8057579607127094,3.4869387136661056,4.391002383037272,1.233260880750723,4.338445327033142,-0.886684373813643,0.9208411660524729
110,5.852624205588177,4.7219053921664065,-1.4320193742853562,3.697310642812246,3.4590242966209126,0.3795723083239915,-0.020494288792843603,-0.3825675666366232,0.2990865164726965,1.7849734282861562,1.7559784706575032,0.9556221965870256,3.9425404311679406,2.1312048074535714
111,-1.2469558968981231,1.4494681463246384,0.7834195518838083,-1.1174030698675803,-0.22786481981779286,-0.8375396891906522,-0.6208232408013832,-0.7013345901979123,-1.6218050169999418,-3.236450393397541,-0.37183528052902226,-3.2959576027418613,1.0449373273407265,-0.677037996520494
112,-5.7899597142855,-6.239876104671149,1.5826135002863273,-3.8480983886572755,-4.301589334297741,-1.499602314896164,-0.34554824102356524,-0.561230128631604,-1.3779507957934896,-1.806804362375985,-1.959765316468904,-0.535408065243632,-4.4875883168797115,-2.478488519443635
113,1.9605614201038923,-0.38260574643788164,-1.2233579923973161,0.8211670014369411,0.8499450830809091,1.1352382429531997,-0.11080050504924921,0.26945320184574856,0.5115576459391108,2.321998595478523,-0.41800263681363325,2.17028752869855,-0.8408670371125665,0.6879135813266938
114,5.629564481346765,7.061943286197077,-1.4979407217332592,3.924888934251138,4.70441990915077,2.36251357877241,1.0769368856879489,1.5893737120843103,2.930133204972749,2.3183056374684927,2.619538433842856,0.675853073947981,5.035817443304412,2.8791118532888875
115,-2.6672554197767475,-1.2852069843240792,1.6299847562261875,-0.6425210057818139,-1.7466386025430283,-1.9700549658453075,0.20447507954538577,-0.5155511128602692,-0.44611188931543144,-1.9982021846078617,0.7996686373862082,-1.3624396161598749,0.16030575169888303,-1.0546237633134892
116,-5.264341409170484,-6.806028906643565,1.1767088356041393,-3.861706640837972,-4.468765590039499,-2.5917092081355046,-1.736970443239699,-2.222215097380075,-4.208740394865866,-2.8289369235215434,-3.4357270107319478,-1.0834369453666388,-5.238629519116025,-3.0381763183528476
117,3.3283891206136365,2.9443574609487366,-1.8837505326110147,0.49421249150214586,2.544402275678286,2.9779909425099333,0.33159131603621556,1.1262865836672034,1.2121638367279175,2.2611375417351987,-0.6485646060029057,1.0438413078311028,0.8558534002847353,1.663644355912998
118,4.563149171371945,5.489501516031922,-0.6850451394592665,3.687355830673382,3.651848953437055,2.045221801531035,1.8921152033102762,2.2401183338927746,4.649957819211668,2.872610173552865,4.025363490755583,1.384812429030496,4.8233642052977235,2.736564038439708
119,-3.7770977470485003,-4.006872388687062,1.9066790252468735,-0.3148872766099864,-2.9267704199891593,-3.70852692701293,-1.1661294884650888,-1.6736338040061036,-2.231540374456379,-2.772908499140421,0.11733635877809356,-1.1085670422646863,-1.8491120284862197,-2.2358749066381676
120,-3.481349861700201,-3.4854977834054472,0.12708144716526762,-3.4883215943729704,-2.5074833127695726,-0.8661736709266794,-1.3449141981544188,-1.7379270981173556,-4.111120569858137,-2.2435383366622093,-4.1277020064794145,-1.3264085001006354,-3.7503260218679624,-1.9480212753585762
121,3.7661801203024527,4.115332197043005,-1.6799599729086143,0.11308764262020135,2.747811051963155,3.8004114860912983,1.8082040876820993,1.8394846096710928,2.857494805816457,3.0505877194575644,0.4526774541189126,1.2718802938330611,2.3943523724236955,2.4568869516812084
122,2.144729037879739,1.3521642805920935,0.3916085386439832,3.3346537956661177,1.3559885544927321,-0.5811928755549388,0.24805218365408324,1.0109061383244737,2.8940757817767113,1.0886357997057015,3.7407219075820013,0.8869807580373759,2.2662688226116456,0.862584941971014
123,-3.087752058437757,-3.226167773391274,1.2355450788463946,0.05539788161268667,-2.0456988664516,-3.109575402468519,-1.856317630831677,-1.5333881505323592,-2.6720401993881193,-2.7148828330204924,-0.7222853254221744,-1.243840598237065,-2.1938832824217824,-2.121307108979449
124,-0.8513346181623885,0.3640780686954583,-0.7881709912832701,-3.232402301525708,-0.46541690694050575,1.8503099043215792,0.9626362293790677,-0.37341763316040155,-1.56740964817261,0.17803359091073565,-3.112895567189658,-0.25730567202516436,-0.8252702900077377,0.1878701617682889
125,1.705649820953728,1.5717974278351432,-0.6354575857146655,-0.1497463171239174,0.9812533466992536,1.7478010494545435,1.2015531547288092,0.8679929445375465,1.6477380031690831,1.6701818087164377,0.5383618605401805,0.8782454208875821,1.223580622396475,1.2257918627136737
126,-0.023637734580943846,-1.2714571702795905,1.00802857039822,3.13929772035905,-0.0033274626048059985,-2.564696854045672,-1.7808239502670278,0.0272106605483765,0.6944821110629046,-1.0791551185280834,2.598580046012455,-0.2819845795730828,-0.08948824383064038,-0.8619003334455978
127,0.1725571688536497,0.4413518515383706,-0.04429935349754956,0.18632114143543005,0.2375106249988139,-0.032557376081594994,-0.07867894538530569,-0.05208371388503082,-0.12183789329333192,-0.13812022295758086,-0.008625638102289758,-0.22672146199540255,0.23720506590093002,0.02441623265905811
