,AF3,F7,F3,FC5,T7,P7,O1,O2,P8,T8,FC6,F4,F8,AF4
0,-0.05434584893650549,-0.03171707300972747,-0.015720759416503673,-0.01605694625004722,-0.06546099311645522,-0.02433544133864883,-0.03137262295027652,-0.029495237402093363,0.006115629953091962,-0.04513331609110122,-0.0325905617962353,-0.01616181316243189,-0.03260478484389868,-0.07872136588585403
1,0.8318182055705164,0.9007897721596226,-0.4071071531227495,1.0531563067354552,-0.8531371570952695,0.2854900285449099,1.9739776637087827,1.6080708457962058,3.1541502493462805,4.914327084755936,1.4521077216617737,0.10875935473816697,-0.7966738791615775,-2.4556462009458544
2,-1.6470741708766286,-1.458349973000086,-0.6980960335631239,-0.8744673349404324,-0.32705598328620616,-0.8104295751142825,-0.7074872891107783,-0.8195441132508811,-1.6073334849920147,-0.624056747758508,-1.9490816574640057,-0.8675654272160306,-0.6451158199299571,-1.21461865548586
3,-0.24242023214700884,-0.2540829764853579,0.6878199725674227,-0.6598628493179743,0.9892303750390111,0.032954093080022555,-1.890022918229192,-1.1893595452567713,-2.7238063172676377,-4.885952980483729,-0.9226387819338177,0.26421651723686784,0.8996574147871769,2.83092713448268
4,3.0438391230613546,2.6009784401970997,1.2585988141109576,1.5503767125862429,0.7031295870895252,1.5204201231204448,1.5390713832533403,1.4269709587395156,3.052515046492593,1.3866510112154444,3.7331595200499437,1.544797309380071,1.2346260579192743,2.268475716470796
5,-0.8165045444506742,-0.877895360887216,-1.1815120276213544,-0.0293538207624374,-1.3128546824971459,-0.6498390585304354,1.5892312742007952,0.4895260337728861,1.903716028706456,4.681525170248753,-0.08882936471428392,-0.9526891446799364,-1.1031525287766704,-3.477825792862472
6,-3.8946647155939873,-3.1278553967682097,-1.5592512830324399,-1.84348482456548,-0.9883879892425358,-1.9541758504037894,-2.4236619731459776,-1.630224989025496,-4.17402898027411,-2.203783394737077,-5.116751680703934,-1.8290929658056096,-1.6455819510217136,-2.9048881392109682
7,2.0929285630825825,2.184601801663467,1.7796731146596014,0.8261074710941392,1.8346665843947583,1.4736674104482574,-0.9218200378886953,0.27069059749340074,-0.7539554173978651,-4.16318623338518,1.4887683070242865,1.7830016459879194,1.3481111897084843,4.187558742813701
8,4.076901674547161,2.925523781875309,1.5350016954681602,1.6724678040733987,1.0511049226872722,1.963488049064842,3.1509432607238606,1.3907330014273782,4.787231422174179,2.8884187143894926,5.88313785513047,1.6031175980039065,1.8011861110890428,3.065115153745885
9,-3.282718880642515,-3.2943144394194004,-2.3495796729448672,-1.4941096428982958,-2.4795815773310483,-2.312052144792644,-0.1290645568099745,-0.8598715744282504,-0.568289778595117,3.3194538466363324,-3.068643836863002,-2.507265829854621,-1.5312105289459306,-4.733003184596893
10,-3.6118802643264702,-2.0758336335089185,-1.1695495618778238,-1.0755762171329075,-0.7576641714837861,-1.4768447379920453,-3.4351187416279174,-0.7927580395667773,-4.757375969645519,-3.200737817847077,-5.881099927180128,-0.8753814954773382,-1.6748711486479426,-2.819025561147758
11,4.099800013447918,3.8814641679824393,2.7504816024416523,1.8105741069706471,3.0588585119956084,2.892106735186546,1.3699962408336255,1.1015960376133078,1.8122118464972718,-2.323802999418496,4.516428890469735,2.867743585360461,1.5271826333441705,4.942287828789339
12,2.659159849302185,0.8409680886801456,0.5030401703251394,0.21604127558890018,0.06670502819419602,0.5784260348649106,3.0811394703669404,0.008050459833013647,4.078703362127935,3.0004009190718772,5.117184687508662,-0.19133828232711905,1.3221406394165274,2.3338039592873168
13,-4.343986832386523,-3.7731765942864466,-2.8533872312890973,-1.6401016779581497,-3.3168627319959425,-2.953124634712614,-2.450132544111704,-0.9140350828517146,-2.7044684539138735,1.4664126524789407,-5.50765382908507,-2.6942379054696914,-1.242034897208853,-4.75184782731685
14,-1.4800567891108893,0.4151139400541059,0.3604695529231046,0.6560087133327706,0.8966750798496553,0.4715376361498481,-2.1162804642981023,0.7535965430003803,-2.9080498474722014,-2.350685282564589,-3.7904458379855313,1.3148366943895944,-0.8773315755296903,-1.8148947624644542
15,3.950600428588321,3.0123273076769657,2.569519804113958,0.9922045341580282,3.044472126799811,2.371157317059244,3.0152660516678824,0.3208928067409117,3.052764750938229,-1.0012310781139313,5.832247038965907,1.988415839633602,0.670634664230657,4.224599318948953
16,0.37887797139084145,-1.3481456001145182,-1.254357645066534,-1.282222059568129,-1.8441526846702838,-1.3084579391361308,0.8085742393125175,-1.291452616114188,1.5232813512127923,1.5053207746694284,2.2340447784112936,-2.1921332400590408,0.5061276397867313,1.4379671316212461
17,-3.0116782722287274,-1.8438523492292394,-1.8865582829482974,-0.030772340993696926,-2.2035227336372394,-1.2437944615008774,-2.8751824298053203,0.5582169899188442,-2.8211983426064084,1.0054497026998774,-5.480547621199522,-0.9434773622124439,0.07840271060927291,-3.5286242856642316
18,0.366862140331715,1.7507982449912671,1.9723017693820766,1.4866524339672642,2.4220966937745874,1.6027765779865846,0.43505464098679647,1.453012707436433,-0.22674772339312832,-0.7886470634355791,-0.7926629722076455,2.6199600497086784,-0.33595789473517873,-1.292407006597292
19,1.7654072799509426,0.624367427820076,0.9008641746010017,-0.9762840858885256,0.9896652221146428,-0.1195084766532823,2.0972258501075887,-1.5298986615169041,2.1360851447152105,-1.3325811997996884,4.637601441258641,-0.12034454982101839,-0.8090817551354608,2.8823882881023324
20,-0.5775950596595124,-1.6151498763099021,-2.319597738300053,-1.237463468326107,-2.3652953680513606,-1.199442288969978,-1.2346831832711171,-1.1670493834263633,-0.753906471117319,0.4415464792851735,-0.29337642901393823,-2.5771597700801063,0.4013599124421255,1.3543757351721637
21,-0.5521354116061897,0.306980650776058,0.17481305609464437,1.747477510277792,0.21170411855485766,1.304048655687777,-0.986383547401858,2.360537920342704,-1.2267559101277898,1.6763401536961389,-3.597679772325187,0.8768203590712507,1.30249550545142,-2.4832941014478798
22,0.23301506921166296,1.115099499519707,2.184456749445545,0.6522481407469272,1.631162065664886,0.18837836720156217,1.3890181259997807,0.4701096888020889,1.3221860396717353,-0.5120964682276501,0.9400057319447042,2.229165075699805,-0.6288644485135056,-1.4990356052455815
23,-0.2649092170543507,-0.741037764830203,-1.0471501442474316,-2.078392887445183,-0.9660848214696276,-1.9442921926376664,-0.03151250616258435,-2.8250083599917506,0.3402815644400834,-1.7031127550870473,2.657591305068953,-1.115009524583392,-1.3880982664748436,2.443254578883782
24,0.49580855188315903,-0.5219007120219028,-1.603343215354964,0.05027377122840745,-0.4449389524079877,1.1262496135979438,-0.9523728013113562,0.4833792508479136,-1.5140612461128273,0.8325581158657307,-1.2025492799883826,-1.856715144374792,0.86056515898935,1.548024358895834
25,0.4076043666562075,0.6511332703003067,1.4253628801510707,1.897443788547884,0.9661401382495061,1.8557658902960192,0.5710926454653561,2.7691044299373697,0.32962417308790587,1.1904298398922488,-2.0426539524036755,0.8100912616146622,0.9962440862210868,-2.7537274075100746
26,-1.2688967266611182,0.09424908681758445,0.7855615060288685,-0.6251439751271076,-0.77059272652775,-2.3399430696827905,0.21284805714551513,-1.443443988747102,1.461166624685757,-1.08066340495089,1.2277184858477153,1.7454252162835024,-0.9005706067645376,-1.3346706946691893
27,0.20729936437491525,-0.17253835978834828,-1.1310530815181372,-1.2739579210035485,-0.16455893523284204,-1.090439141283792,-0.43203259056872284,-2.1699925474618156,-0.6818437962333311,-0.12259913260198017,1.8771528320417112,-0.12221333775569605,-0.18261959119168136,3.292017683376625
28,1.6695786804060289,0.010328332608375703,-0.0702175220005795,0.8721272561254392,1.553178675714943,3.091029926983785,0.4167420050886178,2.128152822142807,-1.3405061111729195,0.8980185120887911,-1.2112774101680226,-2.0823077899553954,0.5708063029692018,0.7623668009141745
29,-1.4023893243609817,-0.47289007886755874,0.19231556441434108,0.3869352693542992,-1.1952216482776457,-0.098368138239669,-0.323776203412037,1.1662797317147542,0.7188362096331694,-1.28271615940206,-2.176301349848763,-0.6671410672988367,-0.8763118149868879,-3.863752450599147
30,-1.3516324722114461,0.22895836664281743,-0.18561684429820086,-0.6842603111706456,-1.580852984218302,-3.1734830871565998,-0.5563415703759356,-2.3163179450441684,1.3248720455385512,-0.029969587533346623,1.3658205690816532,2.8934826037586165,0.23126422903095364,0.16430210459004235
31,2.7613727789876186,1.0688340746588973,1.1266838486668738,0.528550464858089,2.664293897642627,1.3548902307907933,1.3903988018430284,-0.03199638838743669,-0.5381369829732079,2.6263389042229925,2.838479908769581,1.25275877283934,1.9187719771087572,4.26153735299526
32,0.19113142483475404,-0.7197261701609413,-0.2462577942106869,0.06804770647711872,0.799027684686176,2.582922356342605,0.009388312536493484,1.9348007358569583,-1.5362495664958131,-1.5532820414414,-1.8783092046175696,-4.0376542112515335,-1.4838055190675725,-1.3415867332257172
33,-3.751781157646246,-1.4726550224989288,-2.391894449061274,-1.2411795274306485,-3.7551995023747025,-2.3361600982731403,-2.328356615376385,-0.9085992213671105,0.3066180327739759,-3.451845895924343,-3.6444367554844126,-1.4032246093774106,-2.6640502628471734,-4.316814598101074
34,1.6247508144063383,1.3189557784506372,1.3450744986328547,0.8643712411429701,0.5574194074307668,-1.494463592708909,1.1495190832452153,-1.0985846954346807,2.004189473058511,3.5983409559856474,2.845611061978574,5.251788617193728,3.020315421931134,2.591969195657872
35,3.9159035694610402,1.6343377292001362,3.1530347474654734,1.5759625832950739,4.123021488731151,2.8025664961123753,2.7316350864042684,1.3971541082256393,-0.21433098394883654,3.414433795713643,4.290693854684554,1.0290286935592383,2.8973300621027454,3.933318410850058
36,-3.624366494714157,-1.8979964034925203,-2.8125412166878827,-1.9265513857691186,-2.0562401067583767,0.19660582174981933,-2.5883135989526966,0.0779969956480921,-2.641134157967221,-5.6101605739853895,-4.208641863144111,-6.23146261941954,-4.5565660540934445,-3.6980327528752084
37,-3.0586413121017646,-1.5689059621465762,-3.1294232252935075,-1.4489576183455855,-3.6872695174648817,-2.6660835799107128,-2.391006845708118,-1.339508140654954,0.40987799675744957,-2.4410197915680936,-4.474240276445621,-0.20413508403037253,-2.5452697761183214,-3.1057422516461006
38,5.200894712572046,2.3764665053000833,4.168588433996412,2.9025035951135774,3.235178451199377,0.9905106877467983,3.835364537852739,0.799258142472591,3.2537769870896516,7.002720880168685,5.729901549944092,6.720193065310114,5.7656642904028805,4.438161804593108
39,1.3505433988792017,1.31057417863821,2.3426855378352953,0.879407365364674,2.646155829921477,1.9986890520100633,1.3882241308290681,0.8412499569770217,-0.9345042108676185,0.8127421805781827,4.009321140425993,-0.8604529876991033,1.7110529471439895,1.9310202282103168
40,-5.835718646568422,-2.714197105006645,-4.944613278843784,-3.5922462008621308,-3.7733310423945263,-1.7950464765596434,-4.462369451983352,-1.271502066036974,-3.601607574855487,-7.322041499989675,-7.050236611990321,-6.5820213017016425,-6.377716001845092,-4.628030997031998
41,0.7089818519096366,-0.8838677658646737,-1.1219255205961929,0.01764076613349403,-1.3819733475682991,-1.0078771503253918,-0.07622177724094864,-0.16321479688574506,1.6853043130383702,0.8877263611916959,-2.9216295318373082,1.8794472341716075,-0.6513354405442106,-0.6086119931013633
42,5.306695200999778,2.8794132463595177,4.888885040974869,3.850293617679763,3.5954353011964604,2.0627708100625775,4.260858051986667,1.239176304516482,3.490329917138256,6.458245501628799,7.818927520148605,5.8392544135706865,6.266948310677553,4.170744427861762
43,-2.466320536484176,0.3098949250928036,-0.035518158528661,-1.0518426247246755,0.30390877122276083,-0.019365535985022678,-1.0557156870754385,-0.3835862823867558,-2.4340758241854528,-1.9750028720976613,1.459860965667468,-2.573934173701831,-0.29906890137034364,-0.5855905812592539
44,-3.7888078774459983,-2.826399264013255,-4.079486562133752,-3.6169635390363437,-2.8717201057807347,-1.8028474167331054,-3.335206715800314,-0.7934185554281229,-2.8624696615378626,-4.74296934931756,-7.84138916734401,-4.667855451592164,-5.4945105361357784,-3.10389282378613
45,3.3601921406341555,0.36334533984822975,0.6862849997546897,1.9895358423579768,0.30170185970112107,0.8017546634255557,1.581499395803698,0.5575670836368362,2.90481122945599,1.9452735234604175,-0.0007151637185479559,2.750436582294511,0.8292504377245001,1.3624457717202576
46,1.795955096880988,2.505493384917735,2.881524717231162,2.9430520457901017,1.9247310174943455,1.1887090659428992,2.06450465062756,0.16794195997007755,1.8400516174603807,2.857965291474265,7.164674739921528,3.3518095151722354,4.29349625085263,1.6174612176667833
47,-3.1351699618681623,-1.0376539444293316,-0.6340333121500836,-2.6020086046359383,-0.35492112561442946,-1.1598368569974762,-1.3174036254551134,-0.2710826097608441,-2.882655201074357,-0.7222857386360055,-1.1152150502634526,-2.359735637219132,-0.7482231032159528,-1.5077354415748503
48,0.016381692558944783,-1.9002707126595473,-1.769186788702862,-1.9987636717367712,-1.0921517794703053,-0.4979967112194308,-0.9425785117859815,0.36095836723375785,-0.6935640151551041,-1.5635185788713455,-6.044681393300006,-2.204933321500999,-3.002028904461118,-0.01951839932596268
49,1.927609620022095,1.5745025290109766,-0.004917940708405519,2.730969481194088,-0.023210416574876856,1.0848163944824638,0.3980584972861816,-0.39101399121931035,2.308085619764208,-1.2685503867912793,1.729507135891936,1.517766423500445,0.046289588831176696,0.9592190954783449
50,-1.1012843011783244,1.0632583264493018,1.1077940193733877,1.0482663570291986,0.6046833790124985,0.0023088110761529885,0.36458492531792436,-0.5808506272541852,-0.2539333664180638,1.3575578352594142,4.804369721462703,1.477611034457827,1.9635488255623046,-1.3489036447559293
51,-0.18803659919061444,-1.838384433469217,0.8893630825063654,-2.3540469509030806,0.5891700108244617,-0.7394594217315357,0.7900185541789222,1.2195742417883486,-1.312847814640768,3.262645368871354,-1.905373724373811,-0.4752677043140069,1.0973634173766267,0.16766690785733238
52,1.2114587187365866,-0.12108638835558949,-1.0080785798930716,-0.3780375867724986,-0.5222331264247445,0.14877076694055136,-0.4586701000708579,0.41230941462838583,0.7490393166154425,-2.235156397489611,-3.6634134353316794,-1.2767823001257848,-1.421522922870301,2.2170313840139717
53,-1.5179621180983878,1.7479762771705583,-1.6370308470526458,1.614846042631925,-1.0883563766224056,0.3779197436746076,-1.7895812489030585,-1.9696445248429988,0.17768423581877515,-4.496464086981418,1.830325153252,-0.4633912651538788,-2.367979483132915,-1.6225570081890501
54,-0.4507446029147868,-0.7577482692660041,1.316875077715902,0.19448799066551561,0.743365247449465,0.009749680617615277,1.0435337085459746,0.08217511990281151,-0.7059681643227638,3.6829941300683857,2.648609481128009,1.5322835936833157,1.4410308728597983,-2.4580335699859925
55,2.7324784560649347,-1.304268204415934,2.003785678308997,-0.7859659243357072,1.3536169738604718,-0.21696205291539367,2.283025674346642,2.4495223210386783,0.7746298378598854,4.560511404573203,-1.6416283263680598,1.048406066270713,3.4195191653649277,3.111047816751416
56,-0.822667672268212,1.413122944261013,-1.7312113996399345,-0.5366578963516523,-1.0749795254138403,-0.2876266146129865,-1.7327690756304488,-0.7443548773048142,0.2375667759390444,-4.92267204602682,-1.651981862954125,-2.03098616531629,-1.8887825628123462,2.1002195738255196
57,-3.2501226701800645,0.5834429682924696,-1.973244336703613,0.1672812219112612,-1.3546665645403448,0.325127158260134,-2.2295739653590787,-2.57549321886765,-1.307833253013762,-3.5835791527658825,1.2973462358780812,-1.1747631155760703,-3.9975976155584583,-4.38660530501747
58,2.1784173258405723,-1.7329889400123704,1.9644245827768267,1.2549783469328912,1.3284449969048508,0.45071495460132077,2.133396078158546,1.394037001892655,0.3973349103913024,5.281666852275219,0.6050218554551086,2.510417281315135,2.4880771764579186,-1.2790617862391074
59,3.132038171056443,0.29225709943710254,1.7272535900279609,0.034678498163594196,1.183010450354971,-0.5930639303953033,1.8627522673986938,2.37618008802196,1.3656802575850542,2.1551724526746896,-0.5996540692813548,0.9090526842080007,4.03135633448497,5.299185203587644
60,-3.286018642797881,1.6675418545994618,-1.879723713186881,-2.074418962304661,-1.3995172872217907,-0.3554657868174268,-2.0380027562398513,-1.89532128115388,-0.909845913016264,-4.504413338943439,0.35602408482463627,-2.769549392669546,-2.9339543319480965,0.1667967011147152
61,-2.6071043787920614,-1.1818302252173207,-1.5272858867298669,0.21749484555105345,-0.9846743259250504,0.8050862392167338,-1.5535662140782578,-1.953936881367752,-1.0853205317418686,-1.0314797009991414,-0.6231262381659933,-0.43663845355766906,-3.648930769751171,-5.787529065927316
62,4.001619717044119,-1.2255493276586007,1.5343596734959795,2.70912168228107,1.2974398757906573,0.02983454619970172,1.515000964615954,2.1884242614195997,1.106890904317952,2.8535355083322487,-0.8743978572784662,2.7396716265206082,3.019761903403831,1.0760586424836087
63,1.930588012826187,1.9389965078479179,1.573139599638133,-0.7985988940047821,0.8775860145674992,-0.7726399978670065,1.613823001164449,1.428660610233531,0.7222414220416077,0.7769245545215717,2.2935492542790628,-0.04146514696927824,3.1047003731582192,5.8400224905419575
64,-4.350371320318476,0.47170562055113263,-1.1251324877215276,-2.964788704941278,-1.1142957724377371,0.3482356148021771,-0.8576518201183989,-2.2800850042018452,-0.9649689523074292,-0.9625260354246208,0.5560561428877463,-2.478322579607592,-2.7133460807804752,-2.3059239375281053
65,-1.2774153056649682,-2.4214535313685244,-1.9078213410229832,1.4943556437227032,-0.8974250512539875,0.45083179728743195,-2.1414049277729825,-0.8939935021224534,-0.5244264173128118,-1.5155964746532906,-3.994041998665744,0.4009063782196245,-2.654285619593033,-5.466719565633968
66,4.441537966185733,0.4664094354639004,0.8713700351928119,2.779700939586592,0.9580330389457898,-0.5629209701359333,0.4273167738322299,2.2072893855010864,0.6157700913742044,-0.4775863581471463,0.7449595069937186,2.096242891929233,2.144385007933344,3.3735829591713924
67,0.7114214736604837,2.515203416626605,2.40956282910562,-2.0885414569686462,0.997310579694696,0.03354408153130089,2.980807278587362,0.40485004109826533,0.6210956022402008,2.904034109113185,5.111022077639748,-0.6216744876231155,2.444228466044032,4.710068237487997
68,-4.378965192881827,-1.3954369792205932,-0.8978477739643457,-2.2029990442818685,-0.8918440567129817,0.4942454891021828,-0.4771273660845011,-2.001664771675376,-0.2568636760211943,1.040434488119546,-2.732035799507342,-1.67087541957114,-1.514752509636942,-4.113801477748788
69,-0.2209602624437797,-2.179864505663101,-2.867086194952345,2.415280914356992,-1.0922514850576854,-0.46047995198752306,-3.807221454893555,0.005876644793588046,-0.981153274940684,-4.326404095424894,-5.15813997708861,0.7420771920921055,-2.473720940137733,-3.684329134189819
70,4.215091029668011,2.083186767783661,1.1764862832701697,1.3497858729625145,0.9142696049460216,-0.18905899559247163,1.0428597313999588,1.6778704806167803,0.0422121472107714,-0.7398074979814282,4.7204589848615885,1.2076331869121741,0.9892701292626943,4.380323680244991
71,-0.22219998258792473,1.4940142505950993,3.0931407328585516,-2.3679146453801136,1.1121592639539686,0.6516117594118496,4.279942620434527,-0.30221788938230454,1.4539094688679932,5.206793438432239,4.0849070508737615,-0.7816517944277631,2.6396498533688195,2.6004380710680053
72,-3.957929428324012,-2.3272916320642705,-1.5523318073912937,-0.37407955733301657,-0.9831989429872161,-0.17517791397905833,-1.9434082236537695,-1.2503924990284658,-0.012891971628116608,-0.021047801592294038,-5.944585283761807,-0.6734712355483694,-0.6323854504153804,-4.122152326171722
73,0.6235232965793267,-0.6626469176652895,-3.0145303648654127,1.8938513845975171,-1.0269915987294604,-0.574035156300461,-4.184367157584825,0.43629450763327166,-1.8585028636011331,-5.279052473086516,-2.3643380978738326,0.696551290567265,-2.8241178243916174,-1.730926451208879
74,3.605790249282674,2.043788545111119,1.8329526091119852,-0.5339606152720642,1.0555861277846474,0.40713501299342236,2.8736408946893475,0.7616457333905311,0.09626732705551211,0.6898614211075272,5.9506147912563305,0.0718974691207336,0.42054805265561723,3.453387063085897
75,-0.9630397210361206,-0.03988788204516997,2.6933224338155353,-1.0087219684201625,0.8337188947728688,0.3471078732185795,3.500420828345328,-0.3668964073456531,2.0683975005442816,4.679847367611918,0.7817111035131235,-0.4053404863582267,2.960748944146334,1.3064128220767905
76,-3.1751298779851003,-1.3261282746229892,-1.8872844352094111,1.1560206617094786,-1.1066827645465687,-0.41852940266436967,-3.5313282894784566,-0.29527201571938566,-0.1581916139469011,-0.8617698813399314,-4.839658495897736,0.5041385709937823,-0.30594854681549766,-2.6538968831751646
77,1.2179273414414036,0.3807170555901347,-2.274362962239096,-0.16785052101262035,-0.5269415628435016,-0.15368230364078578,-2.382166869153208,0.09557566097165829,-2.051840998548898,-3.8257379772929982,-0.03289858011885754,-0.13049815200079773,-3.037772485060211,-1.389856735359927
78,2.702497050323195,0.4278276083573275,1.6989402039115347,-1.2921897667162032,1.113454992661069,0.2637063789648488,3.7158237544923827,-0.04220659384433245,0.06843594064692976,0.4723590498197978,3.2086006885413805,-0.8910736686705203,0.27317242641676714,2.0707420243147667
79,-1.3857847750991217,-0.28151370957863486,1.8956278763437189,1.389517205439259,0.0888017327560346,0.12264416562446111,1.0791589097069028,0.30427241256509585,1.862783923579785,3.1516638364286425,0.36360701342039486,0.8306658220824993,3.0469386046592515,1.8073930779382799
80,-2.2243746666112942,0.3409333166224519,-1.3489740666856713,0.8477621319762818,-1.0204297140610945,-0.08250489229159101,-3.365059693995683,0.16818198322774575,0.254902755782781,0.2115695496620684,-1.8170523189302545,0.9451544018512238,-0.3397724135407292,-1.9538768703278893
81,1.4890711963908123,-0.13323402247740876,-1.6169418875253514,-2.3183401066512186,0.48156289574045896,-0.2649475742760994,0.1496990542360591,-0.6900545112275547,-1.6049283564857115,-2.862420474124138,-1.4618386360265923,-1.4880641159152599,-2.9318047095470194,-2.196101052698577
82,1.7524190118225003,-0.760442873367975,0.9453852208667426,0.08014571604014221,0.7270837038667834,-0.0029391770965114922,2.5375856077175407,-0.07753458997675981,-0.832709045829769,-0.7888341503131763,1.173741134745001,-0.6524645563893883,0.4988520723466041,2.3113786919332373
83,-1.555208183580956,0.594173242418948,1.4089148238992213,2.6348208423682875,-1.1135946555015726,0.5000636349271858,-1.0916072446540024,0.8952244469397125,1.397921727315731,2.83848932570969,2.6660441665599506,1.8535269083348567,2.593367693496588,2.165808753198768
84,-1.263487062152114,0.8140493872812123,-0.5475485849993674,-1.1779459726575752,-0.12688687791688677,-0.04207295656386572,-1.37260641152897,-0.1278402781011037,1.631916126960693,0.9882043333577539,-1.284173062392835,0.1840829222783961,-0.654498389209776,-2.8725344801907293
85,1.581297104982804,-0.8345202654356825,-1.2057301251368426,-2.1895780268830665,1.6302558390496666,-0.739878550399105,1.5989010864126618,-0.8054576803408486,-1.3594818821743984,-2.747224369840729,-3.362007755450185,-1.7789278872566094,-1.9675751148379494,-1.502109290390928
86,0.7186579444463562,-0.6938920206353136,0.13659149514225144,1.9977332949063924,-0.8082045824251815,0.17527049304767559,0.05908678435470496,0.260286348147436,-2.5719418910091707,-0.8408262551705487,1.703747254142745,0.15676409752282947,0.6192098834092756,3.1966518712727607
87,-1.5050356523551738,0.7506082857076642,0.9841318779783964,1.120715296292333,-1.777552579894971,0.9568249320593998,-1.5934380279071014,0.43123061568535864,1.5948626377080348,2.2888394683788684,3.3287184817773783,1.337427762156706,1.1250971549082107,0.3037241798519855
88,-0.11303931645962337,0.680714934161427,0.3454483890398644,-2.138499040938177,1.9453052228110455,-0.3485052874216771,1.179973170784609,-0.12431531549699341,3.5202593503670685,0.6540206139248181,-1.8547140940673517,-0.08977162242289982,-0.20494983096248676,-2.8881060207478515
89,1.2108747001832583,-0.47670838860469206,-0.8105994946325963,0.1452281153355549,1.328954782356479,-1.182187470985322,1.0803893817991659,0.06820215966457784,-2.174279475944119,-1.42331183464146,-2.8282753214098197,-0.8349601997778889,-0.30788979433045255,1.0293718534069123
90,-0.4644910716365703,-0.9559218586797257,-0.9108126042209913,1.4532827150010577,-2.9741090733250255,0.5729651175046545,-2.1080566550004147,-0.3771777662954998,-4.288840808874765,-0.7999209093277577,1.4050565578192573,-0.4601249277981092,-0.6348387614214237,1.8143893701114646
91,-0.5916063548771332,0.31356290258140707,0.8143009565439135,-1.0456698462021672,-0.22204029969882913,1.4413007917255813,-0.17186984709804398,-0.43898676317474283,3.0904288850803363,0.43216993799053927,2.3968701288239833,0.6776242978753693,-0.15399748403207897,-1.9682577192120387
92,0.8065192545967883,1.4589324109212836,1.4559985807438973,-0.16900228046083726,3.4937168296261296,-0.9197460390726868,2.5235467246355263,1.1659605915984776,4.658703164368282,1.450520803660749,-0.4740403571607042,1.2652890794382325,1.7113207221167503,-0.20947905502467135
93,-0.3481583762072667,-0.5368117222203838,-1.0908722773534785,1.1406658786347956,-1.3513627105277235,-1.6849617828740309,-0.9071910431901268,0.45217461134300335,-4.215502670196138,0.23047462838313135,-2.4801987465627158,-1.1466257172295986,0.01900116488651137,2.111616448835926
94,-0.6432115724688771,-1.8915761477113933,-1.7682148139663978,-1.1730195676988908,-3.1798605375009754,1.4510404513613495,-2.3331512331455895,-1.9959913944338405,-4.449490768774253,-2.4294796455817,-0.45496338207153103,-1.8649994303876434,-2.640553355240469,-1.405096361428023
95,1.4050815243819939,1.1963615595676125,1.5950518569362582,-0.3522041665455661,2.969191372182023,1.7801598800770249,1.8630561854761476,-0.029119875132752566,5.297587748749638,-0.20965718577052717,3.1469618418144387,2.2047275662204973,0.7003024430291702,-1.3958823888979481
96,-0.2156548412551536,1.8871018543833227,1.626121785583642,1.959348901040766,1.9516597198013093,-2.1342580119911188,1.6123598903043013,2.557022484176709,3.614218622771392,3.2796545560434573,0.8453074913281025,1.7910581245727066,3.020239166941113,2.453495458099737
97,-2.1844007580162157,-2.0402378567718933,-2.101899279428087,-0.9587177991898037,-4.125784803500805,-1.5778080965672756,-2.4299661152647833,-0.7020344145206112,-6.026942035124964,-0.5241929829733377,-4.052581316049466,-3.461130526853899,-1.696570548110822,0.1441474593451943
98,1.7152453471555162,-1.2514585830496332,-0.9461323988871216,-1.8200883190683352,-0.043235133970602954,2.808113021709954,-0.6033648482902925,-2.624821804301483,-2.3028173421522453,-3.5083710724372086,-0.4368713324634996,-0.8345822463622853,-2.6486999519318006,-2.5766670235716513
99,2.241572878994864,2.6300755018758992,2.28402784879547,2.1476056470969516,4.436635283333376,1.0169025045270763,2.4788655723069972,1.4593659110881114,6.160404333246317,1.6348482412110916,4.658759973957249,4.339683033959174,2.4940579315840163,1.0765167548004768
100,-3.4744740155632146,0.1238730890353941,-0.11853918054877122,0.8439659254248989,-2.0684579683468693,-3.2354661479541975,-0.36987303679251493,2.173683257197529,0.8376169724375759,2.861720852991902,-0.6068039786303177,-0.8033023194280025,1.6553452802204833,1.800667395119403
101,-1.313642059811114,-2.5942295569376936,-1.8787997094788418,-2.6132388980036354,-3.7980152726806025,-0.19569029246731323,-2.0745873250388356,-1.9449476685149343,-5.643117779639783,-2.5886479889298735,-4.5570334258024285,-4.372186299509164,-2.67919293417079,-1.714606208733119
102,4.874023233997924,1.058763464814848,1.2037730399298652,0.4437096412841766,3.848921477999492,3.2196637679385676,1.0360081202182732,-1.3855801955485263,0.40980884348280283,-1.466310605035408,1.8071439054837637,2.578420731483722,-0.46216097863366873,-0.519509909690488
103,-0.4824630845779004,1.8667836513083884,0.8517544137037409,2.1224830451899765,2.420441880797751,-0.641672440207435,1.4395163342074035,1.989910026603123,4.650231771647949,2.92751239354019,3.695372606784389,3.4534946031568,2.1084034704921573,1.4759596401879722
104,-5.3071637317350815,-1.790031795082248,-1.8906195794639358,-1.347871577664005,-4.912225100775523,-2.7194547274775993,-1.2883609459952603,0.5513085826203605,-1.1855559018436344,-0.23624957606870467,-2.6485086359365946,-3.8644847706913774,-0.40497423197700405,-0.6880285634444505
105,2.617223074239924,-0.7563609505586747,0.5487058643379367,-0.9448899502793396,-0.7234840712818734,1.205181793942488,-0.8369818182700852,-1.6247855887918052,-3.5080054157091496,-2.4879473630803632,-2.385119661945757,-1.9078506787913934,-0.9826848739970856,-0.4333974061967318
106,4.479075003808051,1.7844797860964638,1.911545860118199,1.3763165686505614,5.148592954459671,1.8956022159339374,1.2107216250202406,0.07735194926926013,1.4703496266213678,1.7124982959616013,2.850142168434068,4.266613438639337,0.5547634068254599,1.306950713293367
107,-4.334369934088917,-0.21202094137665664,-1.8905534153572376,-0.2900087994648325,-0.8493705337512379,-1.298636575179998,0.4385627174850431,1.0392413221716799,2.5253621429366935,1.4521502184769048,1.1068066414213,0.3229290196594984,-0.24300962545995966,-1.030688777353163
108,-2.5890859221654052,-1.1506840938747793,-1.2875052946058543,-0.5072683880214894,-4.72052337366362,-1.0564651310270905,-1.0035138182661059,-0.3986624849104723,-1.4708449847320229,-2.584873469909934,-2.480536617917201,-3.8104335113949315,0.0996493700415885,-1.0822722689208144
109,4.98099911717854,0.5954583163237365,2.7619786486749125,0.9382709889113677,2.0030418145873994,0.9276510178995218,-0.2500109562361978,-0.46211912131290267,-1.8277714244269259,-0.22245965999479336,-0.24534853828078304,0.7556477143009245,1.0612920668816654,2.400691914256259
110,0.27885477522524205,0.3321995837324317,0.31336125523883235,-0.8051881424911849,3.9425956625621263,0.5203667253672181,0.8554468134563991,0.4752336799002836,1.478315416211828,2.772309688928841,1.8685162419879395,2.900222116227387,-1.312020769663918,0.08886439995974271
111,-4.312636113564271,-0.2905739922191297,-2.9643632192044365,-0.6918233964470172,-2.6728019971912165,-0.3153069040103638,0.13420084750710748,0.03859075250249473,1.2946621974550725,-0.7930740550860417,-0.09088736889376058,-1.0945082582640713,-1.1247322594175988,-3.2332664555819512
112,1.6430833166333674,0.15485857989230328,0.5998485878816895,1.8918693919549208,-3.113291234251412,-0.4573476689809007,-0.834350420561362,-0.45370912812916536,-1.668784679743027,-2.4662407391864485,-1.3833120687316773,-2.0745178943297264,2.613831095269361,1.332376033277007
113,2.6063721207112747,-0.4126046700547122,2.5858392192489728,-0.2705027914970244,2.9879463002624025,-0.19439338425785943,0.08749257775943498,0.22227252512381263,-0.6492650133908484,1.3610376711295293,0.07660033001947225,0.8549841682969762,0.37876288115278967,3.3096718043918547
114,-2.5601776502123106,-0.02779692542989664,-1.1321184978168664,-2.2393175849822833,2.383368733652518,0.7922455394374193,0.8551671483206633,0.4503159907927989,1.9633781035421434,1.9804405331688983,1.2213483237375704,1.7057237672358543,-3.5028558041375777,-2.7268179749350656
115,-0.5196798727068757,1.0168943891838196,-1.9215441025542959,1.4140254969850925,-3.147224367377964,0.30832845359225597,-0.5153464724633922,-0.4063006212143189,-0.33837031694777675,-1.4823715000560076,-0.017662106558471814,-0.4488107198848745,0.9273969879311629,-2.689243287735066
116,2.3005148566878013,-0.6043948196688868,1.1931767288210295,1.7495073366775769,-1.7214403476204232,-1.2304291019231077,-0.7375167739974898,-0.47918456344775434,-2.0445876346455307,-1.574597815417107,-1.3205594982085826,-1.8197179798298473,3.6273379181451344,3.699708334391647
117,-1.2235625603856,-1.1274945404721204,1.2983165186795733,-2.170165111285304,3.276709704833303,0.05346214980147443,1.0978683249937577,0.598513251508398,1.6496610805421115,1.322896585958917,0.1444711680320203,0.26372410018005443,-2.3398669717720844,1.6594660860392516
118,-1.1577355544000645,1.3291442212250104,-0.9239306701584544,-0.7421722073272572,0.9859449446381745,1.4075713641678922,0.3180769505005021,0.4648712071516341,1.5385971732427683,1.3493332384661632,1.4388931986452276,2.1341851260322824,-2.901373357098843,-4.049157405912303
119,2.1447609066916162,0.6879856550482437,-0.9112470943346938,2.244068311370334,-3.346440335866191,-0.6985900821338836,-1.6416526845458086,-0.8038474265416001,-2.9465116163325424,-1.0774556087746292,-0.47618033845124225,-0.43055403349515753,3.361276255069181,-0.6108974634045562
120,-0.3083067578163105,-1.704774981438642,0.5782559718407468,-0.27953183717569813,-0.05765833764077625,-1.0917352300401812,0.44239625389758774,-0.3204312305062573,-0.2705743777338039,-1.2542225165424703,-1.3341916683362105,-2.2780722178740582,1.5231733350880436,3.818207533593209
121,-2.159201310200359,0.005896541612855692,0.7600483029607821,-1.7240925477623648,3.1894184265191496,1.2528012496684342,1.898670744520513,0.9370470442700415,3.696693170776783,0.8563260081266427,0.8290370401915484,0.7714774180716236,-3.6155595669388907,-0.11451274157219582
122,1.5574100320934798,1.5411873973663728,-0.36899836816273124,0.9323014891230418,-1.044279466203177,0.3245529690458669,-1.4124231633789026,0.030849195090271734,-1.5583120786563638,1.179141501777969,0.927986812175938,2.0447160511825886,0.09807420431225791,-3.2546936259236934
123,1.5102988580481422,-0.5172783128078752,-0.7036478469608866,0.949643667084347,-2.610467861171258,-1.3614600530834369,-1.6879691949226259,-0.8831773865261286,-3.446796029493084,-0.6538295438522669,-0.9504826323253448,-0.950297458618725,2.9664618874393835,0.3473595475400232
124,-2.276226755011884,-1.00545687929941,0.36984760671809774,-1.128605780662561,2.129509622344308,0.5870066403035904,2.328094126445164,0.3158053433608035,3.3932844015395642,-1.0564172916365246,-0.35615579099042644,-1.5173821705553914,-1.4776652652295237,2.6975307016778007
125,-0.569055720432667,0.5593047545209362,0.5798847401032677,-0.2543636777786624,1.5224170291761312,0.8906057049361347,0.9922943806825251,0.5837029015058702,2.095425625296328,0.39963913517898103,0.687816867599873,0.7161922671325178,-1.5576618127864483,-0.14289216967228427
126,2.4153443678681112,0.490368909707103,-0.5166508935229466,1.033362163368107,-2.9061488437297895,-1.2320423266990004,-2.8995974289825512,-0.5681795762811728,-4.558686176141632,0.9087534242823007,-0.11419592662119774,0.9961424604348922,2.210810895328171,-2.4328777615095456
127,-0.35607072171186904,-0.17266938022652303,-0.30785967099327927,-0.22858652139771937,-0.03197285718755792,-0.007914372004380207,0.018397371986356624,-0.0904207567853196,-0.003130912957507314,-0.04326380879053204,-0.08868979098916588,-0.07734982966572741,-0.2354836978265872,-0.2578215612705609
