,AF3,F7,F3,FC5,T7,P7,O1,O2,P8,T8,FC6,F4,F8,AF4
0,-0.002794653450961044,-0.021945854189327457,0.008374712053327042,-0.022870846251363965,0.013826488780905373,0.021821808676637376,0.03025092029244659,0.027285947057314047,0.002060357650600681,-0.04904101581254794,-0.07922453282731867,-0.01618053991455177,-0.12922925223661666,-0.04676574217771881
1,2.5599454224640845,2.5804380218016663,3.9730866303781442,1.9951581977163353,-0.6726624645766021,0.8694095910146878,1.2816806735988793,2.0621713552906575,2.1321242554845887,3.027831112941609,6.41079478345632,3.2530937235411437,2.7338082917492676,-1.4151539592506162
2,-0.0003362197574398526,-0.38275331889401626,-0.2661639021137497,-0.5175260535113861,0.4209790971690363,0.7005659016480373,-0.7286612758533646,-0.39201595973313436,0.4297161800269229,-0.38722191007649087,-2.3982458450826285,-1.1422699346862035,-0.16994715994425952,0.9869676873853209
3,-2.6869783547070867,-2.4867659478258264,-4.1304887389548215,-1.7483291466978144,0.4236548561833728,-1.253948823929917,-0.8510278737338421,-1.854674338893387,-2.6815878296685556,-2.7846345076708676,-5.227728669390251,-2.7723791017876374,-2.4208064913472818,0.8823394549128599
4,0.14241241540355046,0.9026385704985032,0.7470217681080903,0.9797957553402395,-0.6527216847398654,-1.1212104442287483,1.1399257582774027,0.5912979855273829,-0.39494003360759067,0.8647348734840555,4.296305536329137,2.0978486138815655,0.3607063095352756,-1.59857897420689
5,2.8447593126532578,2.1632123624554778,4.255979210749253,1.2649596844368585,-0.04157565037701188,1.8229470417415783,0.20148600778944456,1.5381429096225827,3.3519166954349138,2.1649717540909914,3.1356292551212266,1.9088713821478065,1.8615996855710317,-0.09398672338034324
6,-0.5148623144253528,-1.5299265835276776,-1.5359724644715818,-1.2784866466300513,0.5605080325901869,1.0700980061014516,-1.1349728647505588,-0.5604861807114884,-0.2624365818026604,-1.2824249233189373,-5.173686756140427,-2.709871842746054,-0.3524432976578748,1.739691980637113
7,-2.868008838556837,-1.458612179229373,-4.075497413062635,-0.5976349253634005,-0.25088456220538136,-2.276733350668072,0.346437122454068,-1.289055268222603,-3.6618444618527652,-1.0999454786948029,-0.6762630834708007,-0.8253581752318799,-1.1964734459788988,-0.6422637378092171
8,1.1044035323531656,2.1023329552783725,2.5140648136203967,1.3344765458923384,-0.17845931799716241,-0.5829850659053968,0.8236958484285648,0.3781537993968902,1.3298524915206082,1.415036356997788,4.8791655139876084,2.932230776638998,0.14560881368616788,-1.4759234483495203
9,2.5826099251372585,0.31900994603407296,3.3769445203896487,-0.15865040677613573,0.24723357814718944,2.3362961786468914,-0.5605054887966354,1.209216935926186,3.2833279793525145,-0.32602554335474543,-1.525277485595383,-0.3172951959033661,0.5768762255267141,1.0829412562580965
10,-1.7733358297523987,-2.3582323579557114,-3.3951221009241848,-1.0961538960725237,-0.3088439525436512,-0.10414344161385156,-0.4795470262274707,-0.19938128307428926,-2.3407842563862706,-1.01189383088484,-3.601669227508213,-2.7933226967632327,0.1583987182608071,1.0230325709818506
11,-1.8903056960172153,1.1187950869151042,-2.1349271669163703,0.8666830418092863,0.13972665892571262,-1.8753515047716864,0.421300801541649,-1.2679076223760917,-2.2339112190486032,1.8150715565738584,2.9481841145348784,1.3958942230653821,-0.0932898521641091,-1.1502965598462491
12,2.2932458725701426,2.070604264595982,3.8479222612517727,0.5681818233926711,0.6407312018175291,0.6511811228238881,0.370213627865845,0.14312352729215963,2.836471583868308,-0.03530032842671353,1.8161000599996786,2.3532808974060124,-0.3967739175425148,-0.6176996240713735
13,0.8411554088900318,-2.530003946380519,0.5513945933592019,-1.3681954548685609,-0.8202615381563889,0.9935411237512265,-0.11362869829354623,1.3404592697333053,0.8701753081127047,-2.9271621593288826,-3.340173123458724,-2.320604357260289,-0.27401381310217715,0.9342853863551213
14,-2.434965846006363,-1.1913026781361085,-3.646475304313681,0.16575588485181764,-0.5977450061902044,-0.7656045581938303,-0.6019894871037759,-0.21582049091195943,-2.6204280703097065,1.5566280904876348,-0.1300726600717755,-1.6764466385193328,0.42157641684633357,0.3952909142806983
15,0.3523102238775727,3.5168695083444836,1.0076837812208392,1.5271324482352395,1.5470815695778706,0.010388792074573777,-0.10097771420287173,-1.3094427224771172,0.31194247567048805,3.273027651275257,2.7981734688071445,3.010666057193317,0.6566342639792384,-0.602037255901184
16,2.0806759657184752,-0.07880961116444554,2.7796733101843345,-0.9421623112679942,0.1117848109868014,0.342155741765014,1.069910080713929,0.32311954010041377,1.8565084471541355,-3.1038831410036827,-0.923784169508891,0.8374031946994529,-0.184245280143089,-0.3461807229945622
17,-1.3844506144106563,-3.7873890345725503,-2.1528940415075626,-1.2842914540426271,-2.0113709269380182,-0.7626541232377415,0.04426708897188055,1.1499373409488214,-0.9507077767175013,-2.733274748388567,-1.727855233358285,-3.3861722344822502,-1.2428425249722777,0.2773366726453379
18,-1.2972350103895283,1.3460647295823505,-1.4693162771460146,1.550945033825609,0.6842468836087983,0.4799570742347909,-1.5324031032573542,-0.3534534619778976,-0.9555715909999551,4.121834126944728,1.0755910747297552,0.055794577670823596,-0.20938751793854118,0.37024467164491126
19,1.9857935138135439,3.3044123729024735,2.627131891728572,0.7008016829726534,1.9776183429063519,0.982018409451169,0.2830877007881632,-0.9366371860799511,1.0040793984573264,1.5685234361737805,0.6883075211460314,3.3943798975184434,2.176979648725746,0.031854707101936025
20,0.32107395794368637,-2.1908098211749354,0.08537036004217825,-1.8024442593375412,-1.497094763717044,-1.3766434505160667,1.752322715214701,0.26387867762443,0.3224112678750761,-4.218777018721503,-0.4105574803020078,-0.8568484130384074,0.5095298611373615,-0.3869658114959129
21,-2.0451751985370104,-2.3186981303936856,-2.40500711390134,0.03721179572826525,-1.395719413325698,-0.6085758194704857,-0.715227405034068,0.7742678546500986,-0.7392259336548991,-0.3309729007028992,-0.17687554031759145,-3.053416593807586,-3.4504858912725322,-0.4131698045772187
22,0.5456470841765482,2.363375558418466,1.0048547366837377,1.6082475651464494,1.9912055310270447,1.9896885056179328,-1.6171170465489735,-0.10107589033611263,-0.11702908442651962,3.386315016624306,-0.6753894163932355,1.4170610327048536,-0.4137015150626768,0.42551853306388926
23,1.6553092036196257,1.2589856079285842,1.6886363934846091,-0.670402464194513,0.4351468872770502,-0.17363122143057227,1.018462734297177,-0.7125532869236888,0.5371411205168696,-0.39678029453021524,0.4397146976590984,2.4741136039311367,4.841728454838313,0.952239930992223
24,-1.0731870595881419,-1.90523665337023,-1.5828447231986098,-1.0380006282682708,-1.931431534736927,-2.0929322473200096,1.179886563575163,-0.05468845298952537,0.1729161098533324,-2.03081679950198,1.6403515261140362,-1.6485578743112674,-0.2857848592601333,-0.6330473298018607
25,-1.0558227234015614,-0.5311158935146871,-0.8028138032180737,0.9653018337113835,0.5773183443395771,1.032892325844295,-1.0064973676674882,0.7159883504643537,-0.6347285168078625,0.296869410456189,-1.3865339019362752,-1.8312633073760516,-5.955554868788752,-1.6223387826821463
26,1.2010901587588976,1.1287714837362908,1.6501274377963966,0.31434666044941606,1.2843068550994707,1.6881731946379634,-0.6186032604320312,0.1720808032210656,-0.11866296638922413,0.7847036803121765,-2.0118232995902066,1.5738042391237055,1.5650735098971664,1.189508775749806
27,0.5067056942118284,0.328978231106728,0.04349767377046581,-0.8205625015375619,-1.287163432498332,-1.6532023825486213,0.615988545635105,-0.7122581997509766,0.9617720577086676,0.5231448454526963,2.6419092874966554,1.2905478221950037,6.368946117523369,2.235928461488028
28,-1.043633488437951,-0.46515147641056376,-1.393195263044421,0.26619090768091336,-0.23340684766882103,-0.9829218432577288,0.151170513025238,-0.30585510248832837,-0.37191054247652655,-0.19855437384135047,1.5624369443236876,-1.3228133458643467,-3.123430551470395,-2.175064079826296
29,-0.16150220938209156,-0.5524921717814133,0.44413213578816196,0.3260951773163412,1.4490358526464158,1.8767081343010623,0.0791369819014654,0.6792749929926912,-1.1700524987456415,-1.5932868297133955,-3.703983774794298,-0.9303322719614308,-5.824655291597829,-2.4988843754825774
30,0.805991764961769,0.25897254008339665,1.0664586855471359,-0.4582725332931868,-0.8928312759439909,0.26747222815085386,0.04939996589998269,0.552542886546403,1.3497725168665746,0.48490983602581533,-0.37905820667486817,1.0705909696516518,4.473781296501567,3.469248206368865
31,0.005731095622407626,0.8687586914966925,-0.7009928802498682,0.26214301458113154,-1.0131864959438999,-1.751533635978321,-0.9044124058096931,-0.698049734828736,0.8378289750300326,2.3231811880079625,4.138498412294341,0.7054679344345564,4.373390569302579,2.14885552273451
32,-0.6597811188264094,-0.610846981182768,-0.8577046076657229,0.18100970713171396,1.7438079992760485,0.23593161354274805,0.08840940689578104,-0.9528067810267948,-2.515403085898153,-1.4451813751553246,-1.1903809015519795,-0.9451134303810649,-5.139720668486584,-4.749658323828648
33,0.11086864320162355,-0.8789789933264037,0.8937556145852961,-0.6274608342432875,0.13311928401774603,1.4678387803454542,1.6499995303843107,0.9208928453879616,0.2661202189495599,-2.2811184550825825,-3.7312807971819657,-0.47829260397336676,-2.381589978552165,-1.106524646094018
34,0.6448153666357743,1.3375979165794678,0.8038627588937828,0.43724470643317476,-2.067834728836779,-0.46736700059322445,-0.516941574568962,1.4128623384846883,3.3435767766079514,2.5952765713993062,2.67810037593256,0.9561841000553761,4.863411493400166,5.604747773388827
35,-0.3685546402943596,0.30712771802700584,-1.1982950471536262,0.5317407087752359,0.8981199163960291,-1.2294565107526676,-2.1423667509818993,-1.4655841888826,-2.0059410557276904,1.3673999788548667,2.549190302765067,0.10389765755391794,0.39219357866960297,-0.4460081324421624
36,-0.6485440303603266,-2.058494446635974,-0.7936718300649304,-1.107608273307765,1.7895536101283103,0.5216627045844189,1.0921586525620086,-1.709846299109808,-3.343802018925561,-3.3978144343483954,-3.6651126814133024,-0.9864413072123323,-3.716664790523823,-5.709235033799449
37,0.855907899185532,0.873572988306101,1.690295593329151,0.07572620291283208,-1.752185123862474,1.141141244591606,2.3019399064921746,2.3020999274005867,3.888095996454197,0.17875605387754728,-0.8983921148795158,0.474963351424406,1.0925879389456428,2.10926919411618
38,0.4746063889111322,2.3609191129225446,0.6480239989913494,1.5036200681580998,-1.0243508925772564,-0.5577544145388185,-1.6313243847295376,1.5922404653838336,2.3215552911150907,3.4762986253194126,3.9164400649396995,0.8532129259622846,2.0604755443430873,4.972125661296073
39,-1.498312815825488,-2.4234034883306257,-2.2969289111875444,-1.0311248556921742,2.1735002722679466,-1.1729181941347038,-2.1659057067486294,-3.2096784537881,-5.256896748224421,-1.903495802999342,-0.795831394121737,-1.1751703209381847,-1.7966828898722977,-3.4147218485179693
40,0.034251890854308395,-1.973547892856665,-0.23219634286436008,-1.40429172306502,0.03150041899529392,0.690536003084904,1.9873304641441876,-0.9235740223977531,-0.5072334509470183,-2.731333609371759,-3.440230257181277,-0.41192468457338427,-0.3828261937902634,-3.5823358515473434
41,2.077647940404287,3.9271397192484745,2.829402218399083,2.0254379110134515,-2.059567793706034,1.2083871391142655,1.8620873014940746,3.841791803135884,5.581840006978429,3.312689695431452,2.139105052703916,1.7935136911354113,1.7388842285571928,4.00259854246223
42,-0.8837815483456017,0.881145960174175,-0.45737416392749003,0.7922773634882829,0.8777824773169098,-0.9316733422877487,-2.1077312763999903,-0.21250784535573997,-1.5117504174059306,1.3482054577770735,2.457353078263234,-0.3510321834069633,-0.8936508944692881,1.9357268565673957
43,-2.3373230995535423,-4.954399691681731,-3.0760616596508745,-2.7411527662226387,1.4903957502760334,-1.131807609518706,-1.540132301553366,-3.8729981020489332,-4.69873897326156,-4.029619718216932,-2.891155841982215,-2.0931141871402534,-1.171601132395064,-3.74520356315589
44,1.8893200634461635,0.660141243787365,1.2733469258890482,0.1403034817612009,-1.450283102297841,1.2049401224254377,2.0461083371873525,1.5078611055957696,3.023011536601537,0.27531472078547287,-1.3010472283225025,1.2837810637079694,1.5408994199178856,-0.48938751708441697
45,2.1207498372640625,5.229526653587438,2.908309405273522,2.9940020903887197,-0.6950734884339673,0.8928038823387656,1.2923611382271216,3.1549002422189156,2.8923987026042677,3.905179376577703,3.0185990213805374,1.9153663862953216,0.4453788882150551,2.7713143041264927
46,-2.7382172367582776,-2.215511407715135,-1.9726895385024836,-1.0849837098860893,1.5825302637931438,-1.4105852318352763,-1.9151344456714563,-2.534560485007513,-3.476506041614373,-1.6524523743657036,0.29146767055822903,-2.11213601893663,-1.551326111205374,-0.3857084895279399
47,-1.4699405074947391,-4.746082013177084,-2.3481158999839886,-2.810531589536087,-0.038547843100543225,-0.5131342663807938,-1.1092620731570104,-1.8037657925144426,-0.7875324630678211,-3.0672375684653694,-2.6651663594773676,-1.2644901920290237,0.12200686288995866,-1.402819452312649
48,3.1284287139119966,3.3432127892122088,2.3190610307252415,1.7664492495690842,-1.357098356247501,1.4863544719796284,1.8055667044088626,2.9127821563639618,2.698698159474359,2.3624286151392133,0.3637303134886973,2.5425943142273164,1.0845602963037975,0.5017059399528562
49,0.6276988418512317,3.7740570738727586,1.5667569992121289,2.3998998769352866,0.4811830397151022,0.0446801116580115,0.8993032040942297,0.1769799346941567,-0.8953980191897933,1.8921640855201902,2.0633381333588714,0.32604176044764177,-0.32247527549515526,0.04744625325000844
50,-2.9140149958829076,-3.778912650502695,-2.1834003987153103,-2.072478889298662,1.0022391930298815,-1.4236734585811954,-1.720086101545365,-2.4674558735318124,-0.9468468665937584,-2.204627333857395,-0.6075810308382937,-2.380392636329136,-0.38904330258322994,0.1135543189203202
51,0.06341774022540193,-2.7453017866514458,-0.8187075608879852,-2.0321268081487753,-0.5580818570153913,0.4799448123058262,-0.5645483439497611,1.2531481244652074,1.607181819628525,-0.8859856792614638,-1.4344178900286135,0.5880763984278398,0.08045122211917644,0.9111601279769183
52,2.18004809661019,3.547928369969046,1.597639269450516,2.093612631397567,-0.7860256247272841,1.2344456055026782,1.5659724363454355,1.305426987514235,-1.2057060336390277,1.2944872621890438,0.5065721252066487,1.6138052603063162,-0.26401844780506845,-1.2368948696383208
53,-0.31514784014172365,2.0595585846844022,0.3442014453180475,1.8882268414901149,0.377692536662977,-1.0619565625382132,0.08643219623082857,-2.0757289575155955,-1.149894614289117,0.4967884154043118,0.9229644774805874,-1.1448579694241094,0.5511189353541307,-1.2050847208009843
54,-1.2065455517307961,-2.9434865235322754,-0.7425341421160614,-2.049938192435001,0.8896136367338138,-0.9013279548494035,-1.2161679219138015,0.22089719983416334,3.0892721903943077,-0.04316927421727884,-0.18536198551147123,-0.43364719298620896,0.6313865586350542,2.5082010669759325
55,0.020596517295422043,-1.902322508194046,-0.28339201662243757,-1.9667715420632443,-0.17529161581004582,1.7021024562091387,0.43413295172465194,2.094228179237066,-0.2881560001156492,-0.9273924063063868,-0.5872449967383492,1.1062980620038845,-1.4031268784530533,0.7481003023443132
56,0.3431753051718771,2.374414241733093,-0.11770751272530272,2.1484895884011825,-1.3182936539439662,0.3582833038091806,0.604964884588313,-1.6492649396796955,-4.164403914994549,-0.9917093398433768,-0.23342578310569395,-0.8161578867880976,-0.5470082181998887,-3.5184682728535597
57,0.7080730425456112,2.1698173679850323,0.6324308092234668,2.0995645234909097,0.19489475048822652,-2.3420080647609014,-0.8126704670323902,-1.3913248432007512,2.231922081519451,2.0360494411631382,0.4328930094535169,-0.41845703436806064,2.216885272682798,0.33338057133571997
58,0.13648700009048942,-2.1593358205582995,0.7226382172126878,-2.4564678556102857,1.8937315063794058,0.4710554829340794,0.1998829290084075,2.584502962482096,4.172668790585234,1.3290042380596667,0.651599678796296,1.7394962306777995,-0.02802990739001208,3.918787192518036
59,-1.6007384979933341,-2.542253503562983,-1.2495338101588458,-2.063424499752029,-0.5641664778240465,2.8301941838740894,0.8774076695462959,0.2784438487627212,-4.093055928537035,-3.3784380728326173,-0.45212557524058394,-0.7525807819651638,-2.7000823746574953,-1.7205298075878241
60,-0.13003817920603566,2.377727548616713,-0.8936793067696889,2.863646654039696,-2.3333064273657826,-1.5918141945682873,-0.9960026775858852,-2.838602429227385,-3.1774560456388135,-0.7631047766675253,-0.9788874365053474,-2.0122136623362765,0.9738947099717382,-3.528904985646469
61,2.346781805978376,2.662889322272951,1.9020667280226202,1.7184317548203687,1.2221252706347838,-2.9538531295472166,-0.5726088851147677,0.8446302500950847,5.346135095152066,4.376266353541646,0.6322997678062023,2.050753661647246,2.612307183213252,2.9853465506898327
62,-0.2820388464461757,-2.8551061732560323,0.5831876859722818,-3.1503122619969535,2.381177222651417,2.8660783447959646,1.5235517603989643,2.473307634529793,1.5096645802823736,-0.5460033398944052,1.1083637413098422,1.4967020945612108,-2.0249551997547557,2.4083086826478075
63,-2.7080128900350315,-2.321135522906528,-2.3384847219395937,-1.0922731479665073,-1.9356288854827601,2.537166941204983,0.009772094746367487,-1.65173375509455,-5.659168848001049,-4.541553878002557,-0.9259962355286572,-3.026275476905669,-1.8562729576809747,-3.7261144903360397
64,0.8931809368363277,3.2797748270549723,0.1152869910697325,3.114756924948595,-1.9300535377809451,-4.00989506104705,-1.5830401267740861,-1.7335368648665572,0.3437190842662325,2.1239933609043598,-0.923095150865677,-0.310764892360605,2.83927233698708,-0.8509456341574987
65,2.5849007476343586,1.542056138522024,2.366005383031339,0.3683630814519017,2.3986039959664223,-1.5578672594918346,0.5640392768384661,1.9974520064320211,4.960950232507534,3.6700158710621356,1.2112142759986213,3.2806202473627795,0.5372417633614193,3.7122696408166083
66,-1.4560467682223701,-3.3745669189202703,-0.998278961719316,-2.6861780243974764,1.0754125400330528,4.682098999171499,1.1329240164266088,0.9147638982696515,-1.8743428236301007,-3.3513551434811952,0.34971023288266556,-1.1835598889398005,-3.1115737437791764,-0.7118446180416722
67,-2.027472371665906,-0.5469724028634528,-1.9114927988973476,0.20773174646219175,-2.367151276991232,0.21049991301136123,-0.866651715642462,-1.926213621302069,-3.444513095417734,-1.93595372500356,-1.2877643093321849,-2.618061598236664,1.0422480098473177,-2.9761826176753345
68,1.7613666808078121,3.0259812900996206,1.818431458830492,1.9657578096685788,-0.07606304114374036,-4.630587732036303,-0.31731669908685683,-0.2369980742879673,2.686937712371899,3.6916908482720903,0.566092166020137,2.4869396599451496,2.6942583823033748,1.8725242208925756
69,1.204525160014219,-0.3740101690182033,1.0432194608702618,-0.44926722671221997,1.7651200440268984,1.132432929832191,0.700632370671344,1.5952659358877774,1.5071384435955408,-0.1462721094325618,0.9390232562927134,1.1416630320384251,-2.4654220573703016,1.802001853544471
70,-1.6940804576882773,-2.3124575784646173,-2.3643175557163274,-1.1817276913839616,-0.757863479572801,3.8213690258688575,-0.5882055364294527,-0.2139529589101554,-2.6070842352630126,-2.903589012987049,-1.616086561636174,-3.141059991658459,-1.6784768644742651,-2.405948027350149
71,-0.34748124145462733,0.9965682732676003,0.05744154502784458,0.31644464487436397,-0.7102476461379875,-2.054005477835237,-0.035747879880286375,-1.1674354494170067,0.3680431652231903,1.8915751430271668,-0.04445566139205352,0.7620146896561099,3.3457487562429304,-0.6072200469522747
72,1.2616002590936504,1.4392904180898258,2.5224483119504995,0.5854729897643663,1.1918227614841699,-2.4798094370805503,1.2834806863492847,0.46172698882055224,1.7261346448019854,1.1573437529383002,2.4662874565604933,2.9084626152129505,0.3900958139511409,2.350886644818221
73,-0.3198780916835893,-1.2375002772756405,-1.1630525924485493,0.0668212893888768,-0.5467748476148192,2.260246967128732,-0.9803376131424483,0.7378464920242293,-1.7613005656390932,-2.6965286376604407,-1.3149805107693682,-2.5609407744512995,-3.48423382107782,-0.23276296601296814
74,-0.5879560346676184,-0.6341236830963631,-2.294942872846677,-0.3383257878109849,-1.146625556062443,1.0184922842374216,-1.5521186412509569,-0.5642318173544073,-0.3551916731900817,1.002161966292646,-2.7800699728846556,-1.8662141390145657,0.7194229946686028,-1.9735274579527953
75,0.651573320598531,1.1523850943936167,2.073657802195856,-0.4725549642793559,1.7330479675321924,-1.7021752440192173,2.0799716610084853,-0.32913649229579034,2.4408826778171404,2.2826939631978425,2.8284720727680344,3.7839528347404214,2.9686934564971312,0.5353003639236363
76,-0.13187220957502838,0.06101413913747308,1.7696858615587827,0.4398334657384139,0.6986933583210068,0.11680605773227806,1.327193786130073,0.5460200284318412,-1.1016903610819422,-2.8513666596355898,2.378503156221922,0.3597041978968838,-1.2593266805665195,1.630075010959258
77,-0.6242824567340863,-0.8797114275452689,-2.6612182211715205,0.6778578919143945,-2.6548611101779893,0.5967208534114835,-2.9685952386722594,-0.05759119659132057,-2.4053939972391225,-0.8231644062235618,-4.041371902339604,-4.194763087926046,-2.1518290831499836,-0.3647771946876848
78,0.7077240645326656,0.21652136662513838,-1.0677461610712278,-0.7310375900073327,-0.01276855366405528,-0.6137022843498589,-0.697893832240317,-0.38312506802207735,2.297062560244126,3.7741151659523537,-1.355142354833797,1.1621236426687538,1.0836087604460047,-1.5966820164617679
79,0.3309055164642744,0.5706271967163417,2.869315627882349,-0.5742188929334003,3.2422454196405184,0.6606077591286977,3.4124586882062977,0.38361441367020793,1.8264347152258689,-1.1176871659920418,4.531228669125497,3.8446028401429553,1.4947626523721744,-0.03354795121970086
80,-1.0267597138894273,-0.2247857965727978,0.3046486701468154,0.9746682888457836,-0.7480242554321077,0.40038692403857745,-0.1308324366064417,0.044470541171960566,-3.0367131001993934,-3.515169797749884,0.07527139563293248,-2.3390163804759254,-0.3731112876890279,1.9525260977487857
81,0.07947652288812666,-0.3352204537707995,-2.683923298184322,0.22324379916692907,-3.524831568275404,-1.6498065796718047,-3.2954661847442113,-0.5535426908531336,-0.9333576662376354,2.817975342204649,-4.094608053174528,-2.984945659317883,-1.3387672185253712,0.3817092461282675
82,1.081342552943084,0.04040775209747681,0.41266408847408553,-0.976897090407969,1.4843967977748085,0.34852826010104077,0.9011752223228369,0.4463509807713026,3.281539968996776,2.281126399459121,0.9545118922383369,3.013430732030921,-0.4458570423134598,-2.5754063722014076
83,-0.48133464525369474,0.22036053814434406,2.1107078244053312,0.1736910220389304,3.56528591110832,2.0784914453320282,2.6407666272561072,0.45285093673186244,-0.0847967089372975,-3.7050726134855876,2.851052398978371,1.9064000344854009,1.724253667693628,-0.5145798600962713
84,-0.9351216365982686,0.25537872395147804,-0.9629886960191439,0.6896023335761438,-2.166567286750097,-1.3018972580222354,-1.3684548783556953,-0.9775234084855211,-3.076424707916848,-0.6347499789355844,-1.2916765211577583,-3.2148523566854283,0.9205230533507563,3.2474387725153977
85,0.8207813959950259,-0.21985357921650647,-1.1860080509738542,-0.3809098401479182,-3.3970328650575374,-1.869071835162483,-1.6035278401850321,-0.017753822091912567,1.1056068101043242,3.5923332018717646,-1.2074017439127418,-0.8093179591752461,-2.3663050808681674,0.43707279725763465
86,0.6534884924527675,-0.6089607925543526,1.196928219557173,-0.23663498595015484,2.7899575406130417,2.10959496933435,1.3614399543947444,1.3704276859107638,2.472713947717153,-0.7721175029716755,0.7408774380601368,3.0492950565602746,-0.8153069975143329,-3.800921411478761
87,-1.1018585601989903,0.30590899481721434,0.017151115653311583,0.2541863854620581,3.0062365850226698,1.1536071493719209,0.43903379079412996,-0.707870561758044,-2.0313873091551025,-2.730798219358746,-0.30413431587828355,-0.22146834900030168,2.8133347105732476,-0.26100760215799157
88,-0.2520070003071396,1.000359686388065,-0.9649028055735845,-0.15336648604335115,-3.318043209273228,-2.52411287724663,-0.832199691635989,-1.4457574799042852,-1.5045445708037648,1.4991177778298175,0.5730759080890834,-2.5865297795969426,0.24032532878762947,4.204596734792198
89,1.327322110866469,-0.4622624368137983,1.183977852558083,0.18341668029735403,-2.3680798246320074,-0.19508610441578553,0.5547934024493199,1.5633143796295443,2.733074844064625,1.6496962696204474,1.2357211939305286,1.1450531899253944,-2.7057206509704415,0.07252906740965899
90,-0.29702649612910803,-1.4230031946762023,0.19031691892853525,0.27115480096697686,3.6579776222888456,2.4615884739917213,-0.11478402795407953,1.0988399246455283,0.23047637211950875,-1.5011403680620516,-2.272543371312394,1.8277066284691286,0.4158123163706154,-4.528479083270347
91,-1.4456960357297026,0.6983849887109649,-2.118021153887268,-0.7587686539794612,1.510188763400574,-0.7167768860557225,-1.11773714854429,-2.314501740267192,-3.0403816962873664,-0.8676464885325937,-1.3810710829125472,-1.8713668019835188,1.9850448368499374,0.16353886590032635
92,1.0048934597384103,1.8524654602366586,1.0476194529563883,-0.03694569935183456,-3.6936809428457322,-1.9964394667957128,1.2311339344244854,-0.34818669971283395,1.2013626345447326,1.100969569963867,3.891643495752143,-0.7694558396824337,-0.715125355079413,4.815493563643153
93,1.3525341719336892,-1.0352036162141673,2.4849540913205774,1.2472042312776765,-0.5540810616060654,1.350751668785764,1.1138534170508445,2.7283373028110756,2.8008942017684824,0.6277281050149796,0.8139223378490449,2.232119713201421,-0.9282089730546894,-0.577326971101917
94,-1.8007617116677355,-2.2276043851177136,-2.4778752127059342,-0.46596156327141375,3.3608032528076044,1.3142976503019719,-2.1835243209058994,-0.661213455049205,-2.527396686905992,-0.7682652656739146,-5.050027161607862,-0.49335847239209857,0.42810682506832154,-4.96680351571591
95,-0.9531990360210157,1.4717985003100336,-2.1147362159542014,-1.4923747355003179,-0.30424013091859853,-1.5830197076047223,-0.5928499874383354,-2.6466172359259503,-1.9777269143064564,-0.7998953582839199,0.19019829247510325,-2.0501470811258424,-0.01610329927363685,1.2537327316237417
96,2.515022586827204,2.4607175183316023,3.691242804506446,1.0489047527653665,-2.7141941041978725,-0.6517229947146103,2.6567385281296083,1.697503429554872,3.4210446624496433,0.8310169581312731,5.556146052688208,1.714625217226688,0.33369811967312085,4.748261404369544
97,0.24708602022015178,-1.9570533108277224,1.0779022731215118,1.4769665499242115,0.8738214569718078,1.4161291296064338,-0.20710773859425516,2.033690964873548,0.7220745907945613,1.0009633090312853,-1.2883802390700287,1.2667888637911788,0.49038710743522423,-2.084180525076061
98,-2.9348533897637057,-2.474037823335195,-4.281664531907381,-1.5264032558838836,1.9368376122459876,0.23497656122650756,-2.46884122679017,-2.507419497600615,-3.6109855308676084,-1.2853399124811127,-5.411953184719987,-2.5503610081742694,-1.1900850086486379,-3.937640363901724
99,0.6267519682924743,2.3884668326396916,0.292920935346433,-1.3076653232683966,-1.0644460873041248,-0.9757639033377884,0.930352985937894,-0.9845732265146254,0.63550642786098,-0.855903919708993,2.1852103220051737,-0.039664490022335755,-0.4301371402194731,2.7375858516356026
100,2.9055186524261383,2.241438529608541,4.019950395651421,1.8073928924885663,-1.2740816989327477,-0.21779161762454402,1.650526081950456,2.884007465030542,3.0066302434826517,1.8107391149228231,4.7488524643517716,2.7030530332301703,1.722794022749887,2.5193204975172643
101,-1.4209056340377995,-2.642620139546535,-1.5027737240820824,1.1330110254338708,0.939206400490228,0.4803941184132301,-1.2306293405376425,-0.3050175905926469,-1.686454311539544,0.24228846528291104,-2.6833585900274186,-1.265244557828709,0.08225966794949768,-2.7993016004365447
102,-2.417492831247516,-1.8104124821283916,-2.974355845457178,-1.918240444942091,0.9252246025367767,0.6250263407717198,-0.4478069646969626,-2.7145430909545376,-1.7607593663003698,-1.9739546625494462,-3.7530170536042724,-2.0769987038922655,-1.718406267439673,-0.7838493311098562
103,1.8773463408704734,2.621500193447233,2.084678452657013,-1.0523569260255001,-0.6895655680346283,-0.17538764405819438,0.9048174876770688,1.591184232604204,2.094680752042288,0.6244536531439793,2.6755816586235737,2.199885905875824,0.164845715777214,2.00477353515114
104,1.6258380576654154,1.292499633066571,1.508074277508172,1.955324175923443,-0.9521649814862393,-1.3258480694339572,-0.7615175114349668,1.9971288355046306,0.23103756726602492,1.494207485795552,2.625247566839179,0.8512751008524999,1.272855400294731,-0.754058969110668
105,-1.8385165182597578,-2.2908900546809927,-1.79530853605585,1.072170703843961,0.5457435207097715,0.24057542814367813,0.02611695074352442,-2.6345426451856238,-1.7230591689681127,-1.3052441642074186,-2.119330047232535,-2.4174697394348095,-0.0242149083090623,-0.4206602404265379
106,-0.7900624613800562,-0.8290225141011139,-0.14252961457339405,-2.009875552462049,1.2537966750245768,2.0632082711223108,1.6057112035300714,-0.8308293822193843,1.142390962818399,-0.41592853841948635,-1.5809203040233906,0.575704635178921,-0.7019973627984814,1.5841192789001672
107,1.311391902408496,1.694881664025951,0.7192126235229199,-1.1267136903161612,-0.6718016983544984,-0.7058067708025438,-1.3277610729946494,3.2373390313361634,0.677424830869594,1.372777215069422,1.0352729678319663,1.8162523241915882,-0.5304160989019677,-1.5453991435859833
108,0.16997906560916765,0.5490165402493805,-0.6534315273335584,2.1175417296371224,-1.6156358659938364,-2.5443258757151295,-1.850717587540849,-0.6045312235169145,-1.983629819373327,-0.8980794275043003,0.8574656891304638,-1.741031337571225,0.3316748557085918,-1.4429627038309059
109,-0.45552382153995946,-0.9449199036388544,0.7722662687598496,1.1351322751610455,1.0985479898948503,1.4191919816184693,2.6492377972331425,-3.2661548437139274,0.7437096101016504,-0.6308896016404963,0.4609348816593974,-0.5729876690269375,1.280416219604312,3.31674509952963
110,0.06667290451393382,-0.5336003233691652,0.6470582092071925,-2.2568562655679885,1.804498431369564,2.562084797926358,1.4678380207238801,2.067218228665355,2.089373118222607,1.9322766260274664,-0.6864870437251517,2.2908091746945627,-0.3125702080782447,0.4312143669813266
111,-0.4889056548369222,0.19083297951267594,-2.18611377204384,-1.0498115172383444,-1.721362663570277,-2.095305941429912,-3.658852849097769,2.6736876245287275,-2.1602848154626715,-0.7919148020539596,-2.125910010447805,-0.9398935528712972,-1.9222422464384095,-4.401407457485241
112,0.11440152831316515,0.7936259049165828,0.08860425154038216,2.381386716157958,-1.6604088352329505,-2.0931548765960977,-0.6139140283887609,-3.2760754226150235,-1.4664684614880739,-2.243445536329287,1.2151731481026544,-2.0928810926052366,0.572725327134338,1.0518047889584214
113,1.2903557078838979,0.41809455592575545,3.1125113924095675,0.8698888473230144,2.354792057384433,2.4331354263066642,4.155704472212379,-1.5272984440943127,3.232419262955668,2.5036943852972118,3.607487253517876,2.30218839793137,2.250671403936769,4.588411768066449
114,-0.6283125473726832,-1.2643041130043748,-1.243102194826897,-2.4520758484359555,1.1468323596543977,1.321039352835641,-0.4553620402403969,3.9532058394065133,0.3016113123670858,1.63360168898007,-2.411816746475385,1.2520322774231507,-0.9150196903102651,-2.504485103375038
115,-1.7937112552207743,-0.7752129374524745,-3.370886516729055,-0.6268991306447061,-2.811394522208749,-2.2553816687375092,-4.114079849695474,0.03156474704077543,-3.753320507881087,-4.015686929101589,-4.544777105344903,-3.1898069546362104,-2.246339250152731,-3.9957695045417276
116,1.320277549604843,1.8215677657069649,2.4282045056040302,2.4491225913860912,-0.34541957717973154,-0.5624560522409533,1.4913021534723019,-3.8950011286298447,1.1152601679955993,-0.20300904984732226,4.026217315220169,-0.03927210072499465,1.1697972483293007,3.5365450789871202
117,1.948875254325967,0.8513274494949393,3.0377278923781845,0.36622478464104713,2.9675005233326632,1.6016589607053657,3.6550171128045488,1.4831215702534046,3.6918747524705697,4.926244466635745,4.717992171219752,3.4628037858760163,2.0306399144125873,2.9705802334304376
118,-2.0247482890228654,-2.3222294215447477,-3.3432087615740196,-2.368292696522063,-0.592172841145946,0.12237334062140064,-2.331558611345943,3.054589879419932,-2.4885229459338745,-1.7197351022293084,-5.661006396198788,-1.2250229806225734,-1.2913258074978082,-3.997939207565451
119,-1.8010053290908923,-0.705942018432427,-2.3614074704815304,-0.1382805875791174,-2.7908158535156646,-0.7214535997869558,-2.970405635167641,-2.6264651013655467,-3.175336634754095,-5.041212875043965,-4.160124002878288,-3.174981445972854,-1.7455513355405123,-1.9132784457635867
120,2.6154853814102137,2.6580249738356616,3.870642852931961,2.2185044192152765,1.5065492728430525,-0.1453602450965128,2.9288687935291153,-1.5968604427041184,3.6069758023998433,3.7196980300952402,6.940307629451264,2.2865303613688117,1.345320989913145,3.9833038176092055
121,1.4520625484174516,0.4612356648566229,1.6210090943638136,-0.00636197931496674,2.3258158095507127,-0.04096146502345476,2.2366282014022514,3.061180330852858,2.4154211578986557,4.390828489277785,3.142754061551323,2.5097958102769864,1.45544585491383,1.1157436764120554
122,-3.03269294784112,-2.7985990797689944,-4.072262252256112,-2.0274800401525983,-2.276801861345981,0.5428674775892645,-3.3287562453227646,-0.1123028667179295,-4.392699939295126,-5.434744791946123,-7.681993321421062,-3.026617150361489,-1.4201204942786934,-3.7370771438557613
123,-1.0087460636985164,-0.24282844758247157,-1.0015191141054132,0.03044174679174951,-1.6530942661001007,0.41728208015081525,-1.5506157402225738,-2.624999898084557,-1.604344024233821,-3.1578673419405527,-2.022583448477159,-1.6737399128166859,-1.133400762068539,-0.6748937909629998
124,3.2779695265222415,2.795728311548109,4.105889589328702,1.8452484920799523,2.8331952933447133,-1.0424720253243902,3.6122076310547384,1.595823416699341,4.882520221740934,6.630826068928929,7.956695590236693,3.4575756080305897,1.5418270793685676,3.519282365457654
125,0.5387164572506854,0.11603400129701938,0.5377638234374292,0.06770210917714069,0.8500889094263041,-0.3506279509162066,0.9101370405118733,1.4100720215110625,0.8313172521919735,1.5747437140532372,1.038329919716643,0.8011193508585427,0.7222895006256627,0.4987031564100246
126,-3.380092981891142,-2.7404308765770033,-4.115239598885776,-1.7314956769929468,-3.1396113615798784,1.3381798078225542,-3.8296338627222917,-2.412144074917926,-5.149035892922718,-7.198252100327526,-7.984292397842143,-3.6498628177829042,-1.655781652456477,-3.4920762677311052
127,-0.05805822673410623,-0.05734574659532316,-0.1410713869790126,-0.23924231682210986,0.022883127465845504,0.017395465109946,-0.2451309722794536,0.24126562636820145,-0.06986863824285137,0.14567476192823658,-0.19725754193598727,0.07546086192841812,-0.20873090942260505,-0.38420370060369885
