,AF3,F7,F3,FC5,T7,P7,O1,O2,P8,T8,FC6,F4,F8,AF4
0,-0.08056749053473461,0.888075854660451,-0.07281265000245157,-0.48482425988809996,-0.5612739338806081,-1.031549963558496,-0.22196475676203514,-0.02204253924902438,0.03795079246291421,-0.01139291532802196,-0.008937548130910196,0.3837120959056719,0.8084511625715444,0.23372357515270917
1,5.714235580394686,6.273065029611793,4.460376792009842,4.561462802245642,1.8591759942111876,-74.01075439528685,5.4774820836941,3.967726450520287,1.9123127191431253,4.254171729489381,5.5851082900516404,5.252059670172518,8.114226314720032,6.328987303415812
2,10.649591682137693,10.868846952920403,8.354821318522855,8.874809305413475,3.9277338045145482,-139.98333317893645,10.626158570800925,7.609968169682059,3.6975071343483754,8.076707954383094,10.42478464329876,9.41790852082435,14.451506362728734,11.554632916729167
3,14.217384215555786,14.186078855337268,11.23815118938272,11.967377041665994,5.381656580156817,-193.1475507524054,14.672661205227874,10.59402409753724,5.3059347646666595,11.136121187476812,14.015580655727923,12.458223215962521,19.20005457198832,15.390062078911937
4,16.088705555571654,15.89678866141584,12.864089302932094,13.512617898370065,6.041569639720214,-229.0657100773649,17.181117020051328,12.669910891166687,6.647338254159825,13.188952649561399,16.019344700868015,14.092401905458825,21.933487052437332,17.49251697085332
5,16.14952997126262,15.870452586789572,13.13714056064914,13.384155445810118,5.834686365165129,-245.09958192379878,17.882814037136896,13.67157524846234,7.631030026008666,14.089613006019983,16.28988024617761,14.212134043158592,22.462762314272027,17.732534138368173
6,14.50871435964037,14.184974133544822,12.118932187315218,11.668881645727867,4.804388956876538,-240.63033729738598,16.709810632186244,13.53272178893896,8.172074248388833,13.802153101247253,14.884852632723538,12.889611053823412,20.850051984541043,16.202245749941376
7,11.477417226356174,11.111372323246185,10.015508571171518,8.65251136242622,3.1047569263056625,-217.0428777852707,13.805934840576308,12.293361763255088,8.200974590231803,12.40137974231258,12.052737751703077,10.363171669663616,17.391729111778783,13.195778075844048
8,7.522708057499076,7.074353632482246,7.147169997408236,4.779381520649286,0.9805192521537749,-177.48532678931525,9.513047671992334,10.095930713211386,7.675352553520646,10.063044461605589,8.19659068464657,7.002289580701398,12.573124533145837,9.164558392420421
9,3.2015555445021877,2.5940860568264887,3.9046298654145155,0.591687983965154,-1.2651977690353833,-126.44266282306172,4.333339908881739,7.170805941588414,6.591347043927037,7.043896661154271,3.8193224472876293,3.2564752494379476,7.00131811228397,4.653605760254529
10,-0.9159245351076111,-1.7830061627491218,0.6970768182625023,-3.343834353592792,-3.311295868043512,-69.18522892063663,-1.128569453475288,3.812247880535308,4.992199725011618,3.6535131798847833,-0.5424191705657472,-0.40517805955521313,1.325073672428848,0.22741880536491305
11,-4.323510608713505,-5.555112944911743,-2.1010950710200826,-6.511973297096115,-4.8620819839729466,-11.165451772307623,-6.237249713253556,0.3470465891590984,2.9717771428924733,0.2208563809795196,-4.3871027211404865,-3.5557331712830464,-3.847310026649248,-3.6044823686499257
12,-6.6455783297732625,-8.328009410693097,-4.1977912002755255,-8.517517228475125,-5.6878381652973635,42.56169445570293,-10.403265893209905,-2.9007246682225607,0.6715635740375419,-2.940696196825486,-7.310775103554122,-5.865067702299741,-8.021240886131377,-6.452198221962691
13,-7.684148718044374,-9.861636368991485,-5.418480794647037,-9.136738124457851,-5.657045136178521,87.82684988321706,-13.155621988240235,-5.644681967421027,-1.7292271324400847,-5.56573388729973,-9.054778454617969,-7.1399421563675896,-10.870479090729722,-8.091423318066859
14,-7.439645784044857,-10.094089698198243,-5.724306450516456,-8.344734066482225,-4.7557066490552655,121.69174507385799,-14.200482127234954,-7.666444327338901,-4.029563919977164,-7.462661684292925,-9.532336465181041,-7.343915899812989,-12.266186178014767,-8.484499909554676
15,-6.10245087839388,-9.140036481212734,-5.210468562300341,-6.314823294344844,-3.0908766115255286,142.6226480012667,-13.458289765252506,-8.837340021340367,-6.02662457099344,-8.529833949196526,-8.830568927975463,-6.59437046242711,-12.277101430490925,-7.773870673446346
16,-4.016597675836949,-7.264276690803521,-4.085142719919989,-3.390137701843926,-0.877612852490849,150.48668437504853,-11.074022637898722,-9.128634903619362,-7.537324226345814,-8.760079598204143,-7.188019844081475,-5.1372172527279245,-11.141804394850222,-6.2492973260745535
17,-1.621119468719643,-4.834810171192933,-2.6320926986694806,-0.031567308007139076,1.589115986744047,146.3889996575808,-7.398753255207564,-8.608986754199696,-8.418495413092318,-8.233360269040835,-4.951377332308378,-3.303196789180188,-9.218136855411293,-4.2941387029554985
18,0.6220048347533388,-2.262792348426852,-1.162666403739341,3.250341488701758,3.9738909652874836,132.38755929809105,-2.944469789364198,-7.429655649451267,-8.583097950685197,-7.099023928947194,-2.5181650366179786,-1.4524988775029173,-6.918217025353882,-2.3191785172553585
19,2.302218858068616,0.06131309320001458,0.035416117560710246,5.969566314358356,5.946311524756573,111.13471778352864,1.6822767215302936,-5.79977845058964,-8.010455333133478,-5.550630761968739,-0.2742901679046082,0.0837189290382664,-4.639549270421663,-0.6944382061732871
20,3.1255173980863846,1.8255741039675433,0.7444672372576985,7.734003010745397,7.226172579754286,85.49933312372355,5.859409595934791,-3.955447330639282,-6.749378498159592,-3.7973677135142276,1.4639179746050761,1.0557913481055394,-2.7031690841886853,0.3102410693125066
21,2.9601153491618635,2.8396375429798386,0.8510644137616941,8.29994023048508,7.6220118178628296,58.22012599285821,9.030745949192436,-2.1271752899079384,-4.913980677272568,-2.036443207274844,2.4943025565595094,1.333741559404768,-1.3084700497057955,0.5664141419190195
22,1.8554077315227309,3.0566116778385966,0.3625938558966385,7.603750234653336,7.057580115761423,31.631230312007187,10.779061106374565,-0.5104464572948649,-2.6728549469127945,-0.43049390082233996,2.7534010461280563,0.9251744038476508,-0.5115181051377904,0.10349332394449617
23,0.03114793526410767,2.5708445590615883,-0.596628136434701,5.766404587857942,5.582491307545933,7.486362347006382,10.881076981570164,0.7565739320001341,-0.23296759910336567,0.9069946698261125,2.317447347234006,-0.02996773042933004,-0.22970690045000133,-0.9021094498574685
24,-2.1614860659911237,1.592569575574148,-1.8090941175560777,3.070571992258682,3.365575724953825,-13.108814529000146,9.336989372631825,1.6053359139088201,2.1799413767822986,1.9167635513478656,1.38024232089066,-1.2869047312923816,-0.27117865234529753,-2.1632517132403684
25,-4.300709367495815,0.4041452325809984,-3.0038638241826963,-0.08576416992650411,0.6719534615954877,-29.663144824467654,6.370487608130099,2.038009460358033,4.342466881960883,2.589576456022433,0.2120686271834533,-2.5412561703925247,-0.38325584127604717,-3.337595131738832
26,-5.966974017430282,-0.6944027985799395,-3.9057845298787273,-3.2516772614748186,-2.172821711484228,-42.18623956722785,2.3991092681947817,2.1179508812634196,6.054187889030989,2.9545623420764646,-0.8930674673348373,-3.484539409084847,-0.3109046682961546,-4.092967775128663
27,-6.815893659667613,-1.441121366125418,-4.285929406948265,-5.99180060503257,-4.826370586565272,-51.02503929661048,-2.021302046497593,1.951671830713451,7.156059256598413,3.063130999206863,-1.6726888745929813,-3.860673384186961,0.14546121791175096,-4.171341921657966
28,-6.63913056338052,-1.6595901836992608,-4.0046585336442035,-7.950297051905453,-6.974621925269413,-56.68518762713604,-6.270815615824667,1.6656419196126042,7.545028222336473,2.972085170713359,-1.9440583424751083,-3.5139520580691075,1.0834199030703837,-3.4402904895323596
29,-5.40293680766774,-1.2899935701939373,-3.039782670470043,-8.900501132789323,-8.372118852257051,-59.670035633222774,-9.748557205817164,1.3818907403761402,7.183715169817242,2.7294600208649293,-1.6370554673537459,-2.420241066922039,2.471875985999198,-1.922737008680053
30,-3.2575796592850006,-0.39851505843376955,-1.494671195033887,-8.772850685411722,-8.871956145785612,-60.36339886952668,-11.953752973911076,1.1963853424096886,6.104409555237195,2.3658752573988093,-0.806073378411882,-0.6958261881424571,4.14950063550449,0.20064455290956762
31,-0.5156012861462619,0.8365026455771609,0.4155669041654862,-7.657289291519284,-8.441421263615295,-58.97186906633066,-12.55382196914366,1.163566916684933,4.407074503813369,1.8929346507723797,0.38110662813356183,1.4180150541657144,5.849101069425621,2.617454223993448
32,2.3979903935744056,2.1591684679424246,2.3980138206122676,-5.780465551903782,-7.161577750872333,-55.53039848441693,-11.430286224865164,1.2893398678105186,2.2515032467833835,1.3086835024965897,1.6755406716001298,3.5926227619197966,7.244150424900174,4.934239028228938
33,5.015770433406342,3.2853270266437944,4.130695295101064,-3.4621100873272854,-5.211410567971854,-49.963049606777126,-8.696149318176273,1.5333851387936013,-0.15580095633010477,0.6086115924111524,2.7948638216144452,5.465899049263832,8.00968472398824,6.743718838774719
34,6.9068240456679915,3.95779251782373,5.318189037801172,-1.0582804465901434,-2.839386600669111,-42.18111704780152,-4.6821795092964305,1.8201261503707795,-2.579072854608079,-0.20056072938015646,3.4782093743457767,6.703883484506102,7.887006703306384,7.6974137944581535
35,7.751464790520496,3.9976487082691534,5.744717219364203,1.0988076590223816,-0.3270362060663152,-32.19474193883543,0.10626727771013737,2.056237431204213,-4.7738097716934815,-1.0878225801162702,3.53858472181992,7.059771095150807,6.7406147676763615,7.571267950992425
36,7.399060216595935,3.342257969606568,5.315485964520942,2.754228891162021,2.049824925109167,-20.21248031314846,5.0562009943399495,2.1514743640827674,-6.5088962081747,-1.989134874235204,2.903222044378,6.42034537022148,4.596709831222624,6.312664382147324
37,5.898800504065388,2.0627797583821996,4.0787371652488735,3.7682128122160403,4.056482801197244,-6.706150473402948,9.528713567428968,2.0390017269473586,-7.588692107055115,-2.8059813117035786,1.634281644337942,4.831621009900201,1.6554195291521567,4.060005529300295
38,3.4975144524453783,0.35745221720870346,2.224011473521813,4.132310193467269,5.526323223355984,7.574954283982512,12.944319196324681,1.691423967749698,-7.873340172576464,-3.4128938200304684,-0.0745018680372347,2.498720631442568,-1.7268938338980784,1.130382522775014
39,0.603987851712334,-1.4789275602822813,0.056014548690844955,3.9615168360396185,6.375942490309111,21.646963228655558,14.860194166838776,1.1293945031631856,-7.295492631935682,-3.673898562402841,-1.925577750944191,-0.24084934536595173,-5.083874450580474,-2.023905687992619
40,-2.2751945503821838,-3.1046849015651294,-2.052403140575858,3.464165018614367,6.6068655409020325,34.38741125418328,15.02866301922866,0.42092556372304074,-5.871681262002206,-3.46592485692284,-3.565839828060194,-2.9669692994041674,-7.907641440087366,-4.883953118480515
41,-4.618402063683775,-4.1919677379998905,-3.7209906649727977,2.8952297929615773,6.294529280480968,44.67046881214248,13.428885938250705,-0.3288459304527325,-3.7067046382283677,-2.705504177886899,-4.647769968832927,-5.24225545022839,-9.729094128461956,-6.947517915443435
42,-5.977089336608666,-4.4881352677375155,-4.626844862632175,2.5015698947789162,5.5671746896146255,51.52006384026245,10.267490447698288,-0.995922014758,-0.9897433621456649,-1.3739081469369498,-4.893308950106054,-6.682741659491952,-10.197198173531486,-7.813705215616946
43,-6.0548563307416625,-3.867033394832084,-4.562434338593625,2.4690445306425572,4.578783592937766,54.255549064824486,5.948312179293317,-1.4606504179941946,2.0185121547176883,0.4644893705599275,-4.149418138279263,-7.022491278673522,-9.144001901972617,-7.2551117542745285
44,-4.764097075622624,-2.360718050585902,-3.47691982333242,2.8811713507293226,3.480961194069028,52.604762677801574,1.0158085883577317,-1.6317046177865868,5.007610364391538,2.6552423847291107,-2.4252748314098276,-6.161424179212207,-6.623940850035949,-5.265075163151127
45,-2.2502098749510124,-0.16519723783509907,-1.4932154857300313,3.697053835542737,2.3985941809630207,46.76371757230916,-3.919574049568632,-1.4663001404002378,7.646814562273994,4.961333813816876,0.09622458791512935,-4.188097906072909,-2.919762174586533,-2.07133609821502
46,1.1216428497293802,2.382046722913495,1.1030236321635587,4.753022576988811,1.4132370658229836,37.390090531832286,-8.263323747845572,-0.9825637758591691,9.62001311866988,7.085954238605408,3.075912116772198,-1.373028799448348,1.4874390835514963,1.8874024768751918
47,4.816297566933116,4.850292493262109,3.901823754147217,5.788343659470825,0.5566578634182959,25.527969949720916,-11.514452605599148,-0.26120883349936175,10.662681937125443,8.708715332268511,6.063254122597457,1.867223601845609,5.980854923076444,6.01966356610121
48,8.208018808523445,6.782666597721426,6.429547999458551,6.491123574605399,-0.18492717769588088,12.472380212928428,-13.327996975269699,0.5644919572360659,10.596674501420207,9.530874630509402,8.562567298415578,5.030289225995492,9.894689880737754,9.666144551939299
49,10.67776741470426,7.771731529483258,8.222793969070016,6.556889250575153,-0.8573546340669479,-0.40779314820104695,-13.554127335904443,1.3293090806080672,9.358214329163548,9.323103985442897,10.11060929439791,7.603612564260268,12.612274086908041,12.19894974619937
50,11.713290544050558,7.531380400380251,8.904065897101058,5.749870123118987,-1.5188465832677922,-11.862316932508397,-12.24921159485246,1.8640637040203805,7.0146749677889435,7.968234088979798,10.353345374836609,9.143890345286419,13.660673595982125,13.120026060198185
51,10.996165336169463,5.952957784365098,8.247069001158675,3.9562004353495546,-2.21836733854805,-20.937699409517258,-9.658417273786187,2.0263159875718753,3.7666514846526877,5.491524234287631,9.109374678517005,9.34789586990032,12.787048472460807,12.14345565332019
52,8.461608167648997,3.1356447021792997,6.220751708674239,1.2192733160606963,-2.976524259450477,-27.111845704037137,-6.173596515865047,1.7282707497468885,-0.0665659835210955,2.0724120187606814,6.409235662499673,8.103400204092113,10.004498549603268,9.248421539954764
53,4.320850249258628,-0.6150225756030184,3.0043108622657257,-2.249813275913839,-3.7730283637317408,-30.361738596586356,-2.2736227250113785,0.9566852984337032,-4.077873421714892,-1.965765252233595,2.5033627918372874,5.511865058165719,5.599612029260117,4.6939437586319945
54,-0.9584291878763579,-4.821673148887586,-1.0301862533760238,-6.089796125236575,-4.543478481683126,-31.15005570813582,1.5434694851608122,-0.2192120122209277,-7.816972883311506,-6.1882853666851965,-2.1637139239162337,1.8789154790782994,0.0997011175360306,-1.0077720456540091
55,-6.711623705873411,-8.898543507656246,-5.365822034608351,-9.833241548084233,-5.18645425361039,-30.328817124460702,4.82653235626889,-1.6537815153792501,-10.843865704089374,-10.100455645284022,-7.0100180601242235,-2.3263877229243977,-5.796135776581498,-7.156223109691453
56,-12.168416884302419,-12.23495921378971,-9.412836095777307,-12.970998039182776,-5.579919840972499,-28.97136013919947,7.226422855713593,-3.144565670385858,-12.784609084443513,-13.211384472617992,-11.395760630820897,-6.537570174450093,-11.312413874745403,-12.956703305716696
57,-16.56239805252352,-14.286524412050172,-12.594027548205876,-15.02753257680618,-5.604114690880294,-28.156213895610616,8.53328027816351,-4.462544850833591,-13.381822957004236,-15.10124769280404,-14.714305053361674,-10.172179513663906,-15.705296510142052,-17.630040173319646
58,-19.24277031801248,-14.660128982374134,-14.430646254764934,-15.63549499292936,-5.166776168556686,-28.735880561864857,8.692149106337396,-5.388213074765689,-12.532599674924537,-15.482174819245005,-16.480807707035893,-12.716323203261556,-18.36741802509776,-20.52194335148584
59,-19.771348378899205,-13.179492804002278,-14.615571661057087,-14.597630357752466,-4.225948767290942,-31.128508987481045,7.796566064021393,-5.747489738401991,-10.30777286678476,-14.243395079743392,-16.40500764234858,-13.799500911128114,-18.91404474391124,-21.195909516276927
60,-17.99014315133565,-9.920675277741593,-13.062371252613435,-11.92585156312151,-2.805900998404932,-35.16990754113983,6.062933817670688,-5.441394013290101,-6.948829055131831,-11.473303827158569,-14.4369038111337,-13.248438360063574,-17.237879249480006,-19.496056518779163
61,-14.04919896263887,-5.211381220669256,-9.92244376850371,-7.850640288635471,-1.0027565161646501,-40.05695290583119,3.7909955078820663,-4.464393863134232,-2.841799225190513,-7.454361089520948,-10.778112969671625,-11.111906066521417,-13.524501491253648,-15.57075236572971
62,-8.390301453837033,0.4066858017666281,-5.567312453497909,-2.798438515590076,1.0218335298826406,-44.40170927407189,1.317186745002899,-2.908219237588633,1.5291974048733301,-2.6307247975810397,-5.856902122429697,-7.65300766164692,-8.226326506391187,-9.85374911315735
63,-1.6887805358061356,6.247574928653824,-0.5384638234797137,2.6603867224398763,3.058592472330314,-46.399800384732146,-1.03204303915799,-0.9503546349281354,5.642990765464172,2.4473750941620214,-0.27040750761835464,-3.310417807556493,-1.9991243693132088,-3.005809851144072
64,5.238129390861636,11.57319260989856,4.5279198112791486,7.885856436344343,4.877675217104265,-44.09879927792642,-2.9806038188199517,1.1710324169981632,9.008864859220033,7.194952418145959,5.297483075111243,1.3652588705305388,4.389356383537665,4.174437717942628
65,11.542995699924852,15.694563249385977,8.990190692478437,12.254336359415301,6.260809534462408,-35.735107186521056,-4.33208777155728,3.19175280024253,11.231218977660925,11.069250691434068,10.170471851811575,5.790184150359126,10.165130177647589,10.857341486343174
66,16.463733182574085,18.06760078533463,12.291234345961945,15.24365184917338,7.033477356626077,-20.093616958964635,-4.985384137553331,4.860349524799476,12.062251694776286,13.641436924468326,13.77255503324344,9.429153727246163,14.652655912300986,16.291367294296563
67,19.4263752342281,18.369513374040203,14.036027587341415,16.50494142556956,7.091966885042864,3.164192851179801,-4.936141374677717,5.974853711726397,11.435091860828722,14.6527591923717,15.70561209952442,11.868559836285627,17.363488834311173,19.899172766122927
68,20.120536263489395,16.544805764149302,14.045524420669041,15.91077823948246,6.420863018386161,33.25939382072041,-4.265631175267053,6.411858271707552,9.472515023518818,14.047182728469597,15.800816934121292,12.87001273714679,18.056606628035993,21.347515427221957
69,18.537202061886646,12.81430080295597,12.379257345453468,13.57259265131666,5.098008605724531,68.19069939807734,-3.120093907936222,6.143525682707041,6.469843221074781,11.975954787555123,14.136829650255713,12.397335387491756,16.762534288703463,20.582001894297555
70,14.964078948084175,7.645980548645877,9.323721144699814,9.824935086907978,3.285915372201111,104.79930216087108,-1.6845387683791087,5.240102329663008,2.8543063435668845,8.773623015686262,11.02270935305571,10.613776526468222,13.768842775060946,17.822949066300456
71,9.939897523891668,1.691936059086692,5.3486311709825065,5.178938468867293,1.210711826262074,139.0157556530828,-0.15519173705678022,3.8577903551241834,-0.8735081725081285,4.909127338313334,6.948659590706681,7.850749510880594,9.57023447071974,13.524245543489787
72,4.174891457999601,-4.299499278575229,1.0377708611761054,0.2517519397104539,-0.8683554980681981,166.27570495135936,1.2856065431657153,2.2140597620127425,-4.207969423317589,0.9190978786885453,2.5123094862543165,4.553526068831355,4.791417001262476,8.30224733782954
73,-1.5506821993893825,-9.58396552137303,-2.995307405914331,-4.317925012913186,-2.6944076221553503,182.0651457225966,2.4891109704184866,0.554324551948629,-6.7070031302711515,-2.6670803087989885,-1.6684134720697488,1.2124986735377339,0.09459844658947524,2.845693564959585
74,-6.495286795401808,-13.519638187693785,-6.194481554147662,-7.956248819321416,-4.048205919620483,182.53291301991248,3.3526938987029835,-0.8849063065346152,-8.051537987052921,-5.39985859174118,-5.0430998278897485,-1.7095626328629405,-3.914765392169372,-2.180132765429065
75,-10.056758186767832,-15.650625442670595,-8.138741071889417,-10.230542680586167,-4.778073397712197,165.09191882997416,3.8246210738400377,-1.9109047454293777,-8.087729173959975,-6.9696988015237205,-7.204856024701997,-3.843604125366613,-6.770561184555254,-6.221490655092284
76,-11.851031996586642,-15.76407254986431,-8.599538265504616,-10.9051097845867,-4.8201556617764165,128.9242426830673,3.901676420284845,-2.402555717055499,-6.846360227073292,-7.246661295763092,-7.943964232786003,-4.964396263650433,-8.20565153713315,-8.904626395852581
77,-11.758526250512608,-13.913717847910599,-7.5700917439367,-9.969203115474132,-4.2061666491554295,75.3103269197203,3.6211463675599145,-2.3272162301914077,-4.537013604887791,-6.2942327275827274,-7.272101094186761,-5.017924614460134,-8.180883202557908,-10.075896089279842
78,-9.932523598318841,-10.40741153105667,-5.263020484830638,-7.633811310273752,-3.057611426915523,7.719494714675446,3.049247790880847,-1.7443341275281115,-1.5180488883968273,-4.355859630526211,-5.414326718306801,-4.122799508359414,-6.880363334012132,-9.809154468832725
79,-6.7693098682741235,-5.7610772966760635,-2.0771799810124216,-4.298285813975935,-1.5674390378746614,-68.37364658430724,2.268266943364801,-0.79549115471343,1.7533347296713016,-1.8164306272876898,-2.7706408747004287,-2.5462236234567226,-4.674727424444754,-8.380704838759902
80,-2.845121639985853,-0.6260759122065721,1.4611747210949368,-0.49194376981381194,0.02813373206813993,-145.94769749172445,1.3644846665602608,0.31753965072220824,4.78407047561598,0.8556476245139815,0.14687661228326737,-0.6586518926250959,-2.0585499914775465,-6.216588843394881
81,1.1705891099851908,4.299675845615301,4.774341699590741,3.200924065859711,1.483523017128106,-217.13103825589462,0.41846737063353046,1.3634764552470764,7.112703478815969,3.177555249096733,2.7920376046357727,1.1258265674427894,0.4285162178521574,-3.820659551092275
82,4.61303746719601,8.36459108176366,7.315517843244051,6.222155477884545,2.5785432976194476,-274.0642741234028,-0.5013800039814889,2.1165356966734485,8.372356630473444,4.722690104949024,4.666402069903242,2.4145338690928417,2.2852806273168107,-1.6942605587772963
83,6.917375426819458,11.047890404053645,8.646173504341204,8.115870785696952,3.149128710089184,-309.8283850376603,-1.3418326401691882,2.3908096836115886,8.340862464984365,5.183066451387017,5.393466480110004,2.8972925781959313,3.125296773510163,-0.25914521517059613
84,7.698287950275535,12.024763406974026,8.498014045733106,8.589563662771674,3.109755275481629,-319.3224158973007,-2.0649064180122063,2.069210846999716,6.9715274783929,4.414944136904322,4.774913916707123,2.394960112404943,2.735260921512481,0.20555011722011768
85,6.803320705402117,11.204222950325732,6.81139327838312,7.552295940908727,2.464561741912996,-299.9736511842207,-2.6458644043451267,1.1229823386975077,4.400620264325423,2.4615183134309473,2.821326080001044,0.8887563114889209,1.107641944969269,-0.3962494717592724
86,4.333179503516222,8.735532765374806,3.7453712864788025,5.125424394403616,1.3058251234834162,-252.1785920858415,-3.07024643698002,-0.380894268139186,0.9307789482199658,-0.45032714904527776,-0.24659807483732096,-1.4734749100857354,-1.5566068678676415,-1.9648435049594315
87,0.6268686368060135,4.983346305858173,-0.3415314379105853,1.6250452690551074,-0.19974044116027553,-179.4035674056815,-3.330914502330813,-2.285401255191957,-3.0073056914126504,-3.9386705636459136,-4.026191362158844,-4.394708227938432,-4.875221942239309,-4.220957235088291
88,-3.785699605755438,0.4757494308401751,-4.936973517856879,-2.4809283038660537,-1.834695512396762,-87.91602667215676,-3.425820597871894,-4.361544612691161,-6.909780418285997,-7.516678028509535,-7.986262469237977,-7.467324183666226,-8.337610846969586,-6.748056007305716
89,-8.2567286763794,-4.167272235902531,-9.440561583108865,-6.634932916436047,-3.3610949477609533,13.83393373703454,-3.3568107281771637,-6.336399771754582,-10.263875975053054,-10.657458591213098,-11.538469876689643,-10.227523531162413,-11.376178966989556,-9.054491545959863
90,-12.109079812391947,-8.315211947642547,-13.241043218287441,-10.262751890479985,-4.552919581521512,116.11420630730753,-3.129390235125797,-7.9275034191285485,-12.6132077685237,-12.865027826810785,-14.117028041722167,-12.218269327462782,-13.446233582885622,-10.646660976192425
91,-14.728421010871543,-11.407669086223565,-15.794961250837478,-12.84780722130881,-5.226269898125239,208.98537875380455,-2.753092772521787,-8.879190852128838,-13.615838441682309,-13.742043642805172,-15.256223999729533,-13.052470080142674,-14.103726457083892,-11.103057413941613
92,-15.646873888133012,-13.0241343734161,-16.696840012158923,-13.997341693504753,-5.263350082249482,283.4149996123717,-2.241981733744757,-8.996304491290209,-13.087880321059126,-13.045485815564826,-14.655671876193388,-12.468204951779152,-13.070534654372308,-10.139148040274462
93,-14.607412155373254,-12.934584817265005,-15.732239698141942,-13.492389516300266,-4.627282974953501,332.2893518258435,-1.6148796885892704,-8.171107299403664,-11.027376423643076,-10.723082348581888,-12.224943211290894,-10.368896794098518,-10.278720812014496,-7.654374543769677
94,-11.600952407842644,-11.125234848452598,-12.907304146593681,-11.315687643687074,-3.366166349071991,351.1939577756425,-0.8951239419281516,-6.400141736918423,-7.615768354876087,-6.925801837656911,-8.101919671320465,-6.843282602462714,-5.887994350852229,-3.7550107301294724
95,-6.871697222443962,-7.797052452324257,-8.451416828232741,-7.65455738702932,-1.6062853467455172,338.8662451832845,-0.10989802154466073,-3.7890370182278077,-3.197087016432494,-1.9947894201310266,-2.642552951000745,-2.162548641320983,-0.274036837068674,1.2502116336954785
96,-0.8903579205810354,-3.338050372287099,-2.7928828619971746,-2.8789042091018353,0.46419227852046124,297.26944057907065,0.7106100712556553,-0.544708537606311,1.7622786258696388,3.575669289075755,3.616735984601492,3.245222732312665,6.010977511316741,6.881298992284139
97,5.701109123403214,1.726510410556773,3.4892238276768457,2.5025399298113675,2.61858022252024,231.28820949105676,1.533899088119134,3.044165321979864,6.728096480898891,9.194608854719817,10.01944902965476,8.840424102728006,12.300880354787234,12.541211286136052
98,12.166149496472,6.799365244567645,9.73113081380107,7.902108949992794,4.618912038295301,148.09592403842302,2.3254564204051666,6.636219158758713,11.16035816817955,14.243350397689085,15.864876142939305,14.031870052468808,17.893398592739107,17.586402983958397
99,17.76200540061241,11.28368010605667,15.260402214316061,12.721849098694712,6.243601154592861,56.28380260550165,3.048650574018583,9.87285335542147,14.57542109718283,18.148547050656596,20.49026186044098,18.24431404623329,22.133903868330915,21.404943191952633
100,21.828910650663293,14.653832729702367,19.472909716861285,16.42269264465939,7.31225235056839,-35.13158279106881,3.664477807167781,12.416242382124283,16.600909039047053,20.45040847399596,23.349352531736184,20.98557003924769,24.494753822536357,23.492495607999057
101,23.86918454848619,16.516176207406552,21.9017037944107,18.586063340622747,7.704920104073121,-117.69657778519964,4.131678773827822,13.985834990485186,17.017068099502087,20.857814833206906,24.07784442279424,21.9052406662488,24.640475292911574,23.51666931684904
102,23.60669745135471,16.65286752691297,22.269798350228864,18.9608803285704,7.373944067236044,-184.38639068589512,4.40786261245813,14.389448196711381,15.779994511913952,19.283646978092037,22.53783114959118,20.837968151445384,22.470754246455908,21.361660854075353
103,21.01969518335065,15.04405419787027,20.52085283811009,17.49077080738128,6.347460282748386,-230.25328316646085,4.452194372010518,13.545602303888208,13.024357336455406,15.856086536933459,18.835882026515925,17.825898192727212,18.13590132713783,17.1475247923372
104,16.343303279876476,11.866402990034283,16.82439242823298,14.318697888811558,4.724658809719579,-252.79510973436763,4.229897806062617,11.49461580537699,9.04567373729229,10.904585243198127,13.31257552788569,13.117488049022915,12.022829155294682,11.22153612455953
105,10.041771104329824,7.468799960484399,11.555238499881877,9.768876607290816,2.6637278708330228,-252.02143514013474,3.718344938268682,8.39710298205817,4.264581567975113,4.922308059986207,6.5047832318044385,7.142614692432069,4.713197831671884,4.122555594837592
106,2.7541970622697525,2.3287175134117737,5.249872373871288,4.3084807930735245,0.36411432428832274,-230.23355483964238,2.913949106260188,4.519801126972573,-0.8223765385456023,-1.490266269946326,-0.9146782712532044,0.4668020456890537,-3.081192601585666,-3.4773531180284394
107,-4.77935749363859,-3.0050735418644536,-1.4548422429762926,-1.506064246366461,-1.9548059565055997,-191.56862881935098,1.8385881352742428,0.2099874505658782,-5.699430849772034,-7.69361595045734,-8.212659217222654,-6.270075777403247,-10.597897491346535,-10.847003130175839
108,-11.802195401410401,-7.976315553326213,-7.893129662035917,-7.0917127180663195,-4.0763308202144275,-141.38275800091523,0.5440040082373867,-4.139000427391257,-9.888921332940944,-13.080946548770093,-14.677362597100446,-12.42337492373809,-17.10855634272981,-17.27690332769686
109,-17.625490196759802,-12.083897897873257,-13.443421344911878,-11.902950499526954,-5.807995636457977,-85.56072431733958,-0.8873305500914439,-8.127587943445349,-13.002545058321688,-17.144759986067022,-19.6962618167632,-17.413321658841035,-21.9986393488382,-22.157090046653643
110,-21.702906622296734,-14.935975243428057,-17.594540938578064,-15.490033983591893,-6.999992593953656,-29.84062590449394,-2.3459733662679776,-11.390883498824945,-14.780641424896746,-19.530303660917657,-22.82100658778924,-20.786529936454727,-24.83273079512983,-25.042704024432883
111,-23.686711214028254,-16.289471335799288,-19.99738842725989,-17.54472823795237,-7.5587173959629155,20.769142701228553,-3.7042552690066706,-13.636200159825218,-15.115229603632692,-20.069768675496906,-23.8118399922413,-22.262279490361617,-25.39780034042572,-25.699665569397283
112,-23.459239249852743,-16.07082360608133,-20.496493946521444,-17.928582912174555,-7.454231921037405,62.42266577277009,-4.829419283674652,-14.672951113619105,-14.054612684623928,-18.793657304421327,-22.656746678495033,-21.758387665799027,-23.719787657354832,-24.125369914584162
113,-21.136792472672386,-14.376243796285424,-19.138417846284526,-16.680992916110913,-6.721051202830543,92.68598906708007,-5.599628116991036,-14.431481113963379,-11.789709866314142,-15.918711767395308,-19.5638194290164,-19.39409093986784,-20.05226032558385,-20.542506383503657
114,-17.04654226624205,-11.452345426066442,-16.156904277478105,-14.006807879801167,-5.45234172044426,110.59657845525825,-5.920567892810171,-12.968646342245508,-8.624565203701641,-11.814786531106366,-14.92872857284484,-15.4702260824091,-14.83943581135172,-15.3674783484992
115,-11.680340955423242,-7.660387619811085,-11.937560424207527,-10.245758356240666,-3.7882994664820266,116.55017054772786,-5.740007739790445,-10.459521627272924,-4.9353988790513545,-6.955644880753384,-9.282243043441243,-10.429782665345732,-8.659006432652054,-9.158015562473407
116,-5.632059574083722,-3.429292338738125,-6.967251097356136,-5.828129024978515,-1.9000909013616125,112.05146881878967,-5.057781639104745,-7.1762901413203695,-1.1238473786831245,-1.8605096403344175,-3.2250655587928017,-4.804215806865672,-2.1525460421385434,-2.547010713465765
117,0.47317819684891277,0.7962428520104742,-1.775052781859455,-1.2226396069523742,0.02878960867972816,99.37715655252316,-3.9292432808905846,-3.456924235127787,2.429492688771606,2.9659483340310175,2.6414966654561227,0.847544077648742,4.0474973616671726,3.828940109048821
118,6.048916200377298,4.605934749335397,3.127698831417869,3.1168095542237495,1.8216342949271487,81.20396817335975,-2.461213427130389,0.3325178950266587,5.405491791655524,7.087730687011749,7.780436739282654,5.999855817094301,9.38524301529027,9.397527964002672
119,10.608110217800379,7.666417209471079,7.301062995038757,6.799082673380546,3.3259920534594842,60.25149929816759,-0.8006248315805994,3.8374397055640515,7.576315190294789,10.179518727530374,11.772013417294216,10.213781611528475,13.435488090034575,13.707360132792532
120,13.808039599965527,9.751441022500943,10.41789762407569,9.533054625883475,4.427629747953353,38.98040689551641,0.882738005149127,6.7514342408736105,8.821793658650586,12.052342196133,14.34926251826135,13.177322762697496,15.938896527563697,16.467193593515734
121,15.475167857548447,10.757059340496884,12.289014456227324,11.150476439335554,5.0595974358292,19.373654554842407,2.4170220401420073,8.846006024461934,9.131471572078478,12.661115751793579,15.413136257391498,14.728619914412302,16.81545032718219,17.564280144387652
122,15.608562971054248,10.701224053885143,12.87043342880276,11.612866165440082,5.205649106929283,2.81376298508754,3.649628589802654,9.990105455088813,8.593434131856622,12.094742221458375,15.027151142198894,14.860608508516547,16.15630806684486,17.06117384459849
123,14.363298498147872,9.709273541397922,12.253472037042286,11.002981942255122,4.897981847076627,-9.945192267745162,4.465979551152814,10.157678371191562,7.3726751683257055,10.55167989451487,13.394027362089332,13.708009831294074,14.196941055224771,15.173092592021133
124,12.017661651934135,7.988477642437994,10.640497655313743,9.50333876483324,4.209936476621187,-18.724049648663332,4.803018612741001,9.422992884207916,5.682895071048085,8.305482188576525,10.818859656294753,11.519644210895423,11.27654279929465,12.230192449911478
125,8.929686434947799,5.795906156350594,8.310696141867071,7.365635525322809,3.2448560953746024,-23.805182669953886,4.655554421664134,7.945017549012769,3.7560854123969296,5.665656432662702,7.664625749823683,8.620609508121982,7.789977130138358,8.630622095317742
126,5.489328557321105,3.4042939712494675,5.581007081834893,4.875707869282196,2.1226594455241266,-25.785331576890794,4.074654994119783,5.943388728835673,1.814049570033683,2.939204409061781,4.306206346045486,5.36970735263805,4.138838578306099,4.790825298818396
127,2.07247770832404,1.0702992499961048,2.767409432228841,2.3186764274449922,0.9658253164298544,-25.420934412363803,3.1585119402521538,3.6693713818503544,0.04522674679070183,0.3974855948998128,1.08859876323417,2.1175709862730137,0.687595999108983,1.0992518128141182
