,AF3,F7,F3,FC5,T7,P7,O1,O2,P8,T8,FC6,F4,F8,AF4
0,0.005536646835052046,0.17791570416602046,-0.38695604727354777,0.1482295055325785,0.3098475366068708,-0.17018928442854347,3.0899820005238987,0.043675689789710544,-0.006535231748189713,1.0354345171932304,1.1321192111465364,0.4828308618728651,1.6834726776614035,0.6580329717329189
1,-0.3165037783448448,0.7105881910896084,0.12360274256165492,0.35383221855241836,0.5719934758208353,-0.07107637547117288,3.227357304253054,-0.310516893133874,-0.07428779565606973,1.428280093319941,1.2018033836965523,-0.5556356013092845,2.7463952006407046,-0.7304167333440107
2,-0.6065040096367376,1.189496277641397,0.5776395247866835,0.5230732343043424,0.7953272444708119,-0.015324659179720219,3.0580272178294545,-0.6383700155282582,-0.19641087646959993,1.704729304186289,1.1754347038455977,-1.608414681663932,3.6371584648666433,-2.057796329483146
3,-0.8255721917489066,1.5838591199305552,0.928814556374561,0.6488761172237696,0.964950646990909,-0.016413065877896697,2.5770760288014762,-0.9089012963865604,-0.37408461246227037,1.8528749985707071,1.0583003417354369,-2.6123040252874197,4.31025230421828,-3.1857505710385654
4,-0.9411132776624553,1.870314339154341,1.1488279020775156,0.7297473948949811,1.0714526369338642,-0.07460458424961874,1.8287961907276717,-1.0968212363225984,-0.5940424453834824,1.8778110516047726,0.8679817461604336,-3.4984917596517033,4.737862984209912,-3.9912398858241223
5,-0.9300159120254159,2.0345475467342644,1.230860616725144,0.7696387401351918,1.1116226766179607,-0.17588994140872455,0.90270005229187,-1.1848799036575273,-0.8290137629292039,1.799422947983295,0.6316340103338896,-4.197854520974316,4.90876459892289,-4.379952046936118
6,-0.7810160860806811,2.0720917907940275,1.1898250039058949,0.7769758955814902,1.088391111545528,-0.2935247466762354,-0.07844653428762405,-1.1654027847021786,-1.0408204600728863,1.6477806650605011,0.3816206806414073,-4.6473610162892385,4.8256334277779125,-4.297411820931992
7,-0.4960615633874293,1.9882543175636886,1.059368989382718,0.762963490446201,1.010002820237388,-0.39208511055415524,-0.9771031467085193,-1.0408922529343683,-1.1858362642174123,1.4568500372772617,0.15012147339156134,-4.796958666517749,4.501487562937709,-3.736501565026097
8,-0.09056484784835933,1.797217841890513,0.8860431083320613,0.739403330482803,0.888540306109049,-0.433531934799443,-1.6632937171615012,-0.823660965485943,-1.2221034563666706,1.257553855727284,-0.03645934607510253,-4.616164559553632,3.95606161646276,-2.740388019046609
9,0.40748174380022956,1.5204219531800007,0.7214426342914204,0.7163572526152983,0.7380066356144477,-0.38438630661629647,-2.037324203941451,-0.5345499005542823,-1.1170630213431092,1.0713828752946213,-0.16235928270376213,-4.0995141522684175,3.212878719689337,-1.4002723657085694
10,0.9594486826048226,1.1843554732331616,0.613424151098293,0.7000270013393456,0.5722430077467447,-0.22284895391177106,-2.049090648613373,-0.2008615891603184,-0.8546543724354138,0.905734967647563,-0.2257237316835105,-3.2700632757949473,2.297579308773798,0.15208643566424182
11,1.5188776038665908,0.8178990757254211,0.5976301256800005,0.6912063577833512,0.40298225191261655,0.055392337190769275,-1.7104876378303475,0.14629443127483965,-0.4405275227946303,0.7519319948405113,-0.23960081668906916,-2.1802936558912145,1.237747853925221,1.7565352703132207
12,2.0348759931817573,0.44937604397702047,0.6905295103478987,0.6845889857460111,0.23832497400335229,0.4337960000125394,-1.0983169377246156,0.4749946845472729,0.0956939337155265,0.5864517309373141,-0.23032621267121056,-0.9100211845588329,0.0641149495790204,3.2402690035093356
13,2.4557858785165947,0.10351963443874525,0.8850135144920283,0.669100963405011,0.08187091714037728,0.8748296107216245,-0.3464648314171755,0.7555500421185555,0.7017679944074385,0.37537936751567746,-0.23336759646433142,0.43878377444704614,-1.1873169277813138,4.43558198568051
14,2.7328519368901443,-0.20134984127140523,1.1493014394975372,0.6292862962248196,-0.06734899128599688,1.323347659967477,0.3722307342479566,0.9633150062492247,1.307935677626831,0.08152116769384207,-0.28711598033058333,1.7500217234120343,-2.4729024863708315,5.197779970334817
15,2.823711630140747,-0.45555161585587545,1.429539520040934,0.5476256716637615,-0.21410349348445146,1.7131872222337472,0.8723148310438906,1.080980889829119,1.8352904868459297,-0.3268707603979973,-0.4254711003336074,2.9037689844023395,-3.739501881744217,5.421343572710245
16,2.695646831037412,-0.659232919467309,1.6560391851722616,0.4075317664297808,-0.3654360401743988,1.9761315463926352,0.9866852447888771,1.1001234168201801,2.206368638234165,-0.8671571439985267,-0.6703161423493853,3.788004647599408,-4.923855051182417,5.052592861815629
17,2.3286164671978726,-0.8221125038970857,1.7526247195363631,0.1966537941595134,-0.528578298028179,2.0519722804587017,0.5976358021290132,1.021850814739713,2.3564824740649515,-1.5346874039105745,-1.025079081109987,4.310660361354436,-5.9537159816612455,4.097446319946408
18,1.7180848278967846,-0.9615321176899209,1.648082835003657,-0.08994953977435229,-0.7085928094265403,1.8981900685556468,-0.3369478832999995,0.8564935903461178,2.2441073520272328,-2.297936278447815,-1.4705186695613648,4.410723155635837,-6.751034436644745,2.6233463098819807
19,0.8775555097157364,-1.0988501586098345,1.2882903171796825,-0.44723800260221724,-0.906104623184576,1.497798745504922,-1.7668021899890096,0.6223793626862415,1.8586819063920907,-3.0975306483367127,-1.9636534318122933,4.067050195292841,-7.2371927075030715,0.7549819668734316
20,-0.15945467845835384,-1.2545670386827432,0.6473209324415478,-0.8586640296128628,-1.1155125242635704,0.864142192988158,-3.54540334243701,0.34383181995039963,1.2244931136868082,-3.849793302303868,-2.4403871437761158,3.3036184757933817,-7.34001954060734,-1.3359738898500426
21,-1.3384508626774205,-1.442917999434457,-0.2642229985952133,-1.2960552971520833,-1.324050276385812,0.041844347548216795,-5.440814752519002,0.04861067397788321,0.399847121462489,-4.454799393392423,-2.8219046816989337,2.1901674970156124,-7.0020302759567,-3.446328181558438
22,-2.584568900744767,-1.6669114575787023,-1.3951955173185635,-1.7211235991577918,-1.5119857427987111,-0.8963740485448306,-7.161014220848567,-0.23493789637400408,-0.5286047898754305,-4.808258257346179,-3.0243647457520586,0.8376167312062998,-6.189095871238311,-5.360726567420416
23,-3.805308306963305,-1.9148525416507107,-2.6552635447801816,-2.088620616243949,-1.6540995793937525,-1.8567523095758058,-8.391240989440716,-0.48072651397481286,-1.455807033757046,-4.815884773113496,-2.9708646889138617,-0.6117650781865039,-4.898542214030902,-6.873165089898807
24,-4.895766437327697,-2.1592377751859373,-3.9219818924176635,-2.3509315770291352,-1.7223916778142843,-2.7346477514549083,-8.838873889444189,-0.6674781924430896,-2.2712829740652944,-4.408403977863776,-2.6041758654986924,-1.9987551363454787,-3.1655517046884114,-7.808591243468822
25,-5.746428597316798,-2.358555757528216,-5.0531025531392455,-2.463667939126655,-1.689754520901273,-3.4266030955592046,-8.279825781492304,-0.7807273011401936,-2.8734465214873013,-3.5550314121602087,-1.898431083947458,-3.1647334919344776,-1.0667177183300627,-8.042372678161792
26,-6.253143795553837,-2.462043308222855,-5.902811574306954,-2.391626303456373,-1.5341655853292808,-3.8428572799813328,-6.59969121328573,-0.8140713903602921,-3.1832694853008525,-2.2732634422834352,-0.8678678344092488,-3.9703911414905635,1.2802706781974418,-7.515460345732933
27,-6.328461680267492,-2.4169164982827374,-6.339911183540649,-2.114355697597759,-1.2428197797207046,-3.918738799455607,-3.823094004975637,-0.7695546217635504,-3.15535116119754,-0.6331351414271489,0.42905500835608024,-4.313208351132514,3.7215321224571416,-6.243363896293185
28,-5.913107836736675,-2.1771166474142145,-6.265554014313732,-1.6305441483258485,-0.8155727091791912,-3.623479375775186,-0.12589605999133274,-0.6571551826630581,-2.7847432529165834,1.2452547245761834,1.8913365280704457,-4.141284457101083,6.076721432621115,-4.317598471293396
29,-4.986113179848315,-1.7122675924572588,-5.628066976116562,-0.960512796299182,-0.2671091850294417,-2.9652701694909225,4.172958625023852,-0.49344276577574875,-2.1084449294565997,3.2012630887841733,3.3833189860947215,-3.4614354871143287,8.15320315131179,-1.8990206432272956
30,-3.5720524163019673,-1.015395421254524,-4.432697628540923,-0.14629273186665329,0.372612330163701,-1.9918248680082546,8.640434914915028,-0.2995575481504272,-1.2012253583308723,5.049563666422649,4.748287750845248,-2.3401582794091236,9.763616779141891,0.7966277988066788
31,-1.7440223818130396,-0.10804792935879742,-2.744741331722506,0.7509595066092161,1.0598748203857642,-0.7862652196285925,12.776676778973483,-0.09873093355449163,-0.16624868526052752,6.6006582975624415,5.826390027573964,-0.8970025023760448,10.745152379518004,3.5197117901728587
32,0.37859638299444476,0.9582358085848656,-0.685376530350209,1.6561098071182387,1.7406489787007235,0.5412631219156682,16.07514728115494,0.0863837520099428,0.8782517230236014,7.683538153604442,6.47471092516753,0.7090401980419132,10.978379401079208,6.012120274620186
33,2.6379406874668967,2.104655967653747,1.5794755696248137,2.4873018437134125,2.3556651041969503,1.865282802180049,18.087993587464258,0.23627819371771175,1.8143956307103024,8.167501349145073,6.586846590619655,2.2984913234585367,10.403243038333123,8.034348583579733
34,4.850639263544088,3.232018168076004,3.8559852985345473,3.164541759421564,2.846555045558727,3.058586763134496,18.48775706297724,0.3367648536609881,2.539978215994369,7.980055523343324,6.109178379341764,3.69322058949174,9.029929989192304,9.391144551098495
35,6.824814652650009,4.231032881519931,5.942863407386803,3.6185980033105514,3.1623240286759557,4.006097563327131,17.116565174609047,0.3805081566725897,2.9814834719519974,7.118215045654676,5.0513287388464905,4.738213861108513,6.942737775856433,9.95265648290741
36,8.37930563958762,4.9947860747097845,7.652838308383052,3.7990952527931094,3.265324875615869,4.617299721141015,14.015284829874966,0.3677244249003449,3.102913268116903,5.65131574810853,3.4889573520143564,5.320277692075536,4.295836254244053,9.668464195575984
37,9.362856347911382,5.431733746866526,8.83243963908293,3.680731089452564,3.1359369659060214,4.8357565036363885,9.427657403252082,0.3059562140207488,2.909190641545671,3.7146133429634056,1.558057161416798,5.381092778906402,1.300806650758648,8.572685968923075
38,9.670876205560571,5.4774315800305535,9.377622862840006,3.266754568768202,2.775301654447068,4.644614433980259,3.777845982975252,0.20893526472384272,2.443729959510281,1.4942401327046444,-0.558903263493933,4.922842882664283,-1.7930498475233216,6.779441308537749
39,9.257583029498424,5.103343393479356,9.243378040494491,2.589192368590064,2.205716615970887,4.067526629977389,-2.376383379131033,0.09466131652793668,1.7806632885566591,-0.7946329794794045,-2.653448569549669,4.005741820590282,-4.723591070743802,4.469170659130143
40,8.141884046551505,4.321462828465852,8.446329807624695,1.7057393393966869,1.4686074757117324,3.165013699276672,-8.409029387079771,-0.017072393611145677,1.013024198387367,-2.9335495941709153,-4.515616325662046,2.737984991295205,-7.243032865279839,1.8674991596896064
41,6.4061513871269815,3.184070229523839,7.0603191099506475,0.6936781361528459,0.6203280262775338,2.026847866233328,-13.701128696343508,-0.1073967223244628,0.23878624481364166,-4.726933691438247,-5.95929420424019,1.2597707857988145,-9.144145524515553,-0.7806885434355524
42,4.1879879455667846,1.7786338676595719,5.205907428612405,-0.35841210070952023,-0.2736615770108357,0.7615177528402638,-17.71570702400347,-0.1609746066734686,-0.4530604750064748,-6.025058134946667,-6.844930085070075,-0.276107877331455,-10.28212904991529,-3.2386662848998764
43,1.6660116449913318,0.21854079116342753,3.0355174011568917,-1.3601129049328995,-1.1454731138033518,-0.5158515575094853,-20.06212829263612,-0.16814973345625864,-0.9942785710520159,-6.740636425900798,-7.096466558757472,-1.724146451882112,-10.58933002257512,-5.303299752237749
44,-0.958531524043119,-1.3690942136833917,0.7164099441849563,-2.2286077239070043,-1.9314597083980423,-1.6956224728880196,-20.541081537809426,-0.12633777585242156,-1.3452895884945757,-6.85676965829707,-6.710120061094309,-2.9635451100291035,-10.08086567507232,-6.825318974770337
45,-3.48199912211162,-2.856922475570286,-1.5861632881708014,-2.896953459896567,-2.5780429743644104,-2.684386924153632,-19.164302415796076,-0.04045890887623708,-1.4981854901427205,-6.4252426584102675,-5.753758203149066,-3.9106952545189757,-8.850423036242503,-7.722001752578083
46,-5.7179237571694035,-4.13040941868686,-3.7235077354867436,-3.320214181737026,-3.046021714036269,-3.413158639651844,-16.146847717203027,0.07765931918617267,-1.4746428022577438,-5.555588558129424,-4.356960636159917,-4.525133229247472,-7.05683075699201,-7.980930212208573
47,-7.513598665947057,-5.098810085486585,-5.574130111125102,-3.478802872166971,-3.3129395423773973,-3.8422470054847597,-11.873712407251535,0.21083548012195596,-1.319372961040199,-4.396707695354844,-2.693178696613879,-4.808459711050303,-4.90326029195774,-7.654754085931502
48,-8.761855049320474,-5.702793399261043,-7.049608478170983,-3.378771202425134,-3.373393161632852,-3.962521024991959,-6.846166550686528,0.33883622118576134,-1.0904402716054784,-3.113915079435454,-0.9565343257431828,-4.796885672411924,-2.611909501151523,-6.848154336037315
49,-9.406956410156022,-5.917953367330227,-8.095639236999322,-3.049201134805052,-3.2374658008709085,-3.793251177555333,-1.6158542213950273,0.4411149239579961,-0.8482205167779443,-1.8649249386253157,0.6634530330007372,-4.549097528719377,-0.3976026999293661,-5.699258072614464
50,-9.444406812997272,-5.754051552941313,-8.68898340903398,-2.537222478421256,-2.9277223431686044,-3.377124960065268,3.2839289950306565,0.49961726270847945,-0.6448913339291973,-0.778361741638555,2.0056667736794123,-4.13186230090681,1.5561814336260151,-4.358451234911081
51,-8.91532422737177,-5.250436750796564,-8.831627292121745,-1.9014527823676453,-2.4753655256556453,-2.7733149888562125,7.400425954728236,0.5012788207993003,-0.5161370466281783,0.062091524902909125,2.956449837080748,-3.6060953738823844,3.1157776046611407,-2.967768590691247
52,-7.896731876194827,-4.468594049472836,-8.543790759112886,-1.2047952487089353,-1.9162049936796197,-2.0496127306423495,10.409136312707622,0.43988642402916106,-0.4762743368750537,0.6257470197661028,3.4614017133190518,-3.015940323907163,4.208094372909769,-1.6437875584581854
53,-6.489566534501002,-3.483114436034755,-7.857415480743309,-0.5075279628430348,-1.2870327124368455,-1.274631115750924,12.14160352741184,0.31706360475194784,-0.5173632314093342,0.9342629892212997,3.5285081245288317,-2.3827971578808866,4.822633384255133,-0.4662697346458962
54,-4.806335116845442,-2.372503251896032,-6.811458450897512,0.13851101926782983,-0.6228487219215929,-0.510950885843183,12.590925421709704,0.14225785934154023,-0.6121815640087731,1.0527420486758594,3.222480224120537,-1.7052901097324895,5.005012676771656,0.5261966631445332
55,-2.9601626841105717,-1.2111469078332944,-5.449769145754166,0.6940618644100928,0.04482744568130465,0.19012781014783509,11.895900322358191,-0.06826182730660396,-0.7203269309569695,1.0742711501669175,2.6514459145010565,-0.9650485911047795,4.8434358419093595,1.3334386843813606
56,-1.056512616099293,-0.06345154099193691,-3.821646864153338,1.1346014545076597,0.6885544492399398,0.7918316880067279,10.307640761905404,-0.2932600703697847,-0.7962616100950412,1.1005526359293893,1.9481999087503148,-0.13707253731874314,4.450491055839546,1.9848232064526663
57,0.8117818294448013,1.0192907316598947,-1.9844869365094884,1.450506501950894,1.2846826856128974,1.2730434432313347,8.14466962539074,-0.5089964311085801,-0.7978912946025692,1.2218109033926194,1.248932977585794,0.7974438239395641,3.9432238115195917,2.5261852785827976
58,2.566229620915773,1.999279241255215,-0.007362662140802097,1.6454603607582456,1.8125471888756917,1.6274622682694388,5.743689095002469,-0.6919731873751045,-0.6942842974588346,1.4992039384433262,0.6726297298849866,1.8384853735328057,3.4245346083352,3.005076479388631
59,4.1418083029071955,2.8502969442977677,2.0259336123693306,1.7335329818519012,2.2535767965535993,1.8611586985791921,3.413271171170118,-0.8216225417811438,-0.47136739555469886,1.9525245878474105,0.3041207572963215,2.9575008266829004,2.968605863208681,3.4570279229769625
60,5.484601330694315,3.5543719311724655,4.01588176267319,1.7354721854855104,2.5907344795365703,1.9890327285690028,1.3967198675550745,-0.8826076020395257,-0.13481648250676148,2.5551187282646937,0.18314203080928093,4.092878483008121,2.6123272477675665,3.895260584568064
61,6.5492087448456076,4.098063437930194,5.849441753225016,1.6747694432244102,2.808592996110805,2.0307552732013554,-0.15148812583943624,-0.8664757199100578,0.2901813729276762,3.2368115627847396,0.300796154824882,5.152029649609368,2.353687402007856,4.305620132628687
62,7.297077488966217,4.469410939232686,7.406078537698892,1.5740151824946074,2.894174640194039,2.0067718678708975,-1.1736393372898846,-0.7724982954335157,0.7621540882529151,3.894387233780053,0.603672678312965,6.020343642644249,2.1569880104135413,4.647573350005257
63,7.696532861656448,4.656356169661572,8.567442186944971,1.451955303777197,2.838479566325349,1.9348828124504367,-1.7015438197569075,-0.6076421717924197,1.2290071020769782,4.407989645296815,1.0047355643682243,6.576026817181755,1.9636801324744761,4.861033428697949
64,7.724762176009192,4.6470552985778975,9.229738534916518,1.3215233317844994,2.638433822872898,1.827798976073331,-1.8368025049346737,-0.3857272793106855,1.6352560818714827,4.660877223206935,1.3990939069561426,6.708702174928044,1.7067794734015393,4.877761546184816
65,7.371424270833293,4.432027851356508,9.317138124157704,1.1889733544887415,2.2988434778238904,1.691922479540086,-1.7229125122297935,-0.12591756039675658,1.92977817031144,4.5594187856992034,1.682085044534575,6.338829380701825,1.3263135061907627,4.635297143292676
66,6.643062180243269,4.007643784693641,8.794142035116515,1.0540976151875052,1.833875564456031,1.527431984529433,-1.51438814638874,0.14924487233039152,2.0729895463072108,4.050156719581118,1.7668201065659397,5.434664098321994,0.7831647708804288,4.090935025579156
67,5.567187576485615,3.380122954624137,7.674748019382962,0.9113932821450992,1.267617078028533,1.32957900510054,-1.3480496776969264,0.4160252276198016,2.0424601808997065,3.1312062244298655,1.5985083907108073,4.023688048303903,0.06901075634894555,3.2332619866058985
68,4.194844898868117,2.569070996312631,6.026566038083516,0.7519517993704458,0.6333883381935526,1.0909409034777453,-1.3208083472075662,0.6516713267415166,1.8362061985758833,1.8561375310736823,1.163453092324439,2.1961875176657903,-0.7892406657301121,2.089178570898474
69,2.600656150533659,1.6096202626026863,3.968675647475373,0.565783065901179,-0.028313175840237657,0.8042447679651847,-1.4768496787709413,0.8363827775025354,1.4732236988157001,0.32965496303465647,0.49149380627072037,0.09982331836208369,-1.7311843478087177,0.7250816550312693
70,0.8797520613762323,0.5524665871309341,1.6628984417860018,0.3442569290144619,-0.673121303189763,0.465290979290941,-1.8053614617041647,0.9549273199892341,0.9912003782681357,-1.304354306088465,-0.3482901810400536,-2.0745699650222984,-2.670469944388769,-0.7581623558470764
71,-0.8584662381518404,-0.5385508705924672,-0.700862637338434,0.08234775347033958,-1.257004314481018,0.07548296011423251,-2.2481683010459554,0.9978098998355888,0.44171381200222853,-2.8806838276894027,-1.257778364452263,-4.1143226413386,-3.5069007947685407,-2.2358278210002185
72,-2.49921910224473,-1.591250462951578,-2.9236458711864937,-0.21959628290416697,-1.7408102625278534,-0.35647617578740853,-2.715100357357232,0.9619453377766417,-0.11644580896860282,-4.234010232680054,-2.124222242564685,-5.8106074380173105,-4.141119997385162,-3.574022421522902
73,-3.9328781706013096,-2.5317861026418096,-4.818531764790726,-0.5547734368167131,-2.09449360432435,-0.8140283258099902,-3.1038574649166626,0.8508190573324691,-0.6249404178379636,-5.220412480066776,-2.8366296067608534,-6.984909070042249,-4.489569496457388,-4.646339759127315
74,-5.06578060513576,-3.2923492214532177,-6.231149029479121,-0.9096690619799948,-2.30036667168738,-1.2734669355778172,-3.320660887811552,0.6741438540849428,-1.0335054221059867,-5.736192164629928,-3.301677427050178,-7.512530909807924,-4.497425910781695,-5.350068416570923
75,-5.8298556713106,-3.8188301433038006,-7.056908105826731,-1.2646564536016898,-2.354843522639276,-1.7058175950273744,-3.2981421722140625,0.44703986209856217,-1.30648310641411,-5.731416628142029,-3.456878532993376,-7.339748172241772,-4.147587008055206,-5.6196424573778865
76,-6.189708756103442,-4.07733433411237,-7.252668376046172,-1.5954091668151222,-2.2683688946572675,-2.0796161606188357,-3.007630787606347,0.18878520369251742,-1.4273476483995464,-5.216392437798057,-3.2792156517757567,-6.492092001553575,-3.4644300435970816,-5.435449035740068
77,-6.146136811892128,-4.058579570382893,-6.841255748907935,-1.8749963065494635,-2.06351139443004,-2.3641716994296638,-2.464115514743408,-0.07879088528779829,-1.400554687256588,-4.260283602464992,-2.788172802207609,-5.072490700400225,-2.511870352585692,-4.826799297436232
78,-5.735531853232271,-3.779473933851877,-5.908175597568648,-2.0764640806182757,-1.7714957907335955,-2.532839992408195,-1.7234625955030793,-0.3331718131372496,-1.2504056214875732,-2.982167252586083,-2.0429178963513692,-3.249407955244284,-1.3860797364075004,-3.868700121618832
79,-5.025185490183921,-3.2815474011920194,-4.590875754466681,-2.1756533445713173,-1.4277023342631758,-2.5658566179500113,-0.8727563164651816,-0.553141280945132,-1.017037175014179,-1.5358201549386474,-1.1341976248566301,-1.236492999363939,-0.2039527716380173,-2.6729067467544767
80,-4.10505142072176,-2.6263285884423273,-3.0618646666997984,-2.153968648873189,-1.0668274620236864,-2.4523823324213376,-0.015687332985057232,-0.7207297517762725,-0.7500747686571058,-0.09032202808856094,-0.1721879985740458,0.733599628002429,0.9110614580518737,-1.3744717827348467
81,-3.0769786251490037,-1.8881677581247924,-1.5077575372022696,-2.000804734810525,-0.7184501204282967,-2.1915741551171055,0.7443970995874689,-0.8229307267351162,-0.5008571324914477,1.190950647015119,0.727979596992407,2.4378054381287098,1.8438711513405255,-0.11554399487408386
82,-2.042741300308526,-1.145356320177177,-0.10681869913553109,-1.7153554148671568,-0.4036720884333269,-1.7926736339055527,1.3209298917012506,-0.8529928027607735,-0.31438282976641024,2.170235809897445,1.461072309239452,3.6899651151872073,2.5015009470300322,0.9715428088151705
83,-1.0923324186820975,-0.47063941175097784,0.9922579362787806,-1.3075781771408703,-0.13331433879739077,-1.2742564083288732,1.657419175974681,-0.8111166360405169,-0.22219803319078707,2.7517236202438,1.9450806010570465,4.363381708339581,2.824036671521605,1.779828201649975
84,-0.29394961390179936,0.07766914176304862,1.6877473840716248,-0.7981627179487978,0.09211039263992517,-0.6628818197077042,1.7355926530217711,-0.7044396823065774,-0.2373217258762878,2.892374592615237,2.1313744521176488,4.4058061754538835,2.791509351946704,2.2400889730428752
85,0.3131023896830703,0.4627991487530049,1.936354780441698,-0.2174461811289902,0.2807211738568442,0.0085981389089911,1.577283045238894,-0.5462698677406108,-0.3520065081928074,2.606021685450858,2.010504173775328,3.8450413127841188,2.425999647031356,2.3285841021865306
86,0.721713038409999,0.6738860978952159,1.7573414555988858,0.3966771742452217,0.44623660075352695,0.7028611883856432,1.2399769041693054,-0.3546206280879585,-0.538705876380514,1.9604230246932202,1.613028884357121,2.7845584029652866,1.788816964006698,2.0693146615507314
87,0.9560386907130263,0.7269335419666942,1.2288043959411856,1.0016984648353275,0.6041478628795225,1.3799548488918705,0.8069422171457618,-0.1501913249698013,-0.7541288023616183,1.067800314971772,1.0053704176637757,1.3897707791521998,0.9731644948152761,1.5305689364077597
88,1.066418197480403,0.6621504621766113,0.476547013831764,1.5540377418062477,0.7677723663906011,1.9991435551738037,0.3736496036087908,0.04598317913294721,-0.9457884083042138,0.07016598481867599,0.2812774018690196,-0.1332522481829145,0.09318456364276057,0.8161687129189301
89,1.120708290864668,0.5379038915873102,-0.3431209193820535,2.0128571953576366,0.944860110556595,2.5208247095745517,0.0326896895179751,0.21493371659618873,-1.0600708855964303,-0.878682683842701,-0.4500214177571866,-1.5639554749984443,-0.7293585472808553,0.05241775349658544
90,1.1930699928040722,0.42197536385770545,-1.0645700559565083,2.343760842191776,1.1353101881951606,2.9085941665354396,-0.14049246305859275,0.34190665760216754,-1.0506249868021251,-1.6323026212123894,-1.0775417180804945,-2.6951268360598437,-1.3792851518702145,-0.6277772835694468
91,1.3515927488175121,0.3811863981032187,-1.5354322356513932,2.521985855725352,1.3303532603289994,3.131501034366193,-0.09896839552837466,0.4179799392486508,-0.8858365001050627,-2.069628296374053,-1.5025262776397288,-3.359001058428676,-1.7615592268381361,-1.101824707644744
92,1.6463582550589044,0.47071906738695424,-1.6377698685580058,2.5347270105822366,1.513306058604315,3.166444911430921,0.16873595583829426,0.44092537464195747,-0.5543093425257816,-2.109835041461796,-1.6510543617583289,-3.448488767620644,-1.8127433420619627,-1.2734703450776375
93,2.099584511002625,0.7245688684112278,-1.3051426222673916,2.382321289889626,1.6617503044053996,3.0005624201070162,0.6369484109240594,0.4151958274110854,-0.06759492422774095,-1.7224125048929815,-1.4838053221667966,-2.9309780513519397,-1.50910280114312,-1.086035857792083
94,2.69932648932376,1.1485042713429836,-0.5333213042034504,2.078147963359311,1.7507732434916714,2.6333547394570647,1.2464310641748395,0.35103583155007617,0.5401659685705258,-0.9313852103759156,-1.0018185070418122,-1.8530437603299243,-0.8704358700237651,-0.5312289586426296
95,3.397838462996296,1.7166602740553911,0.6168677004291028,1.6472554677655438,1.7567631711868867,2.078247845336961,1.9125341887145466,0.26283678964902585,1.215577274013569,0.18672586534771898,-0.2475337726646635,-0.33548025596332026,0.04087591853236565,0.3476805002887337
96,4.115150233664493,2.372474670041878,2.0251327582776995,1.1238865089073227,1.6611980722349986,1.36326555909617,2.536654752419628,0.1669640274545708,1.8917908982092415,1.510925890091755,0.6990766734960199,1.4407756975521773,1.125621531162172,1.4589242682973367
97,4.7477325630473075,3.034126108631394,3.525248245908436,0.548207515368733,1.453896308775878,0.5305365483747819,3.019375123182132,0.07935813697588709,2.495985591460521,2.88884356707137,1.7289201994822812,3.256174766073216,2.257836649948239,2.671437511873655
98,5.18140948933889,3.6040182313118048,4.924998267419881,-0.03736761718748392,1.1352961045511551,-0.365551653122981,3.273538917294107,0.013248193077312733,2.9575773972735155,4.153472275554229,2.7158547066633387,4.8789778214758055,3.2982412557767775,3.829358363407171
99,5.307016569300777,3.981257578888604,6.030131984713994,-0.5918477972768749,0.7174706417133044,-1.261602592252235,3.235631320018553,-0.022696084693397504,3.2162024930993254,5.141764262324865,3.531105975092496,6.093406344932683,4.109677123855683,4.7703026630625995
100,5.0368063708122595,4.075584304125082,6.669344380538338,-1.0789527842036668,0.223746709914982,-2.0897477188722884,2.874135639076944,-0.025504998737638278,3.228611833758792,5.713114101477149,4.058429064053465,6.726124537683849,4.572910693307217,5.3453534800084475
101,4.319353569812256,3.820915314394723,6.717089786225383,-1.4697215655989424,-0.3130394036350016,-2.7831703704019493,2.193979016243605,0.0018230785294961129,2.9737951957651023,5.765785116160963,4.208293022290014,6.667836369014415,4.601058462505145,5.43838870552465
102,3.1507693979368407,3.1866069691167347,6.111249218667961,-1.7442494332485219,-0.8534590405885127,-3.282145055474961,1.2366877518581734,0.05095979143354948,2.455872653346007,5.249530928916836,3.9294390891076203,5.887355329171314,4.150970163448317,4.982331618790242
103,1.5804139165064037,2.184761985502839,4.863289118622547,-1.8924781137690536,-1.3552586287967285,-3.539989671067865,0.07637720684947458,0.1096864469618171,1.704522119385025,4.17302418358501,3.216420907973081,4.43641138860316,3.230171747418045,3.9701746959053277
104,-0.290039592624573,0.8723752796668602,3.05949311907677,-1.9140730971477073,-1.7775572242224034,-3.528268128160384,-1.1878535016613683,0.1639111069207463,0.7729303943349118,2.6051964906063576,2.112155530821692,2.4445912995845966,1.898406882878684,2.4591825797533358
105,-2.3144639130730913,-0.6522235444147796,0.8529941623109994,-1.8175126519142675,-2.085002311495132,-3.240606471444171,-2.442203939495946,0.19995722629565924,-0.26654862062234247,0.6701797023408406,0.7050507430147026,0.10502272679485866,0.26338241133081947,0.567468815080662
106,-4.316384384380771,-2.2584116111147727,-1.5524772629018484,-1.618575962045678,-2.2514139826907473,-2.6945952133199875,-3.5699837966755226,0.2067834562132816,-1.3286712578297062,-1.4638246167747992,-0.8791283324805707,-2.3474490248164925,-1.5290371782847116,-1.536931493812357
107,-6.107761472293431,-3.7968284847889953,-3.9251461311521396,-1.3384500563451434,-2.2625050334420385,-1.9314289769509865,-4.4636975636378615,0.17780832808765556,-2.323001708132244,-3.6007793122760265,-2.489890364273975,-4.66292915016376,-3.3092952173072034,-3.6534189948048312
108,-7.510175010711347,-5.1158442806296955,-6.031261967741928,-1.0016766056373927,-2.117371743274871,-1.0131591905647008,-5.036154941933488,0.11207262041098848,-3.1623696560721988,-5.536588515441444,-3.9678402403855046,-6.604748616609791,-4.901794074705377,-5.570686875329242
109,-8.375732334295058,-6.078912912057099,-7.661464698243993,-0.6341338630475601,-1.8285943940295188,-0.017683135368162718,-5.229474067730215,0.014568201567491359,-3.7713086303507093,-7.080380256634162,-5.161962234240755,-7.975940877764578,-6.143809188394116,-7.090503128599047
110,-8.60498828285287,-6.580627641100805,-8.65421777093986,-0.26120438670808904,-1.420950273919799,0.9681578435514689,-5.0210581357619795,-0.10431857395722861,-4.093631267866056,-8.074976193839431,-5.946391134357451,-8.640774040729255,-6.90350054837609,-8.05051677461402
111,-8.159515959445011,-6.559437024793418,-8.913491831748669,0.09377323980167115,-0.9289039978748357,1.8567671698764465,-4.425929315716325,-0.2301753348646077,-4.098318404743026,-8.414210295046946,-6.2346877663948455,-8.538847891164187,-7.094877762025774,-8.343241884165144
112,-7.067457538120899,-6.005399616683569,-8.41865711513582,0.4107207305191825,-0.39317823398111407,2.568475926365256,-3.4951774579518307,-0.3465552279465648,-3.78302314112246,-8.055032829491592,-5.989877779510134,-7.6902305730604805,-6.687881818937543,-7.9288205715991085
113,-5.421312834479775,-4.961995749752568,-7.225566855299113,0.6736971590558539,0.14319617221353448,3.0398050538799666,-2.3106917005877055,-0.43731184675863366,-3.174717483528782,-7.022889305330207,-5.228993012659901,-6.191255358242793,-5.7123116643435825,-6.839949862117869
114,-3.3682503620044084,-3.521782156708377,-5.458940287497455,0.8714554160771711,0.6389088621003266,3.2303619361864437,-0.9767472624021941,-0.488943154466038,-2.327316753481991,-5.409635681087964,-4.021517862409364,-4.201767841223302,-4.255072257607845,-5.178366967338546
115,-1.0941970748502188,-1.816459051429963,-3.29722373051188,0.9977066194653429,1.058049066817301,3.1275057162142095,0.3906300151250365,-0.4926005722987789,-1.3164676532902055,-3.3641428774979185,-2.481898610602952,-1.9256469092656516,-2.4510448694961426,-3.103375684371567
116,1.1962636800545028,-0.0026073095373737778,-0.9519778448800285,1.0511185302477966,1.373072930347101,2.748110850315848,1.6753473502386609,-0.44546020629556243,-0.2320299246690714,-1.076631195920446,-0.7570124937379662,0.4128217160875516,-0.46865931902195185,-0.8139033699515573
117,3.301685932498504,1.7551468804738661,1.3555963449035315,1.0350657770955114,1.5668026833846038,2.1370601159649243,2.7726856050688347,-0.3512425131054936,0.8309334523069725,1.2414674356010584,0.9898901414487229,2.593756011123188,1.5081262036083005,1.4736398503793713
118,5.04462765319819,3.3015266671359993,3.418172037444506,0.9571420523130337,1.6333252008535273,1.362479642950927,3.5992418257244596,-0.21979362389212062,1.7816593057334842,3.379795088154556,2.5968454202444966,4.424724888597054,3.2993341052395047,3.5489696575072016
119,6.289195067063867,4.50654772216846,5.0631779919311946,0.8284426236651077,1.577778228722999,0.5081468623783911,4.100308548778259,-0.06578581763924518,2.542624251663227,5.150941580327766,3.92035312464223,5.75946882474107,4.747726987937205,5.230181830938123
120,6.9533794359848775,5.2782395917112686,6.168828171804258,0.6626339776215747,1.4151187543104913,-0.3360964063725506,4.253946026747001,0.09326881933913464,3.056934797871543,6.409420786522422,4.850090711907447,6.510402926228876,5.734708742082584,6.382091687200177
121,7.015007407384878,5.570807534712719,6.673765450678182,0.47484833017271877,1.1680568137118734,-1.0847690624348463,4.071414277488642,0.23939226757102045,3.293364732343132,7.065629993162211,5.319522119734234,6.653864545116737,6.191622710473014,6.928657586644676
122,6.510925740613151,5.387461480214245,6.579599411824178,0.28047119601055853,0.8644072983040968,-1.666669518004653,3.594075507583675,0.35654614553435504,3.248513535043388,7.093283271808373,5.311280780241702,6.227983850543061,6.105255356811999,6.858262438689047
123,5.5298347795641565,4.7777684680686905,5.946461932077634,0.09392157902100351,0.5341565701141415,-2.032942489790402,2.8872933765492275,0.4327138138047288,2.9459006871646785,6.529595608935576,4.85684622369447,5.323922606832617,5.5170354099098535,6.221521246425413
124,4.199887584846817,3.8300139622615457,4.882485705564724,-0.07245483962272946,0.20655367315826503,-2.1621592260536944,2.032188821979273,0.4613604545426173,2.4321793169071557,5.4683684556566075,4.030722230627686,4.071946505432353,4.51615926144143,5.122191468195016
125,2.6727161181313286,2.6596215526707034,3.528751789008962,-0.20925843684268225,-0.09248522236365289,-2.061686656944007,1.1163205009796058,0.44207485814952585,1.7710003135287748,4.046985413901414,2.939984342270739,2.624296241744024,3.2275925296751384,3.7025780819378324
126,1.1058830924052467,1.3951194276335297,2.041690437915777,-0.31057634253680727,-0.34242275642980136,-1.765172467048275,0.22441771202427163,0.3803273542126855,1.0353324681656713,2.429057228454877,1.7106135719324769,1.1370589887787257,1.7965077272953027,2.125445005134294
127,-0.35414313153653026,0.16340255547992755,0.5751129197442446,-0.3741369350852683,-0.5294353418727471,-1.3265738787226828,-0.5697953308151662,0.28641559386449017,0.29920400854017987,0.784957625321408,0.472396954302592,-0.24679555636405692,0.3711379338175401,0.5547890381999883
