,AF3,F7,F3,FC5,T7,P7,O1,O2,P8,T8,FC6,F4,F8,AF4
0,0.6967005428426203,1.1714269243520385,0.8026106287617264,0.550231959424793,0.6787578665796505,0.8149054177498138,1.0362785399076322,1.0835431760313952,1.5222716954010922,1.529768699985277,1.3915581007130438,1.1031112137980947,0.6490099983596528,1.803667541704671
1,1.83522935659635,1.719459798255281,2.4026991882132105,1.463197598446985,0.6336810018068227,1.656279786438448,2.472709006642673,2.9739330112733233,3.599429148878544,3.2530421920050183,2.349798443249326,2.336603122448563,0.10858496243024247,4.536890035805333
2,2.8290015876700365,2.181088276104702,3.772303109213848,2.246500130044149,0.5415577857214936,2.3647064128692565,3.6479253198765806,4.614135008974263,5.487365373111913,4.809137862226214,3.2094421453792417,3.372622540346499,-0.34284388461277865,6.934328582140107
3,3.5792856257054146,2.520397190728796,4.757602477612796,2.810226806462117,0.38073116904274823,2.8444092733140294,4.387910531876218,5.8230824793773195,7.037357583546193,6.062852859548098,3.890712813427566,4.077566628283945,-0.6556747662428714,8.751400009762984
4,4.0142793463243995,2.7104002972751804,5.250957062796906,3.0914875851662718,0.13960394629093245,3.0252147609140647,4.574209282397644,6.468322414312369,8.126619892760194,6.9055631219613645,4.329084157338926,4.357837578486253,-0.7982444988385721,9.80549562361765
5,4.096308141111806,2.7347034689997023,5.20308766860622,3.0617632154939685,-0.18053374414083348,2.8713098440835028,4.160815914428291,6.482757407380796,8.67050427921795,7.266348908500463,4.4818621058241614,4.172239681545809,-0.7606673965049313,9.99574551460083
6,3.824585638644344,2.587998242136595,4.6274795406417715,2.7295076213997977,-0.5646652475655248,2.385796140807295,3.180962261286214,5.87267942976494,8.630285239563868,7.11824513967623,4.331705402237604,3.5370578250081723,-0.5565504348689624,9.312408833707618
7,3.2333886435027064,2.275509201726692,3.5966222879086174,2.1377703072132106,-0.9853223592545407,1.6104971394328536,1.742878077881058,4.716007523204251,8.015658598652577,6.479012092414406,3.8868315968998233,2.5231830152181014,-0.2222554536109434,7.835002555113791
8,2.3861461582246144,1.8116675290110533,2.230853884406275,1.3573285156249548,-1.4057821876758139,0.621076573526092,0.015227748913340281,3.151073354606046,6.881880872401579,5.4066650647122785,3.1782050038149423,1.245827634213784,0.18642375389199667,5.719832747120639
9,1.3664945549502583,1.2183797658872695,0.6816037829744431,0.47645800123776627,-1.7847053140941058,-0.48188446001268215,-1.795567876686144,1.3576801878164737,5.322258485707316,3.990781678875485,2.2544769392281543,-0.15153317462184387,0.6000653548439218,3.179010093057421
10,0.26772435781439663,0.5232882511881671,-0.8884221000295527,-0.4110696489677493,-2.0815203323437217,-1.584703856734966,-3.4727712383769442,-0.46672630484894184,3.457324985739873,2.3411877180527108,1.1757598625738332,-1.5165184574310975,0.9435338871183677,0.45411074285651215
11,-0.8178164914893685,-0.24163476251672558,-2.325220808511167,-1.2179662663985624,-2.261753004950621,-2.573813952041754,-4.817564875677445,-2.1322722782631307,1.4224089946576526,0.5759039391730713,0.007408466502117161,-2.707574481329129,1.1453524471559033,-2.2117692677894216
12,-1.8079102438705552,-1.0409536870079406,-3.5008437478526195,-1.8736607316233027,-2.3015169135210383,-3.3487313289567595,-5.6741248746294755,-3.4796434740167603,-0.6446593727718424,-1.1898306587610656,-1.1851637215942983,-3.6111842847251725,1.1476069613077917,-4.599802516419584
13,-2.637134594516041,-1.8360893385755193,-4.325860071179476,-2.3314101287759486,-2.1905248363301286,-3.8331991472378077,-5.948170326565645,-4.397697500845085,-2.6142220613821965,-2.8520410091276385,-2.339954547885801,-4.154143506643634,0.915231071993128,-6.535846636326538
14,-3.2603955577214947,-2.5853042139986293,-4.755541047425906,-2.5714659693680413,-1.9332219918525844,-3.9831846541086637,-5.616707059143254,-4.833499897328892,-4.372871735768812,-4.323229729080718,-3.3999387968321297,-4.3093632452306805,0.4433908137312466,-7.903287197538133
15,-3.653293136787667,-3.2437562376423084,-4.789429439447726,-2.600137083858686,-1.547941066538527,-3.7908411576325935,-4.728049912297911,-4.793844915285162,-5.828586243957806,-5.5343021793412435,-4.313056284240894,-4.094760814140882,-0.23829097527076964,-8.647405153454605
16,-3.8098270153779112,-3.7641331906972137,-4.465017868567334,-2.445247499604131,-1.0642833515246666,-3.2840720190728048,-3.392630012335924,-4.338668371843592,-6.913164997185286,-6.4338793399555705,-5.031381802790113,-3.5659345773380577,-1.0657145823169756,-8.771723714739819
17,-3.738359275264964,-4.098366552761789,-3.84714499410661,-2.1490256761757167,-0.5191912745936647,-2.521893356784682,-1.7663468402163454,-3.567952178601246,-7.582638726654561,-6.9861576465208355,-5.510471921879197,-2.804288359547039,-1.9451008910260323,-8.32796868124422
18,-3.4569567381137887,-4.200768212306828,-3.0152834999874907,-1.7597968577576106,0.047643916644076814,-1.586311582767628,-0.02913379695363351,-2.604562230466866,-7.816488557600951,-7.168635444866398,-5.709851922615975,-1.9029051605481462,-2.762595015486299,-7.402084053648642
19,-2.989207800807808,-4.032648754351035,-2.051056210626284,-1.3239406928048685,0.5983241274066402,-0.5718493756560438,1.6381279366984813,-1.5758414952710749,-7.616401103035086,-6.970835325139508,-5.595299563303144,-0.952667641192115,-3.3979176077272752,-6.099064095395619
20,-2.361364022280802,-3.568106543518088,-1.0280648473097205,-0.8794223279034945,1.1005646319640754,0.425879488280027,3.0752082160246683,-0.5966848368576612,-7.004972763557755,-6.3946691617025895,-5.143063589755861,-0.030869780705576822,-3.7405526307125623,-4.529172629089756
21,-1.6012498891708942,-2.800292044430159,-0.005508391029235158,-0.4518432445213964,1.5302715468630235,1.3210616258324603,4.1599152210712615,0.2436768083697863,-6.024387037732545,-5.456448907178631,-4.345541948164055,0.8060689125804055,-3.706344091245783,-2.79749360919561
22,-0.7388980546869152,-1.747133316454058,0.9737761100449214,-0.05345396722430729,1.872587616977828,2.0466670916080547,4.819295391347245,0.889728378885465,-4.734767292127773,-4.189908590513765,-3.217381823984039,1.5250506967599462,-3.2520317797881804,-0.9978426846613877
23,0.1915984604967891,-0.45533604866031036,1.8811356111421675,0.3149859527698862,2.1213916414841667,2.560443736578598,5.033634901477747,1.3219978077190178,-3.211763795491184,-2.6491325720634715,-1.8005891837210612,2.1141146233829846,-2.38529156284604,0.7889390614981395
24,1.149872209028322,0.9984930504558055,2.6968874129852924,0.6601245609878836,2.277505417160456,2.8472867612232178,4.833292641813304,1.5539642541220706,-1.543006966826791,-0.9100977672412793,-0.16715227443104236,2.5766553996110213,-1.1683050810109534,2.493191002340759
25,2.0877120448853006,2.510479828278669,3.403732722821586,0.9907070769038551,2.3460776484979338,2.9178789666664198,4.289365549017129,1.624575054238234,0.17668913316166332,0.9303206444375651,1.5820652076001904,2.9236538884000334,0.28626498738454476,4.052652801216473
26,2.9490673104795033,3.9562674331121954,3.9806701664678323,1.3122104583326044,2.3337397433252898,2.8040327944374237,3.4999584488704807,1.587898003126488,1.851149966621158,2.758590744124258,3.3228497683943754,3.1657565679072825,1.8268903784252926,5.408475366057172
27,3.672260118252478,5.201713788353476,4.399113639077255,1.6225524886659628,2.246142915779708,2.551618046573131,2.5743108482046284,1.5016794709284476,3.3891511798565164,4.452084633732178,4.917509708250087,3.3069181072116445,3.2811602571064054,6.502670793685658
28,4.194586187708707,6.116588102603441,4.622415730073681,1.909761062626677,2.086387535599036,2.212260664180761,1.617176910510396,1.416573599528057,4.710478101003335,5.889334437037295,6.228198666412278,3.34089957762749,4.477813589324446,7.278177231574439
29,4.458956319620074,6.5897517432910675,4.6092597604850205,2.152093404670451,1.8546622482445052,1.8351099317511033,0.7156606632002417,1.3675836367857537,5.7509654797918115,6.9617554548507234,7.132077368949944,3.2512915509912883,5.269733505078013,7.6820093714213415
30,4.421728448216448,6.5438897473755695,4.320546966932971,2.320620094590744,1.5491591230955557,1.459887938087424,-0.06978488064547897,1.3688560400607648,6.465892693577324,7.5852188374013,7.536225336270429,3.01502313946784,5.55451935159337,7.671175305348685
31,4.060501781883906,5.947703696310196,3.7286215631473407,2.3838201114044875,1.168070333361734,1.1121789235015218,-0.7092027714319847,1.412442592209539,6.8313882375974435,7.70975458697278,7.390082761625348,2.6086434031119774,5.289492987285644,7.220323542834052
32,3.380466827444835,4.823628429202409,2.827086494069521,2.31335251087091,0.7122484975179407,0.8015323425235551,-1.2016643010614112,1.4710552614618309,6.843841794005654,7.325867633391752,6.693445425179845,2.0161250811644185,4.498748194431547,6.329576129600131
33,2.4179718653804207,3.2495928169450545,1.6391763034634332,2.089942164194286,0.18796380277614147,0.5225008927443507,-1.5691617985991024,1.5042509168322933,6.517651858191738,6.466414976827879,5.49861399964729,1.2366215889682657,3.271002215875718,5.030796770945714
34,1.2402828591359285,1.3540611280757373,0.22273262076593398,1.7082788360071068,-0.3908576736873137,0.2582796049164502,-1.8472368786299345,1.4669726433051091,5.881880735431836,5.203636750228571,3.90611990227281,0.2905569577540108,1.7483774377784091,3.390673834999318
35,-0.05895449153663252,-0.6955215759038005,-1.3297238941325695,1.1799871787861989,-1.0014657620609613,-0.01377810251902574,-2.074181456431608,1.3190157781431486,4.9765026555926495,3.6416501383227895,2.054385206500379,-0.77733752172972,0.10761721410029676,1.5094478778499472
36,-1.368368039741844,-2.7098176031945496,-2.8965731040097227,0.5340534392811248,-1.6125689455139018,-0.3157592326919647,-2.280799235927312,1.0338409898696088,3.848903353807009,1.9053874242458706,0.10457961993562132,-1.8989330647376166,-1.4635915083581095,-0.485191264526392
37,-2.570736503258332,-4.498301088918152,-4.338124698915383,-0.185464025881388,-2.1862001574848176,-0.6630073068849661,-2.4825349634631997,0.6052548999578824,2.55113677566378,0.12747992189903073,-1.7773312730578466,-2.9877786548085967,-2.791743254351981,-2.4486895208057913
38,-3.556581480087785,-5.8910275213469045,-5.511914724223396,-0.9241368793188928,-2.681013866710538,-1.0592028274345286,-2.6753066894611353,0.05081190660118836,1.1382017818141332,-1.565129118032826,-3.438917824472792,-3.9478251582491577,-3.740396879516735,-4.233539395262484
39,-4.237558067874844,-6.7586196913743235,-6.290250024090153,-1.6235518415337833,-3.0565941389396025,-1.4935448563117908,-2.835697440189299,-0.5886900282395989,-0.33268362128834933,-3.063066725432864,-4.757508323767866,-4.684618748688583,-4.227460291001594,-5.704710908322787
40,-4.557622442303226,-7.027731807823974,-6.577447210876373,-2.2283514599593524,-3.278150918983267,-1.9405323315971121,-2.9253904260148422,-1.2536232371325526,-1.8021069621380512,-4.283425239942834,-5.652138105758764,-5.11731715396681,-4.234387831258882,-6.754428025780414
41,-4.500190762131279,-6.689779957532672,-6.324093222645779,-2.6927914576334073,-3.320886203883027,-2.3624232244509797,-2.8989921161272414,-1.873230125184465,-3.2082902033416003,-5.1747121512830745,-6.089725668073028,-5.189698021059575,-3.806064145280617,-7.314105920713941
42,-4.090060090641781,-5.801607357018664,-5.53598795950277,-2.985770054175285,-3.173342463870787,-2.7140095171310663,-2.7138011012703225,-2.3754562013521188,-4.487326533262945,-5.7175523475871275,-6.084863218374895,-4.878455713232932,-3.041599229515093,-7.3616303192316
43,-3.3896541574595402,-4.477861180020573,-4.276167420214233,-3.09356495636374,-2.8391964101445426,-2.9489581371435825,-2.3397436793699966,-2.697416940645899,-5.574388742887629,-5.921503845192857,-5.693569073850861,-4.19748613980336,-2.0776525742881957,-6.922846416652498
44,-2.490050167544469,-2.876025368212613,-2.659422206663528,-3.0199237745661067,-2.3372042337452927,-3.0267003546200035,-1.7676637081534967,-2.7948859165062587,-6.406292170023612,-5.818899619692698,-5.002220301934004,-3.1974590178044147,-1.0670060798949725,-6.067010474453314
45,-1.4980804573724857,-1.1760997848193735,-0.8398484705883258,-2.7836169397974033,-1.6992970107365692,-2.918755105200339,-1.0144275835533971,-2.6493259962806945,-6.92550011867383,-5.4569789763850025,-4.113526998411099,-1.960674092726832,-0.1557411851388265,-4.896882951299167
46,-0.5214385964352888,0.44231917937701143,1.0069855077396404,-2.413997181919217,-0.9671168084013525,-2.6134672074277643,-0.12383797528623662,-2.271345151173205,-7.085303628168923,-4.889680491167904,-3.131731859162086,-0.5918878726161371,0.5375407497260102,-3.5349476114650416
47,0.3459533626367539,1.8224304074844317,2.704864477973898,-1.9454424489716033,-0.1875261916051074,-2.118416773959954,0.8369460639400578,-1.6999905445542698,-6.855563705115021,-4.170342572697811,-2.1491868197084587,0.793621208109496,0.9374735732869055,-2.1077968485682024
48,1.0360933804516645,2.8490415054152614,4.097897027775183,-1.4117341427354668,0.5922235166456103,-1.4601624747942066,1.7850254437618414,-0.9979215967381074,-6.228149942447035,-3.346245638436717,-1.23610126737965,2.0830942934107144,1.020574228211138,-0.7309474619034043
49,1.514727616198151,3.4612630687222348,5.06875258038703,-0.8414103590879889,1.3289421708544518,-0.6814400257203347,2.632268766273037,-0.24313139872377057,-5.22110506887117,-2.455507430636846,-0.434655303083206,3.1786481106574946,0.8158699105326439,0.5037825263378473
50,1.7836993404819859,3.65741186706304,5.551672302354127,-0.25493631356277685,1.9869299405865752,0.16364373656024178,3.2970689079640407,0.48158102156594307,-3.8806388115748036,-1.5263970802505094,0.24205770448116445,4.007282509515602,0.3978259075406227,1.5366609529649105
51,1.877517526078797,3.491551652860435,5.538507900022891,0.3358157036941042,2.539938471488358,1.0155839090201717,3.715486229247888,1.0998331023742567,-2.280300492626833,-0.5787451539094227,0.8065267739047178,4.527248788904229,-0.12700450173359856,2.3432047815939914
52,1.854746508017606,3.0622762129580705,5.077036663705221,0.9257279008876932,2.971484127626876,1.8156572922828167,3.850011654323014,1.5519084547942472,-0.5170611710668097,0.3731464446617743,1.2896477689116073,4.7300431417281485,-0.637380404509766,2.931932281063841
53,1.7856258043295958,2.4954279143644307,4.261900650586543,1.5126525339649632,3.2736308541357793,2.511409540517508,3.6945738802552612,1.8025114970225347,1.295509525090655,1.316826432039166,1.731204604790289,4.637940442102354,-1.016175622114357,3.337310435384748
54,1.7379225013345456,1.9232963700690862,3.2195660583781356,2.092492730391443,3.444636393567652,3.060766938743678,3.275030667484112,1.844884641964415,3.0363382510821637,2.2379873074694556,2.1695519771644127,4.297631979283802,-1.1679186687187995,3.6091840507158754
55,1.7633131161228748,1.4633384615804632,2.089545832502936,2.6542248749417365,3.48606079322346,3.4344060327928982,2.645117369810348,1.7007016870089424,4.587218640143587,3.1173791358618006,2.6320449502541536,3.771083525562907,-1.0327496756805055,3.800454260132767
56,1.8865449773274512,1.1995350228404262,1.0046518928416535,3.1760203776119282,3.400031908335636,3.6163609350173367,1.8785523322304716,1.4157970900321268,5.843250165830291,3.9288429978476516,3.1275768926420264,3.1251115243036605,-0.5950896778755396,3.9550001693417043
57,2.0992388729199374,1.1691382872506255,0.07316385734972554,3.623501471817994,3.1873290712662365,3.603157148776827,1.0585973383997653,1.0524252222734496,6.722108654932246,4.638784480464698,3.642262653784593,2.421332573613947,0.11390279547610672,4.097784164917489
58,2.35950880759956,1.3568080556478739,-0.6345064671587223,3.9508468731401307,2.8467853248742427,3.4019755859494714,0.2667433909898783,0.679265055199844,7.171062714757692,5.207221437473373,4.138881778462061,1.7080492089276935,1.0201807855819003,4.228754476098512
59,2.597681500899934,1.697077541142992,-1.0927744349284154,4.104989019516892,2.3762448248232464,3.0284353959082484,-0.42772119437187,0.3607117023085173,7.170949353943568,5.590358803225985,4.560218072024708,1.0153009768643853,2.0162736683858324,4.321592973975749
60,2.7274287639951957,2.0848765434412297,-1.320574978821973,4.032585623192161,1.7749889189879928,2.504531245320652,-0.975710536004045,0.1470785324244996,6.73672131113279,5.744476761813486,4.8359409492559475,0.35377979895587636,2.975029024231223,4.327619797951376
61,2.66073033712231,2.3926452555463187,-1.3740263603738778,3.6888962338340514,1.0472186188962012,1.8570909480547224,-1.3528165281791036,0.06716438298910962,5.91462026454044,5.630776375951876,4.8922190951456725,-0.2823372627731499,3.765839486427034,4.1843582673177915
62,2.3244038828814144,2.4915715888453125,-1.333396030731185,3.047246465047814,0.2059120358102086,1.1168780932258258,-1.5597902488670157,0.1242512019507541,4.776451356291956,5.22071275625165,4.662885452288965,-0.9092453964224028,4.271335077628777,3.8275018013766116
63,1.6755824157406827,2.273826241317705,-1.2865838093708104,2.107503251042782,-0.7237853342275843,0.31821137890415013,-1.6192372185101354,0.296053735179521,3.4117753924250245,4.501258906257165,4.100724797585724,-1.5452372038424869,4.402523595538756,3.2044281927554343
64,0.7135542205291514,1.6724548782045712,-1.3118723886690968,0.9019726729267794,-1.7024954783215915,-0.5012293721446099,-1.569348358847429,0.5385348152272521,1.9190485098219037,3.4794856758551447,3.187362706963919,-2.201859367810282,4.110577129770978,2.2870768289917343
65,-0.5141798317806469,0.6758574563483488,-1.4627912134557424,-0.5026105867316599,-2.6765828144058537,-1.3008391659283052,-1.4559322606801717,0.7929267347835292,0.3967980996122778,2.185826363692644,1.9403193894505701,-2.876199816883864,3.3938644450925297,1.0820072813888653
66,-1.9129781120379044,-0.665487111307087,-1.7575768520809465,-2.0078284313519643,-3.5805953313274888,-2.0381638619036777,-1.324210936081463,0.994850615971487,-1.0641743085943172,0.6754363773882545,0.41606106472214915,-3.5458580661791217,2.299379429923277,-0.36419144099955775
67,-3.349554343060976,-2.241303861253343,-2.1749452897740347,-3.4912001094655385,-4.342203883667757,-2.670862506845177,-1.2117603017401102,1.0841655039012679,-2.386804552082943,-0.9728245208667564,-1.2916790035654884,-4.167734096238383,0.9183651826873906,-1.9653143079244535
68,-4.667043061778324,-3.89276866832455,-2.6568415134954377,-4.818055617554148,-4.889234065071033,-3.159567477887421,-1.1436427758323362,1.0141363415082871,-3.511553566851057,-2.6600593069084555,-3.058468408301443,-4.6811381813937345,-0.6233818004171123,-3.602079428417943
69,-5.704712550082028,-5.431359743771307,-3.117672854205426,-5.856318924382966,-5.15797921904745,-3.4713934423115695,-1.130269909451425,0.7586769641144915,-4.3978841429706215,-4.273643535036478,-4.740157384254112,-5.014974351293727,-2.179396838927428,-5.134144980986538
70,-6.319598614471054,-6.662815949926397,-3.4584611817896445,-6.492305765353407,-5.101684283951731,-3.5836208095160247,-1.1679631691925203,0.31675921418141567,-5.023663244392056,-5.6958376276008105,-6.187184631847468,-5.098012426670927,-3.598963627163499,-6.4160757779434245
71,-6.406932445904215,-7.412918710051129,-3.583548631630713,-6.645359014005243,-4.6979573724039465,-3.4869404702398006,-1.2416764166217715,-0.2864834725564276,-5.382975496932864,-6.814012708766527,-7.260609597122588,-4.870671619950862,-4.744069444409751,-7.315069439011024
72,-5.916318291406483,-7.551507497379365,-3.4170986742289426,-6.279195703779616,-3.953929511028789,-3.1876263934580242,-1.3290080087979004,-1.0019669789188461,-5.482976353283612,-7.531491239174989,-7.847951863141931,-4.296403940141566,-5.504819449025275,-7.727924602481912
73,-4.86117953282815,-7.011362009510346,-2.9167131716231744,-5.408229027050061,-2.908239512449829,-2.7081087919170215,-1.4045204330178427,-1.7617752506228181,-5.340437080999051,-7.77779106288151,-7.876838812948294,-3.370753789930707,-5.811413899125467,-7.59480079802371
74,-3.3199495225687308,-5.799301993184614,-2.0820144323363006,-4.097800874485014,-1.6293344432613512,-2.085635749197599,-1.4435003455000872,-2.486464532413644,-4.9785445790333425,-7.516997277384052,-7.324649305994975,-2.126487220352568,-5.641230220498864,-6.907772972038484
75,-1.4286817021713958,-3.9979533044657725,-0.9569146451842033,-2.4581111236113737,-0.21008410578213899,-1.3689989644636047,-1.4245809764635151,-3.093640790930229,-4.424344912917819,-6.753102378729986,-6.222781020926325,-0.6337762393841891,-5.020191526589048,-5.712947491478777
76,0.6340006774241989,-1.757934170293648,0.37464994865995965,-0.6325266299825558,1.2407669378946973,-0.6136133627041085,-1.3310301900983785,-3.506835267267757,-3.707006891690997,-5.531454215500531,-4.6548145879084535,1.0048117272321382,-4.018358961413063,-4.105852906618395
77,2.6675957469222173,0.7184696866574578,1.7986943561831927,1.2182412217132836,2.6093237987282203,0.12446825831607218,-1.1508888360075515,-3.663752509433849,-2.8568834504715515,-3.9359031085134335,-2.7486209818216376,2.663961397614481,-2.7404495481039426,-2.220792851959861
78,4.4732472157618295,3.1999408145773875,3.185180870658357,2.9340087443855274,3.7881274116697257,0.7948034819941308,-0.8764401776451577,-3.523101886841488,-1.9052048928842211,-2.0817842795933026,-0.6632597981136668,4.208619469694963,-1.3126416320954486,-0.21569753084082743
79,5.876927939370484,5.452084841402899,4.403809496634725,4.372671778601731,4.687143884451341,1.3581613802062276,-0.5036386776892684,-3.0694179721824115,-0.8841679315082142,-0.10543067301599889,1.4277673240725968,5.508582663065771,0.1325106054537015,1.7453918611426975
80,6.749212242295502,7.263361310784038,5.339241045319701,5.425128087104355,5.242762472565774,1.7906011648549502,-0.032094427392715244,-2.3154977703481268,0.17281567677884838,1.8486008298961976,3.3548223315686485,6.452661131647009,1.4710384581161136,3.509809473076643
81,7.019112967774588,8.46777037137431,5.903658552559099,6.02566229271225,5.423671120668427,2.08533923331928,0.5339955663630157,-1.302307747652424,1.2308981602201687,3.6410699573465743,4.9696737996412725,6.960520193619274,2.600475895456672,4.951433427539959
82,6.680356838638876,8.96163559666298,6.0451675614507785,6.156562435755441,5.232904418419725,2.2520340997144226,1.1839123397570268,-0.09642160100410746,2.2537221281392728,5.150717596054718,6.160055725120862,6.9907073389301875,3.449176233406027,5.981700938121948
83,5.789573863747427,8.712719427172196,5.751323581187948,5.8465835584655865,4.705885177775805,2.313523181082801,1.8978060069179177,1.2147708614104733,3.203558160868831,6.2845334574453595,6.859449776250977,6.543989319894872,3.9810432227317283,6.555346702912968
84,4.457006485672339,7.760988895945986,5.047891962130503,5.163757287623869,3.904829463936353,2.3004698367530443,2.6440863354327075,2.5296971658883494,4.041693878894512,6.984459229528586,7.050991613902823,5.66183497332045,4.195379833401731,6.670582137745615
85,2.8313275343463595,6.211443833744523,3.993636373504897,4.2038321676436246,2.9103745252236415,2.244752159700823,3.3776967121271184,3.7405785950441324,4.7291279046862185,7.2298862864062485,6.76524648930094,4.420557435362312,4.122257622942334,6.36425165137246
86,1.0808529810082448,4.220367708079387,2.6723841294399806,3.076201141875286,1.8116482636773463,2.1726827939309037,4.040171184254952,4.742168809490765,5.227658073889422,7.035918101942292,6.072461098079122,2.9221687917004644,3.814416869628348,5.7031631884417875
87,-0.6262378234942894,1.9770424153189594,1.1837796566119172,1.8894490335827456,0.6961754434522586,2.0992428588876204,4.562176472920157,5.440621694696662,5.5014847104861335,6.447962483570296,5.0706459363743885,1.28332982854643,3.3371362819491055,4.77319942360557
88,-2.1401250727785124,-0.3166810769883074,-0.36597264117609885,0.7385992909365957,-0.35901676663278265,2.024415193378659,4.8688543234297335,5.761831705425312,5.519445279454666,5.533704149621035,3.871367993912772,-0.37612992605933737,2.7577054080095014,3.6679331168001696
89,-3.3438775446954496,-2.466550325837317,-1.8723892206631714,-0.3042279567938332,-1.2939688100083166,1.932411847983671,4.887766572961182,5.65859492979215,5.25792966566003,4.373810558405377,2.585367150876032,-1.943773871851826,2.136075409181912,2.4783086998408286
90,-4.162822100328501,-4.303692000731178,-3.2394439920581073,-1.19465018933935,-2.069313942992708,1.7941396875080167,4.558694681441179,5.11597382482112,4.704383430518139,3.052798367251141,1.3100219858072706,-3.3231496549317634,1.5179748078804507,1.2845708625738685
91,-4.56809776556621,-5.698379198971767,-4.384607820308682,-1.916013541990165,-2.6665426213370895,1.5727005532376896,3.8440593630152904,4.15431820673436,3.8611032981505806,1.6513268272581043,0.1202998297719413,-4.439754026277704,0.9313105837603444,0.15111116888714587
92,-4.57455638683598,-6.568780473241166,-5.242354584019504,-2.474986089657941,-3.0853087524923963,1.2311680787598192,2.7384038139854088,2.8295121403911443,2.748809694046555,0.2408240442006892,-0.935798131281876,-5.2441372819420335,0.3861143543162911,-0.8756295259803069
93,-4.233879631705854,-6.884331532909344,-5.766457084545041,-2.8938754449355337,-3.338527739629419,0.7414211881720064,1.2753030369435767,1.230195811616035,1.4093109090543785,-1.1191333279850286,-1.8370319822231451,-5.712294376412116,-0.12226608447187609,-1.7665283468800617
94,-3.6242923990139,-6.663960372369278,-5.931391354950318,-3.2012609407628,-3.4463214852909867,0.09253524552599503,-0.46974205376322153,-0.5280428346622278,-0.09348387320730633,-2.380784471688019,-2.5844377152709286,-5.84378117350006,-0.607503037691114,-2.507073530822244
95,-2.838520168124844,-5.969876676012165,-5.733039736759732,-3.42272353849137,-3.4299842281204516,-0.7028006410582764,-2.381409696330234,-2.311217477716757,-1.6748497031779055,-3.5060533461887515,-3.19367233982073,-5.65817374946942,-1.0852574352444118,-3.093412218767966
96,-1.9716601481159917,-4.897981150715852,-5.188704158244341,-3.573353545261372,-3.3070629282927224,-1.6051374655226969,-4.311992627220392,-3.9776381805863323,-3.2332242780140144,-4.463221498052948,-3.6857371755775894,-5.190558681615838,-1.5660477097772298,-3.5280040631007528
97,-1.1104454170223192,-3.56615509224541,-4.3362900003539675,-3.6533441103919326,-3.0883868758142845,-2.54921953580896,-6.093747101432937,-5.389881850818268,-4.656902819513766,-5.223474261247497,-4.077818661625803,-4.48672031277535,-2.0492787021826677,-3.815636324030436
98,-0.3250310901377996,-2.1017606463682856,-3.2324552538086984,-3.647404356563753,-2.7774901267392846,-3.4492387819993153,-7.555011085528715,-6.426968118980479,-5.833045200122101,-5.758371382788506,-4.375915609765006,-3.598598071463269,-2.519515285023682,-3.9603869102725344
99,0.33601477340999675,-0.6296261679858745,-1.9495598930936224,-3.5280447526825656,-2.372413282291603,-4.207912595033056,-8.538348757413335,-6.9955751394258,-6.658183138247635,-6.039088063694028,-4.57060355472343,-2.580442530022681,-2.94575786538032,-3.9639186307585788
100,0.847310777743885,0.738381228779883,-0.5713820613229132,-3.2621078876668346,-1.869424206149254,-4.728285331764403,-8.918600068759469,-7.039160045005582,-7.049095768285327,-6.0379053132459335,-4.636762808642246,-1.485923199731203,-3.2840258526511836,-3.825274409669498
101,1.2050980253549808,1.9113653934926376,0.8122468547506243,-2.819348207420783,-1.267835617898599,-4.926685634567769,-8.61861513223727,-6.544008909167592,-6.95274524898379,-5.731949367073985,-4.537435056347189,-0.36625683801162656,-3.48303104193477,-3.54212765600806
102,1.4231320636505942,2.8245034715245665,2.1115452367938237,-2.1814952608185227,-0.5748825365888036,-4.7450302848169725,-7.620651178658611,-5.541517352985301,-6.353965013622841,-5.108664762138088,-4.231264438820995,0.7307455794405991,-3.492196814330524,-3.1132298027407757
103,1.526913198128488,3.4411184892964672,3.243129944650885,-1.3501250936137905,0.19040870253645334,-4.160688943933239,-5.971876302556083,-4.1063657024929965,-5.279780547020758,-4.172048711410596,-3.6823280746632108,1.760954632136636,-3.270833403663348,-2.541603082669071
104,1.5472670618307773,3.7519448602495733,4.136044314919483,-0.35183060085703466,0.9952695266045052,-3.192412230223717,-3.7830926892901022,-2.3506619847512846,-3.79959521483573,-2.9483703314005507,-2.8706742887496888,2.6838577305314124,-2.796993372749046,-1.837876630437984
105,1.5142770378870134,3.772087240181158,4.736912063921077,0.7604026345269024,1.7937432798429138,-1.9013368201347216,-1.2205742680319849,-0.4145370680207663,-2.0209455707738053,-1.4900197328717586,-1.8016560331950244,3.462528515894419,-2.0744671234631302,-1.0230881815622725
106,1.4524250980490103,3.5363496814941313,5.013751458884111,1.9101081838521574,2.529898054971689,-0.3867384970060387,1.5082860149391546,1.545957067841464,-0.08106039922213555,0.12368874961696875,-0.5122301140862133,4.063971064969567,-1.136569351428277,-0.13029961432623544
107,1.3775378172354624,3.0936699702299797,4.95811835206662,3.004340091354474,3.143380212639511,1.2230918281067829,4.1741005909667415,3.372514378447321,1.8650238503836722,1.7895152294712395,0.9272039315301378,4.460067837866252,-0.04580630124898934,0.79548216868048
108,1.295799547108729,2.501338974611447,4.585399225153698,3.943892787659775,3.5765612547080337,2.7838249443045227,6.547403823502248,4.918513191313869,3.6586034166760597,3.3872571091864048,2.4161836680852096,4.629186539427789,1.1108588216169553,1.6993379928544232
109,1.2047426332262912,1.81954786576629,3.933230711825738,4.635325658788003,3.78221915187376,4.150392329042035,8.421049959788071,6.061906076596674,5.1522263480252635,4.790174202412683,3.832718457814972,4.558304322114137,2.2307160437719245,2.5203696313171693
110,1.095816736922261,1.1066344448070549,3.0581760377499965,5.003057953660037,3.7305580979790705,5.1927758238788675,9.63071652427914,6.715852484614291,6.223807753766606,5.877757871397155,5.046078354109905,4.245335192921804,3.2069076254477538,3.1971669944675276
111,0.9579238859272506,0.415237827358615,2.0309375831563052,4.999757042506062,3.4144334262488814,5.810393935537385,10.071337674506228,6.836116140888146,6.788440029840032,6.549262559244207,5.932222061506619,3.701234241985712,3.941334741573681,3.6741819750556775
112,0.7812077350684858,-0.2105556643260609,0.9305164379425442,4.613481731373941,2.8518996342039546,5.9433656260111825,9.707723555265943,6.424565842888023,6.806640791672402,6.736181063727856,6.389765747502253,2.9514162669881494,4.357044625553749,3.9082063559799516
113,0.5604066863288385,-0.7370778137348849,-0.16217321071872978,3.870515630996803,2.0855947061138105,5.579313885899463,8.578227464049046,5.528482256142924,6.288149848704711,6.411871122461662,6.35421334525308,2.0360653076995683,4.408310715025619,3.8740793902016826
114,0.29720563302816316,-1.1420085286860162,-1.1706789468581609,2.8334506352089135,1.1789466590563757,4.754906204845761,6.7910380491843885,4.235751151069554,5.290840942599533,5.596834098182249,5.808320636830144,1.0090165678641951,4.086936485060857,3.568794598577215
115,0.0012229138172845351,-1.4144523061779692,-2.0288243743805734,1.594756654758877,0.20966211897891088,3.5519512854976063,4.5134332436108116,2.6663896705007923,3.9148153447656573,4.3586771836465426,4.786938541788188,-0.06494705623415585,3.423859186494378,3.013339848149345
116,-0.3104877185647301,-1.554260054755616,-2.6854712595699373,0.2666976311930351,-0.7386433658595724,2.0885089098336707,1.9550682924452527,0.9611836891626175,2.292249893011474,2.806491527847019,3.375416664165726,-1.1143380869475183,2.4858135771342766,2.2518762297257573
117,-0.6152949448336981,-1.5707110494513725,-3.10784332454891,-1.0310652337463337,-1.5855506767558505,0.5060505479976108,-0.6529889776553512,-0.7315130971010873,0.5740334532902717,1.0801481389773195,1.7015416785131852,-2.066476012446968,1.367525471671975,1.3482023569099395
118,-0.8878721336024947,-1.48068872806218,-3.2831674657756795,-2.1845673524684504,-2.262469206829704,-1.0458330598862646,-3.0812852109366125,-2.2695775075008466,-1.0854065190080966,-0.6642681304326036,-0.07809645022383079,-2.8537785539823277,0.18052784568950653,0.3798100685037058
119,-1.1036228031656539,-1.3065044124731076,-3.21855141087325,-3.0976748374055174,-2.7196844374041276,-2.4253965875324655,-5.124625056337904,-3.530184348493435,-2.5434575107701116,-2.2711108542274308,-1.795611613121469,-3.4201686653859986,-0.959863048885929,-0.5698354617335614
120,-1.2421042310861543,-1.0735408440881349,-2.9391829858731615,-3.701786652841509,-2.9309665614347598,-3.5135216391731725,-6.621893228218088,-4.420847812799055,-3.6831745647184144,-3.6018272884522307,-3.2909323699045676,-3.726832530885184,-1.9476662915756497,-1.4199054873939672
121,-1.289926019313436,-0.8078988417228715,-2.4850876069301986,-3.9620056789612432,-2.895252704719462,-4.225610517211255,-7.470904331307974,-4.887308066880851,-4.4240990974722285,-4.549519811721573,-4.430000897353338,-3.7565624092439425,-2.6977550377410493,-2.100675380582052
122,-1.2426985638137578,-0.5342308997844283,-1.9068022766050223,-3.8791794877506107,-2.6353314228087417,-4.519252549755737,-7.636677185013086,-4.917434251231467,-4.728856405670477,-5.049600411205936,-5.119664649779459,-3.516029576568844,-3.1543712895535125,-2.560801093953603
123,-1.1057614060950973,-0.2739300383914181,-1.2604055850723181,-3.4877636701537544,-2.1938600918201603,-4.396857850379397,-7.152280876622796,-4.540728349355529,-4.604852392065117,-5.085264800453533,-5.317332939778066,-3.0355551962061855,-3.2957062996756843,-2.772478669463554
124,-0.8936083698511729,-0.04380812708214084,-0.6023792622630636,-2.849988057184807,-1.6273763485026311,-3.90308460491532,-6.112265047622129,-3.823498908282761,-4.100994278416412,-4.6872267632796865,-5.034212013477751,-2.366258824966054,-3.1341907369379736,-2.7338200405503765
125,-0.6281174002262365,0.14465269088518692,0.015231520060073405,-2.047241309130581,-0.999180860946926,-3.117528386361297,-4.659561892576514,-2.8602711643817185,-3.299973469375687,-3.927930042376046,-4.331832612217582,-1.5748213297374765,-2.7127226124290136,-2.4681426035285194
126,-0.3358601606037654,0.28545341773571103,0.5489401363897328,-1.1698812303532946,-0.3720480254862445,-2.1437157561259026,-2.967524574893198,-1.762446729018093,-2.307182697846826,-2.91117383161654,-3.3125077749147787,-0.7364418715182768,-2.0975700699267255,-2.020285500407989
127,-0.04488650025544691,0.37767982425038055,0.9668853079953152,-0.30679805092179485,0.1983359709972447,-1.0958831638918536,-1.2193479062633872,-0.6455623470968181,-1.2377219670515096,-1.758644740794017,-2.105171190297017,0.0731626747252185,-1.369057732801031,-1.4504693778061397
