,AF3,F7,F3,FC5,T7,P7,O1,O2,P8,T8,FC6,F4,F8,AF4
0,0.09108221685823074,0.2060457953857014,-0.9872288719866368,0.003863905263948246,0.1514993695568182,0.27834400162641587,-0.03798143684069742,0.05503186431976187,0.5646280580280244,0.87041632092065,1.0693363218231018,-0.4287087673996604,0.9470512348484619,0.8411520578387502
1,-2.3825514728532653,-1.4475126173014115,-4.09960716904924,-0.8401760257030277,-0.01273772588386,0.8800470859757786,-0.17088029892775655,-0.19972547627839823,0.608741000766035,-0.21696796441632532,-0.3657219933735567,-3.5265023712024783,-0.6960741840769314,-0.6439251454927367
2,-4.734263340692349,-3.0002639332933017,-6.992075229193755,-1.628780860697083,-0.17856704194504333,1.4199512092025908,-0.3164642833207458,-0.4003727768746111,0.6654590707379503,-1.2571823697972373,-1.754201986618117,-6.380353988108617,-2.30402968489466,-2.099169124743776
3,-6.834239876114083,-4.372723473995087,-9.494774883907493,-2.329021651032588,-0.3563557473614,1.8343047273599935,-0.5005637412013584,-0.49711960102389435,0.7351501352147406,-2.171188781364778,-3.019665853823037,-8.772572686475003,-3.796028185489188,-3.4547268534545386
4,-8.556005104196245,-5.494401405784146,-11.45181625692698,-2.9098739285440667,-0.552123814358855,2.0750592292729584,-0.7361698422896557,-0.4526884450905129,0.8128013534037066,-2.8895850137963768,-4.09077801408526,-10.517286944491401,-5.088291989401088,-4.636020520167015
5,-9.781776371931459,-6.305622361369921,-12.729058276762379,-3.3425709957531757,-0.7648087026295063,2.1157883498293932,-1.0193649125047881,-0.24807534302297102,0.8879350933930518,-3.358157624376576,-4.904593549595578,-11.47567985322075,-6.097495994769749,-5.566296605656991
6,-10.410477503532356,-6.759724118212547,-13.223159806444157,-3.601757067219341,-0.984917125783877,1.9544848351511113,-1.3286410658745944,0.11356087406355944,0.9454171619794683,-3.542624928851151,-5.410477966653562,-11.568315493316309,-6.74674827737894,-6.172084344426125
7,-10.36790690712877,-6.825734519791925,-12.871332369728032,-3.6674304773687654,-1.1948395270310566,1.6129437245742928,-1.6277033696973942,0.6054902038845443,0.9671411378696861,-3.4321156792890126,-5.5744080830462295,-10.783344302474438,-6.973656582844515,-6.391147391967595
8,-9.617803555830122,-6.491353212256853,-11.660669908364621,-3.527450988166533,-1.3708143163351998,1.1329493736703602,-1.871232445490695,1.1788621223074909,0.9344254025041407,-3.0409464104294726,-5.383131848594591,-9.179560429156698,-6.73942430677074,-6.1818406344354875
9,-8.17198668443983,-5.7658105260851125,-9.635531946614197,-3.1802032424036226,-1.486243245312426,0.5699475109701602,-2.0125705672570144,1.7670828153475209,0.8308280761297657,-2.408342627116844,-4.8474758722406595,-6.88361564376201,-6.0374688650054775,-5.532285628119354
10,-6.097492561360438,-4.681997952777161,-6.901316800820042,-2.6368972754514224,-1.5158280761101184,-0.014770396852354033,-2.011978552664851,2.2928266580639503,0.644998795952515,-1.595896397451312,-4.0040311589809585,-4.081163295164732,-4.899856714961021,-4.467555843174438
11,-3.5187677164068543,-3.2972081371004363,-3.6231421406951565,-1.9229720484075041,-1.4398641918574597,-0.5621701779856282,-1.844036826947025,2.6770229247168587,0.37316104666819166,-0.6827577407963284,-2.9145459004931764,-1.0022815733137225,-3.399963386985146,-3.0531750107854765
12,-0.6135042940112523,-1.691906238353632,-0.018451841062958475,-1.0781544045512603,-1.2480098023630637,-1.0226887139067853,-1.5029382739879795,2.848838166654055,0.020857557312362676,0.24119938319280346,-1.6626034112185542,2.097848223199496,-1.6501978069749739,-1.3936761006061946
13,2.3984542148190124,0.033831620705984534,3.65667326301517,-0.1548978461507081,-0.9419436536863892,-1.3615870924433868,-1.0048031477666124,2.7554560330515274,-0.3963141834520839,1.0837426695523715,-0.34752685934277217,4.96143369979589,0.20568175630108387,0.3743225423260849
14,5.27268107480165,1.7662669049243878,7.126821116075328,0.7848456585763567,-0.5365019592046103,-1.5618136520779036,-0.38666113775482774,2.370384261309282,-0.8531190379282164,1.7594548428811727,0.9241253907295561,7.35167233071198,2.005296414968906,2.094210497646673
15,7.762702124745022,3.3860302589595794,10.12058815343006,1.6743171319376962,-0.05910894530263969,-1.6241623688647855,0.2977041359968244,1.6991156925084292,-1.3162568817327212,2.1988154001967852,2.0486939830856743,9.075102692446867,3.5842057948329193,3.605470324476153
16,9.64508948727287,4.7775841973822,12.395616841572092,2.4476690718980176,0.4524530583941664,-1.564929322900445,0.9843642368301718,0.7812336759362717,-1.7469650580796812,2.3561991198842085,2.936061787977213,10.000300307433506,4.794358338115188,4.7618456584318425
17,10.744098241619453,5.839186138326093,13.762524125167458,3.0460978295132284,0.9536799981046864,-1.4116239585545347,1.6072738325911906,-0.3115449734231785,-2.1044184097414176,2.215814843526225,3.5194849727179385,10.070753965771953,5.522021456343158,5.449208504050459
18,10.952633932324364,6.492259717028329,14.104817316885416,3.423680427868687,1.3979703150124732,-1.1975345796047836,2.106512308796922,-1.4814028864894127,-2.34961629310073,1.7947436816755857,3.7632759991179614,9.310290863885053,5.702655183395446,5.600610730278108
19,10.246600832666866,6.689068435631553,13.39220579909971,3.552200454484972,1.7417060347011768,-0.9560542881712989,2.4355524204401164,-2.6140239027361694,-2.449398297574477,1.142491231525983,3.667190427592486,7.820199194636299,5.330457297306289,5.206255633079267
20,8.690390508416574,6.417729010947979,11.685411287915326,3.424333426080186,1.949203645741061,-0.7156414904681665,2.566558858939961,-3.59077684051793,-2.3802102240512273,0.3368281893051469,3.2667449089244216,5.768138363601327,4.460940956602374,4.316735185827553
21,6.432349678703984,5.703889365734748,9.131573743496896,3.054735357367376,1.9969525934063295,-0.49613359229049353,2.493045242366269,-4.302117153876733,-2.131242633252365,-0.523873955473012,2.6292113164430804,3.369911998356032,3.2058238427038015,3.0387627858739665
22,3.6903731980933685,4.608789628882151,5.950512981983632,2.4788246995034444,1.8766295466038216,-0.3068828557841206,2.2296310202484104,-4.660618819555724,-1.7065849852226656,-1.3311504004857997,1.845619716192239,0.8660755903403498,1.7205761341636885,1.5236588542168765
23,0.7291111094539129,3.223863169377681,2.413273962756483,1.749337513389874,1.5965092857557686,-0.1468774701868165,1.8090793500432565,-4.6120163073243425,-1.1260883270944395,-1.9787177795662374,1.0196730632787583,-1.5039672236879114,0.1860317240550148,-0.05013509018015046
24,-2.168549453835088,1.6624477462997733,-1.184615736883021,0.9310258731637298,1.1810732423392354,-0.006692629891120015,1.2771956070920025,-4.14281333953262,-0.42472220390331056,-2.3751340285755473,0.254939597403677,-3.5273607071435227,-1.213649583801139,-1.4983784696700664
25,-4.732250873653006,0.04950073756418351,-4.5520675677442775,0.0941139635096888,0.6688211519539481,0.12816546227482295,0.6864590566944786,-3.283393484240005,0.34964639294533956,-2.455320072216016,-0.3580317407919521,-5.039683407734147,-2.31381010407863,-2.6534789319018612
26,-6.733370535305203,-1.4895934505318427,-7.43016928593756,-0.6927132375215558,0.10849505853274444,0.2731588071443235,0.08939852376595607,-2.1061071166801417,1.1399416379783605,-2.1894786890552407,-0.7529808137741334,-5.940736639047099,-2.9898863505158397,-3.3851490981784083
27,-8.0090543494141,-2.8399836852631073,-9.615580858227977,-1.368961816791241,-0.4458946830268203,0.4405814403448709,-0.46731273425672765,-0.7184377474950933,1.8847277963425972,-1.5882069053324752,-0.8960944071756083,-6.202412468366391,-3.173003297925028,-3.6165557344063486
28,-8.478164680888806,-3.9070195263502825,-10.977060898983115,-1.8878587633606998,-0.9407140384557062,0.6360744739766051,-0.9472616356468414,0.7480230363317588,2.5237367913281648,-0.703029220154699,-0.789963891586504,-5.867834305699323,-2.8584661148589556,-3.3338200738046933
29,-8.147316569951723,-4.623750189532351,-11.46354315309146,-2.2201663065909125,-1.3284121826976203,0.8563413286841707,-1.3267256731714163,2.151528805187484,3.0034766654008593,0.3778800071233015,-0.47280849990393503,-5.042086507597363,-2.105997615668873,-2.587598627730916
30,-7.106489084819557,-4.9556356372551305,-11.103300546581671,-2.355929451146896,-1.5726645508688688,1.088404965749855,-1.5950153212426668,3.355427906975489,3.2822913402421237,1.5384386673633472,-0.013051186867871633,-3.8759214686453967,-1.0316792603311675,-1.4865152866307871
31,-5.515045098021703,-4.902142199263343,-9.99485596587505,-2.3040756531458237,-1.65237145840672,1.3105127607854383,-1.7529598898652798,4.242922477635723,3.33430538737749,2.6469759758999793,0.5000658076732293,-2.5447025228218085,0.20734013263516574,-0.1832817594903426
32,-3.580186945533563,-4.495191959348924,-8.291266968756783,-2.0900398542007532,-1.5640370422047456,1.494567903713126,-1.8100382118255505,4.729624896531123,3.1518376637591827,3.5708026391956755,0.968636905074435,-1.2253884623977156,1.4333557457157053,1.1447109533341173
33,-1.530764108484331,-3.794714498858288,-6.180103246120255,-1.7517967681012308,-1.3222138042644813,1.6097754624302105,-1.7808092701081566,4.772486930663058,2.746073861224541,4.191419784143026,1.2994859710591957,-0.07452183721895968,2.471160771086508,2.317844865694031
34,0.41017172959895914,-2.881797205559008,-3.8617788375146205,-1.3348326052882218,-0.9579058560789236,1.6270474356011186,-1.6813228235915745,4.374127539252744,2.14600405403054,4.418644670695955,1.417101981626995,0.7900561372958845,3.170659595738928,3.1769107909360037
35,2.050645096017733,-1.8501353256008002,-1.5288793054935195,-0.8866754545852504,-0.5150629207469477,1.5236155361062824,-1.5261009269721797,3.582133898067495,1.3958153190035043,4.2020031770790895,1.2744601438406422,1.3016198923854372,3.42613524990119,3.6030594280641375
36,3.2498664203755876,-0.7966314713597391,0.6512292117864583,-0.45162269831196805,-0.045539132427131535,1.2872546619846117,-1.3261111712463725,2.4834877625176577,0.5510603392870418,3.537987523254181,0.8603003074234462,1.4497788719365547,3.189711748660068,3.532554619458049
37,3.930956640703287,0.18793015571120383,2.5488339198924677,-0.0662528388525401,0.39690146065365545,0.9195299618445838,-1.0879432041462958,1.194811172475562,-0.3260008488707283,2.4721898755853076,0.201841965171479,1.2781225936280272,2.477309140847528,2.9644879679908183
38,4.085106739805487,1.027219905722844,4.0784481225772815,0.24380663538063485,0.7628132346505466,0.43755320684574867,-0.8141922017015835,-0.15042611695626457,-1.1714598251016108,1.0958707589215702,-0.6375331246651972,0.8748628825568907,1.3663656165396847,1.9605212967957322
39,3.767133161441251,1.6658944278940246,5.19943902744985,0.4655506031258395,1.0127692868584193,-0.12612684075256134,-0.5048767812506656,-1.4162871267630652,-1.9248015541206582,-0.46284263253173924,-1.565461146765244,0.3578923782273956,-0.01432595251504294,0.6367538299506269
40,3.0834835281566293,2.0736935439081585,5.911390633749572,0.5986006087907787,1.121832409047906,-0.7256744853179605,-0.15958949433724606,-2.478746546436577,-2.5335443743988537,-2.0522769406526264,-2.4718206272050764,-0.14366620296189841,-1.5012881206107098,-0.8511670117329343
41,2.1746534696328825,2.2467255079595487,6.245497062061979,0.6536420417069999,1.0822493144078924,-1.3060839456480389,0.22000213760667023,-3.238513652006382,-2.9571407589276233,-3.513606029481726,-3.242609233621582,-0.5089465140521717,-2.917302657512035,-2.327695355426106
42,1.1945824236472025,2.205863608408514,6.253677123614272,0.6495826100618102,0.9040437497363624,-1.8089202099744883,0.6277206671852327,-3.6309418752337783,-3.16985702514314,-4.69842437961964,-3.774671184858414,-0.6432857337926995,-4.093837363900308,-3.6191926699259036
43,0.28983417128776245,1.9924919837988002,5.997233771940285,0.6098683737518118,0.6134459289244024,-2.179085498818782,1.0509198030336908,-3.632004030407288,-3.1624171990797123,-5.485385797229831,-3.9893000857385412,-0.49227050094586977,-4.8919877206844555,-4.575034376297479
44,-0.41877747061110554,1.662134939884917,5.536747338884313,0.558483645045294,0.24936661590288528,-2.371808790466521,1.4693673310745623,-3.2597560977182014,-2.9422824160900065,-5.793847375016345,-3.842847504303455,-0.05003008797655359,-5.2191975398523525,-5.085307639580422
45,-0.8499416063712455,1.276748708349203,4.924524766935469,0.5161831481361324,-0.14162497134820315,-2.3589393183961547,1.8552575191863285,-2.5712178589444483,-2.532547736788758,-5.592799718567433,-3.3328507492185806,0.6393251885245056,-5.03963221775024,-5.09291049344005
46,-0.9695389633329374,0.896616116207642,4.20039757788978,0.49745653718088473,-0.5111620073773772,-2.1336257096162097,2.174531603280743,-1.6551068380529683,-1.9695686421529335,-4.903955225217864,-2.4988071493017174,1.4873263491726925,-4.376977114852248,-4.598676984037368
47,-0.7916918835281355,0.5728362026232383,3.39105754957398,0.5086121708680723,-0.8150101051821322,-1.7125985008691622,2.3895472857938613,-0.6213123484484903,-1.2995640212361528,-3.798628981035296,-1.4174805950215732,2.373104263448399,-3.3094959138854696,-3.659140362401091
48,-0.37348511080994073,0.3413262468959833,2.5125333117037205,0.547202091694832,-1.0182952519447663,-1.1355442424468352,2.4629745764519426,0.4116618578912804,-0.5745575823174188,-2.3888740352864817,-0.19341507019060644,3.160110284914813,-1.9582602616769806,-2.377561247903055
49,0.1955472522442118,0.21905555943083127,1.5749278552303607,0.602815375333573,-1.099370978665416,-0.461436873227728,2.362613644949108,1.3298610663493162,0.15191161065711206,-0.8140992253347737,1.053978282551495,3.7153672996540283,-0.4703947257552435,-0.8897392891645912
50,0.8074825546623003,0.20293507108712722,0.5882251666132562,0.6590727765882708,-1.051873074955576,0.2378778977563289,2.066648786287107,2.0361924789098085,0.8288794140089742,0.775021441807453,2.204918915410057,3.928648163774405,1.0001751962933876,0.653241324084008
51,1.3516035720853112,0.2714392160777756,-0.4321231252575827,0.6964938611757856,-0.884773273771336,0.886135563384314,1.5686983621175368,2.4605657509640473,1.411494079010937,2.233239817010014,3.1533213537941074,3.7289570414001454,2.311731651595351,2.1029043296236947
52,1.7294684762844472,0.38868657159356357,-1.4609979885341704,0.6958016078914872,-0.620518837414437,1.4121001294651179,0.8819226267446197,2.5668187442622923,1.8637792160321907,3.435939341203995,3.818551023125952,3.0960308248272157,3.350958068884747,3.329585357278283
53,1.8676204418252103,0.5103966417488006,-2.461660719295629,0.6411882170053856,-0.291593747133,1.7587596945076736,0.04143475334250806,2.355767425734196,2.1605461018481873,4.291087676851839,4.153415146520215,2.0652369088943012,4.044288398292516,4.235053133438205
54,1.7265262932981864,0.5909072660368817,-3.3864821078505565,0.5230885041196486,0.06397161196101782,1.8909866782400588,-0.8956537843719655,1.8641512432706007,2.288494230422582,4.746706773138783,4.147540426255358,0.725125021054176,4.363189621216561,4.760312967257974
55,1.3048880150937203,0.5903077663313416,-4.180314376422465,0.3400867685088844,0.4075036317431105,1.8005265688601833,-1.8530180012752087,1.159680665293616,2.24659589184888,4.79329129662319,3.8259784577791995,-0.7921285150129694,4.323088664760639,4.888117440010775
56,0.6390752316016837,0.48073341920343293,-4.786021743623945,0.09970799889374238,0.7043419155463336,1.5075072499253954,-2.7408737827019016,0.3327917348465092,2.045856674628734,4.4612871858137,3.2435431992435957,-2.32619670270731,3.9765709057119674,4.640447863057495
57,-0.20199161195371315,0.25097868591023964,-5.15133241382552,-0.1820016723542585,0.9276582349048681,1.0581330899706765,-3.4644200537644294,-0.5139589440719368,1.708498349886697,3.814349646700977,2.475930473290995,-3.708017939510546,3.4022463676423707,4.0718476088584525
58,-1.1256800142758052,-0.09119331953932316,-5.235964560873651,-0.48203842409987174,1.0609929263415634,0.518775238106452,-3.9342275874911143,-1.2776922641325112,1.2665539782664683,2.939557941337276,1.6090305492970414,-4.780641680150585,2.691201160859864,3.2599152993785907
59,-2.0270110939983157,-0.5193647882254476,-5.0179372597903065,-0.7729339856242352,1.0992631561050443,-0.03279736102496919,-4.077418769268413,-1.866913712824948,0.7598276656006995,1.9360253220725323,0.7279860587324697,-5.418796943359572,1.933166694418365,2.2944670951051087
60,-2.801146746658207,-0.9913704873454098,-4.498099827091988,-1.0258505368460384,1.0482216872871883,-0.5178733216600201,-3.8482001284599088,-2.2118564731963786,0.23317727043559835,0.9033947887706715,-0.09253229384773552,-5.544640605789175,1.2044359879661022,1.266854102223908
61,-3.355547916096688,-1.4544168721722353,-3.7021698873432225,-1.2138808498408458,0.9225616156355576,-0.8675139762793034,-3.236227090524437,-2.2723276619657415,-0.26685834745855586,-0.06842453425934311,-0.7956318728982763,-5.137641881055664,0.5591683720729916,0.2607055520777699
62,-3.620465481255951,-1.851729898789864,-2.6799183716131503,-1.3151424716435056,0.7430401278054969,-1.0320579571523452,-2.2714308552405926,-2.0421814060816916,-0.6959474881061954,-0.9072101931304924,-1.3463020367186278,-4.237328346960115,0.02512009777894268,-0.6549875817455194
63,-3.5566717274867488,-2.1298448076717458,-1.5015302921745728,-1.3152968246579992,0.5331057726021204,-0.9881095804990151,-1.0243129978885006,-1.5498943773482965,-1.0160804229594527,-1.5633859800928582,-1.7320342036903074,-2.938559516418555,-0.3958887838721618,-1.429970900319388
64,-3.1596879866233087,-2.2455783487848526,-0.2515521520152781,-1.2092173053269093,0.3155439758101292,-0.7420482473977577,0.3987302807079478,-0.8551415921187343,-1.1994872022217602,-2.011749252450608,-1.960200498705307,-1.3799840521672142,-0.7232072706086905,-2.0339822547967534
65,-2.4601702344201133,-2.1717887428838587,0.9788435704495122,-1.001656587722441,0.10960647711819822,-0.32956476961963493,1.8648312919326997,-0.0417290316747038,-1.2318612228173513,-2.2501718933149086,-2.052908119408529,0.2727608424679006,-0.9893802734120627,-2.4555396740439366
66,-1.5205315893145765,-1.901210952862177,2.1003392585479665,-0.706895746571689,-0.07102043633324112,0.18874114024803829,3.227930777705042,0.7923149950128312,-1.1144113436444332,-2.2958665342868247,-2.0403987174724296,1.846867673775858,-1.2305333959689169,-2.6989193948217256
67,-0.4282625148558864,-1.4479161520904722,3.0336995691560387,-0.3474704497379239,-0.21920069694011213,0.7351507078617922,4.344454076228784,1.546320938945216,-0.8643831469718922,-2.180077746830771,-1.9542294627098817,3.1825970380435096,-1.4768822390869358,-2.780110561487841
68,0.7132804081793723,-0.8462422512777213,3.7168358437969777,0.04785396413953202,-0.3342351577998991,1.225012103278939,5.089541213448596,2.128840107023567,-0.5138784007660954,-1.9421670939599749,-1.821422276105764,4.151356547353318,-1.7450337944817014,-2.7225069122527503
69,1.7956278840732027,-0.14734243458045024,4.110007605138036,0.44664649051221295,-0.42074800509630106,1.578025074111464,5.371854122249207,2.4683627528471783,-0.10701263527168832,-1.6240003737130122,-1.6605113194747654,4.669419477802124,-2.033370660962027,-2.552949114685289
70,2.7163817701327186,0.5862249058996789,4.198736013978426,0.815684132407783,-0.486800024939982,1.7291906077099632,5.145115155683827,2.521630170589235,0.3043625883061147,-1.2653403754283503,-1.480012084479588,4.705745791239481,-2.321233675840101,-2.2985208311235397
71,3.389689290214521,1.2872131317728723,3.994283037521829,1.1238959254784326,-0.5415578842052203,1.6380371882727955,4.4149032831661605,2.2786059947570987,0.6660064851101077,-0.900654306504287,-1.27936293179702,4.283199102772467,-2.5719569527791766,-1.9842852422645612
72,3.7549341218292525,1.8909058303580746,3.531788229890467,1.3451297792867545,-0.5929132499561905,1.2949454478791522,3.2397886358043357,1.7636012849818998,0.9272396945520206,-0.5574303786703637,-1.0519415040047657,3.473322078962749,-2.73917516481541,-1.6319682924167527
73,3.7827374761366683,2.3419753257063154,2.866336449923323,1.4604937609754103,-0.6454594640228498,0.723733375794855,1.7265435210948286,1.0325068093094136,1.0469547129957193,-0.25582476498227325,-0.789408584966796,2.3856232377352984,-2.7753089919681977,-1.2594682570770515
74,3.4776301389657562,2.6001736736865633,2.067363566107522,1.4600423097413249,-0.6991843852051998,-0.019907177792387924,0.019848424031369008,0.16651174601670915,0.9990727988429989,-0.009268837824739026,-0.48642850288140366,1.1529510463338606,-2.640803558604277,-0.8809968585424711
75,2.877111902749305,2.64421073016144,1.2119108752932501,1.343628547969139,-0.7491227823298963,-0.8540572112353921,-1.71245535916262,-0.7369582633993089,0.7767886288687169,0.1744262253806657,-0.14477717800188752,-0.08507135431659277,-2.312580279012564,-0.5076241918248567
76,2.0472221138658577,2.473425541519987,0.3773226109796827,1.1208301152873419,-0.7860431237032369,-1.6797567133616347,-3.2969896392366365,-1.5750867100730441,0.39495726570829626,0.29192569668520485,0.2240291080991145,-1.198434308831619,-1.790272520976898,-0.147997764001152
77,1.0751499050794684,2.107160805444443,-0.36596010815008095,0.8099668213289154,-0.7980520486493817,-2.392750407410076,-4.573402051221168,-2.2511325376719795,-0.10991316494418651,0.34355582107827276,0.5981925034270646,-2.080951951661273,-1.0991327852535768,0.19096982304386925
78,0.0597541168683565,1.5820528359337374,-0.9608384393724553,0.43634000318474586,-0.7728263699874803,-2.896466640558029,-5.411782829153675,-2.685295667768968,-0.6823757554103727,0.33302593110059836,0.9474277470212941,-2.6606532346267304,-0.28898546580644713,0.5035999808968532
79,-0.8989128261252606,0.947696880513774,-1.368603230420318,0.02991002060902765,-0.7000661960872153,-3.114688359591022,-5.726948426035597,-2.8238177296042823,-1.253449733019413,0.2676980224359197,1.2369218385986638,-2.905277313281103,0.5708018185902362,0.7852146028419326
80,-1.7099088153898139,0.26130000721899477,-1.5720863526531577,-0.3773259826244961,-0.5737281517639081,-3.0023245971314867,-5.487943824228241,-2.645328437598131,-1.748307954022055,0.15920652157208798,1.4328712114608022,-2.822499838927495,1.3997202722845257,1.0321578085449945
81,-2.300444528728626,-0.4180235197274421,-1.576601868040966,-0.7539910451263033,-0.39364876083708344,-2.5528231371480494,-4.721654868371537,-2.1637267314589668,-2.095450150597364,0.02405771494094026,1.5086584972018982,-2.455258050305255,2.116710848741595,1.241967161322319
82,-2.6227795231318543,-1.0347140515780329,-1.4085983556879624,-1.071786478024702,-0.16628950429595893,-1.8010835781744963,-3.510091113103127,-1.4272415559842633,-2.236251251383341,-0.11625655079698592,1.4505222204084152,-1.873203909258698,2.6513429598444804,1.4135198747552424
83,-2.6583681670308206,-1.541503391788224,-1.1121857429806081,-1.3075690364935102,0.09550292388152008,-0.8212188584208117,-1.9816132173878727,-0.513711876891684,-2.133597579481193,-0.23607601485792948,1.261566348777717,-1.1617828852664855,2.953811323480859,1.5469644348219902
84,-2.4189580530895176,-1.9030851126391064,-0.7439097512617882,-1.4449221033615263,0.373661451367724,0.2808684718425109,-0.2970525796198325,0.47748164945375,-1.77832844528437,-0.30761351207784937,0.963180431450088,-0.4106335855336857,3.002112150523292,1.643303517361546
85,-1.9446363728915943,-2.0985085157100842,-0.3663010840985507,-1.4751478395370123,0.6467906327880385,1.3794476066174175,1.3677657412267208,1.4360449445672052,-1.192405607091217,-0.3042468165578199,0.5933711447911287,0.2970881185396052,2.8051835405739225,1.7036117481522572
86,-1.2990797883351093,-2.122196016633452,-0.040820993737728024,-1.3976506343047526,0.89249725024021,2.3441524117291035,2.8411842656868664,2.2528793689601527,-0.42812481414947046,-0.20475426693394208,0.2020648741619494,0.8931918599032568,2.401442250500114,1.7280169608469376
87,-0.5624869629854219,-1.9835733570337082,0.17913285734926274,-1.219718320888868,1.0898341391985378,3.056561374480015,3.974442898280866,2.8323934858761333,0.4367883369297609,0.0021325552457709188,-0.15598284599254725,1.3299615573833112,1.8529045786842393,1.714699224466772
88,0.1771374547515657,-1.705383263122743,0.254497367342637,-0.955740279242067,1.2215454634203726,3.4259968567535655,4.657882467786862,3.103662645314606,1.307772026816376,0.31371041390695664,-0.4295575479994038,1.5824433488621212,1.2358079141896827,1.6592271139008565
89,0.8335238695174474,-1.320841301144403,0.16546715661284037,-0.6259343777240288,1.2758546416957972,3.4023434360649523,4.832780423562562,3.0291459560153586,2.0847356767206504,0.710733660136905,-0.5792393718855353,1.647749423430389,0.6292226982201243,1.5545314104738184
90,1.3315705786049477,-0.8698966517417221,-0.08547913420274175,-0.25468859941085376,1.2476133104622718,2.9839782329131177,4.497445680738649,2.609881430515073,2.6746719228937237,1.1570710502218498,-0.5841145214411624,1.5419768639236873,0.10346296088813219,1.3917097974648853
91,1.615689907180711,-0.394971835239756,-0.4728777604938062,0.13134497540638285,1.1387170920906171,2.2195045946490484,3.7068375738148727,1.886423791998689,3.003908611174288,1.6020518680012912,-0.4457527731649666,1.2955450157042854,-0.28988414045091115,1.1616820893964195
92,1.6561311715298692,0.06335261406483417,-0.9501569716062604,0.5052424112231183,0.9577808336247439,1.202806785761474,2.565711204380132,0.9352367777234742,3.028301235598748,1.9855137628510178,-0.18871135951330925,0.9478000010492066,-0.5247784827723881,0.8575131449499699
93,1.4524926139710754,0.4702033322104319,-1.4541115472081432,0.8417167007228767,0.7191444087177762,0.061875771487884014,1.216043294726747,-0.13923674418553558,2.7398684246222387,2.245069788301383,0.14259109540857087,0.5416503504431505,-0.6033971275562199,0.4770382840492391
94,1.0338983181303387,0.799363363378432,-1.91170834854186,1.1187876926533364,0.4413460437920527,-1.0572477052301765,-0.17982908277495518,-1.2160771355910927,2.1688010710905443,2.324671087556728,0.4901844647269876,0.11883260527151418,-0.5543282493451958,0.025309363950977663
95,0.45568449960612395,1.0349647297478617,-2.248640488711269,1.319096471020039,0.14525213802161868,-2.0093450636894694,-1.4584008487245497,-2.1717322614646606,1.3803851132573035,2.1832443709542306,0.791083214120236,-0.2837897418478706,-0.42666011969826795,-0.48364170013671154
96,-0.2071259408679252,1.1717768402745832,-2.398744623393018,1.4308023035487074,-0.14793377644214542,-2.66920318897976,-2.4742637089249953,-2.8946072871771835,0.467090704544637,1.8020877268868287,0.9867523963196921,-0.6366830371911689,-0.28094975977154313,-1.0261471938345632
97,-0.8688448822859585,1.2141659621985224,-2.3131651066127294,1.448055598594755,-0.41855398152026513,-2.9485194391056946,-3.117147237331856,-3.298619719989126,-0.46320671043662864,1.1898305901867696,1.0320831102521473,-0.9188200981547665,-0.17850215604690428,-1.5696218946362157
98,-1.443554884875084,1.1740068174039262,-1.9680479412154568,1.3710827313511076,-0.6500691909842748,-2.8082119110717496,-3.324679929306857,-3.3339841095414853,-1.3013068185529868,0.38408028370195824,0.9025511358524136,-1.1176926872321689,-0.17061603005472317,-2.074710687587715
99,-1.8556480088997818,1.0679757301453592,-1.3696156358443357,1.2059420606561604,-0.8301739595755436,-2.2644093671920626,-3.089308264454615,-2.993776508195419,-1.9511119576595408,-0.550668678218396,0.5985157753957187,-1.2283987883724181,-0.28943417794624404,-2.498692712658299
100,-2.049107758945181,0.9147176549955576,-0.5557245177772013,0.9640141358848779,-0.9513803306484309,-1.3872223191709634,-2.458506139850561,-2.315328583837946,-2.342345295536431,-1.528773775647997,0.1460344401915923,-1.2521305573058934,-0.5417890696010245,-2.799765786604905
101,-1.994326111615032,0.7323462304228181,0.4065776624365727,0.6612759099915013,-1.0110714090505237,-0.2923502686501218,-1.5282207368717264,-1.37615232942159,-2.439713173571735,-2.4522502980052274,-0.40594219428853634,-1.1944311128763256,-0.9070000787001008,-2.941695254410301
102,-1.6915816637734833,0.5366181462581198,1.4274430288161966,0.31738688881536764,-1.0110943751839918,0.8734665077371349,-0.4303349791974398,-0.284809785330096,-2.2471600773803426,-3.22164825749893,-0.9916318319717005,-1.0635764108253594,-1.339014754458699,-2.898255883254495
103,-1.170767494925431,0.3399515277506416,2.4039410371429586,-0.04540328019453746,-0.9570110133205174,1.9513167908174742,0.684322880483147,0.8321818521305496,-1.806573250054287,-3.7477116230341103,-1.536928675923391,-0.8693677083292868,-1.772659923631781,-2.6569209986201985
104,-0.48747221348548636,0.1512729122673308,3.2319608151984083,-0.4035201176591645,-0.857146442358031,2.790888549576177,1.6653190669007114,1.845775924490439,-1.1911153493833913,-3.962389028367341,-1.969207381211714,-0.6224994996256651,-2.133158576939472,-2.221344388268121
105,0.28399559404351965,-0.023481287507143612,3.8187818099774806,-0.73348083358988,-0.7215734574201773,3.270443198327309,2.3818772617209283,2.640185448915334,-0.49417721886993066,-3.827795333078504,-2.2270881700071823,-0.33451999295740853,-2.3475628882852564,-1.6123187595441535
106,1.0596625893896068,-0.18048272588847336,4.094635234443084,-1.0134078515609102,-0.5611470039377827,3.313366857922377,2.73961165931601,3.1269952693474337,0.18438233237792956,-3.341929590520628,-2.2688283495283006,-0.01825421999227094,-2.356431523005379,-0.8670587720007129
107,1.7558155368692006,-0.31704757473347905,4.021669289973861,-1.224547479950764,-0.38667029909054024,2.899075089745227,2.6925591471796446,3.2557599583967405,0.7526258140844753,-2.540319652752598,-2.0781898107292367,0.31155980336961964,-2.1239953427655878,-0.036824946042705885
108,2.29853249159496,-0.430847681331275,3.5990654587121393,-1.3526729530775046,-0.20823991413469406,2.066741030056587,2.248908030949104,3.0197061383670514,1.1393876559998903,-1.493250064478508,-1.6669769434329003,0.6377407530140111,-1.645231222554386,0.8169405426966025
109,2.631679664733153,-0.5194641149274999,2.86358038773757,-1.3892401628002828,-0.034787481524357754,0.9112229008389678,1.469616859658774,2.4558077488327763,1.3036810705361894,-0.29878233058400683,-1.0738991000469955,0.940561227359326,-0.9486825256980422,1.627662772092485
110,2.7225017816294734,-0.5803430853754478,1.8854258993281479,-1.3321730347741019,0.12618738213098654,-0.4284201887103888,0.46004913153534677,1.6392616698278384,1.2393189100833613,0.9276778025361977,-0.3599206217329925,1.1983272439278483,-0.09447072675813206,2.3294557443532002
111,2.564298873856054,-0.6111103598716158,0.7600503039795254,-1.1861797149294355,0.2687155886333345,-1.7864406116486997,-0.6443014792284968,0.6731564435226455,0.9741757406374213,2.066051814875398,0.39925727023808605,1.388768355620521,0.8323535435395973,2.863220573653212
112,2.176082820376585,-0.6101192780043362,-0.4030528174444586,-0.9625366878264303,0.3883241541479399,-2.991715346244573,-1.6960897575467369,-0.3252121872055375,0.5643686701788752,3.004978692710682,1.1225561000537816,1.491200632114573,1.7322759890286412,3.1824660530501583
113,1.5994783680008557,-0.5770640653458717,-1.492994637239261,-0.6783249240984519,0.4819132492264513,-3.890062523248274,-2.555911443001316,-1.2394715787641946,0.08442540425392193,3.6542948908695236,1.7334626675136953,1.4892435141854485,2.5041720085713983,3.2582697999099426
114,0.8934227707906822,-0.513490655857337,-2.409932476156619,-0.35515829413650885,0.547592064198379,-4.364561079580589,-3.1108805448099695,-1.9686689963257626,-0.38489098997322646,3.9550746779518886,2.169240547346302,1.373704646630063,3.058733579205013,3.082809880542298
115,0.12739716383176491,-0.4230751522777914,-3.0757306880558337,-0.017501149872571908,0.5845170575339286,-4.351081357133617,-3.289416990788706,-2.439193417097583,-0.7691164410399909,3.8859967547220267,2.388221162547802,1.1451280189054494,3.330533624777403,2.6709667437364923
116,-0.6260091049480127,-0.3115992840717476,-3.441584577348102,0.30928329095144663,0.592767146762213,-3.846841310546127,-3.0702049641393754,-2.612603881314959,-1.0110131075498978,3.4652582433265935,2.374269693374493,0.8154623869369533,3.286964243427577,2.0596437421593485
117,-1.2984235852402743,-0.1866159466523303,-3.491822931807986,0.6009867142158858,0.5732780875099043,-2.9107398795556625,-2.484123308915577,-2.488482606873369,-1.0782644265776398,2.7478156748927938,2.1379220784573607,0.4083706766373617,2.9327326893121994,1.3046852902141413
118,-1.8322156785771817,-0.05685379773992048,-3.2436517792293866,0.8365378384426911,0.5278430590380419,-1.6553652294587533,-1.60897236834644,-2.102175587096059,-0.9669122238821575,1.818321142303417,1.7141460191814366,-0.042128465600623034,2.309253787974941,0.4755644532839134
119,-2.1856574226323287,0.06855058733950356,-2.743138505328943,0.9997466754191633,0.45916814261514954,-0.2317684466419569,-0.5578703660457418,-1.5180136704371716,-0.7002535558282459,0.7806646234457141,1.1571285206634563,-0.4947340513669011,1.4890389633741452,-0.35167189422835954
120,-2.3363013427798407,0.18088624633009165,-2.0581862210515256,1.080662141028798,0.3709514501172256,1.1908486641592932,0.5368965690038133,-0.8192079839653791,-0.3236614234817179,-0.2545360367169933,0.5328791225234116,-0.9053837341829071,0.5659329168039097,-1.1024233808771693
121,-2.2823173395180003,0.2726622149698877,-1.2695602678959497,1.0764179077152118,0.2679371899753101,2.4476295155937566,1.5421561772569314,-0.09600013861035062,0.10359078522988842,-1.1828940399102257,-0.08928870031666754,-1.232649080874177,-0.3573328776715814,-1.7115439528585248
122,-2.0417105515850773,0.33827325293721877,-0.46117681596163174,0.9914701837473728,0.15588651981259147,3.399519124799525,2.341595408038303,0.5662207903662344,0.5180319694018548,-1.9180073343368398,-0.6452177841753964,-1.4432051916137139,-1.1824224102190188,-2.130301290958077
123,-1.6495403586976438,0.3744686221784951,0.2891517119743558,0.8371682393395588,0.04141079653426713,3.9506304901020775,2.8504569716322554,1.0972418780640547,0.861633910026233,-2.4005312385107667,-1.0831890562004225,-1.5164869337729243,-1.8275922864012546,-2.3313642368910035
124,-1.1534638539387525,0.3805791830756681,0.9174776179736225,0.6306499151222552,-0.06836749548529798,4.059116811248494,3.025206270638793,1.4495280908377408,1.0899411172169537,-2.6034824470997484,-1.3691320575464037,-1.4477243449965322,-2.2371187831776687,-2.3111620148302983
125,-0.6081112722607921,0.3584840209443977,1.3792154939369337,0.3931235652550256,-0.16632677159422452,3.740162364665726,2.8670031628840125,1.602117694557934,1.1775921496695259,-2.5332288570902337,-1.4892210212302237,-1.2487893268791228,-2.3867586708883657,-2.08933001407599
126,-0.06893767975441499,0.31232619827856345,1.6519411517811444,0.14768056535323001,-0.24598980030811127,3.060925197255046,2.4187778346586133,1.5606787362227847,1.120618348546031,-2.226231087795468,-1.4497168132296223,-0.9466414248004705,-2.284691373167714,-1.7053641509444089
127,0.4137405572219057,0.2480154444765642,1.7354139664956203,-0.08313499840182777,-0.3022166646245167,2.1284877798475317,1.7566690187948009,1.3540415421967347,0.9354345606197897,-1.742187487626447,-1.2743007195286455,-0.579566737234938,-1.9680749365699894,-1.2129854870667107
