,AF3,F7,F3,FC5,T7,P7,O1,O2,P8,T8,FC6,F4,F8,AF4
0,-0.5535240415443625,-0.17583739564978693,-1.0062353127352563,-0.3510582289234103,-0.3536618908858634,-0.2992937554641737,-0.5568013536965563,-0.48903476412769686,-0.3340151140239856,-0.05683592238438371,0.13884099269323055,-1.0700665300174217,-0.6246587411710653,-0.36433193889823934
1,-1.0916468758320348,0.5963576744716348,-0.9100363885022332,0.0600950977489852,-0.7221177156855625,0.09522525329692938,0.26153296676321625,0.2242642230603456,-1.5175185152394668,-2.195706128592043,-2.138940904156921,-0.7602861015646978,-1.9934401154665131,0.45663173555431597
2,-1.5806563720778457,1.3228746656192358,-0.8266507695723775,0.4543106188821747,-1.0181573873379115,0.43991514222013806,1.0115902821018514,0.8941839427792356,-2.5677773929915464,-4.130769098094627,-4.225001130276896,-0.479627192352636,-3.1769062518582554,1.2101563703916074
3,-1.9902892611070186,1.9623103058636024,-0.8073507942982937,0.8053424122312207,-1.1932889828834412,0.6750889201131568,1.6185598519997297,1.4697176528877756,-3.390811143570171,-5.682608331768082,-5.930800319287759,-0.27282125382328626,-4.049570709286261,1.8172866604455344
4,-2.2961919702619746,2.4779113417585967,-0.8874458332788662,1.0890253087820359,-1.2171269071005353,0.7555174419724225,2.0240435646568162,1.9089544859735292,-3.918769807484499,-6.71612849414473,-7.11031263632973,-0.16960309809628782,-4.524551541016496,2.215511891150466
5,-2.4792024485470825,2.8414941119356554,-1.0777426666613896,1.2864658269018345,-1.081309748922017,0.6572648388496553,2.193434122398053,2.1829953457151587,-4.1170935280538,-7.154290674370477,-7.6739787750390605,-0.17875857280925958,-4.562403406701592,2.367101683600373
6,-2.5243703482901356,3.0367789185407514,-1.3599249856620663,1.3868766656876816,-0.8000500127814254,0.381881681997988,2.120627521650622,2.278865433398877,-3.986852209239313,-6.984114868209139,-7.595578333094872,-0.2852275326611666,-4.173297130049723,2.2643864067690624
7,-2.420265163550785,3.0615436121858663,-1.686821142261832,1.3895433449317802,-0.4073497676020862,-0.04267721150135457,1.8293247482325756,2.201018977391771,-3.5621331650013195,-6.254506339373636,-6.911547682834909,-0.4509373982966139,-3.4125982819884757,1.9312041223103382
8,-2.1590101652924596,2.9281495643082485,-1.9877793575143068,1.3045268373146675,0.048584186312653856,-0.5646253973212623,1.3705749402012275,1.9711036820233825,-2.9031707911316733,-5.066651550564006,-5.713288095558454,-0.6195118096212681,-2.3708871571723527,1.4202470636591378
9,-1.737273749639191,2.662219499984694,-2.1785721223933683,1.1518826316863677,0.5127813716190475,-1.1141749391507312,0.8166826466507721,1.6258008880190322,-2.0865773300318144,-3.5587441724853437,-4.133884850753342,-0.7244076435501371,-1.1602402893465567,0.8065805019992627
10,-1.1581906615582063,2.299516803483055,-2.1745272740024504,0.9593873955256231,0.9316000071882288,-1.611971902929383,0.2520875656744768,1.2127773124423664,-1.1944206873154135,-1.887494037990836,-2.3312750904000734,-0.6994720182470774,0.10095719176244747,0.17810821095018475
11,-0.43392239139824335,1.8813500088758444,-1.905040678006203,0.7589812041846261,1.2601951178540414,-1.9791445691415541,-0.23773746374654556,0.7850525239231335,-0.3039477503167237,-0.20915351219324935,-0.47019325803815204,-0.4904724906478407,1.3023331933354714,-0.3758370656769934
12,0.41165287993198385,1.4490632143949904,-1.327346224077335,0.5823291310952744,1.4682174056448598,-2.1477485891357353,-0.577997563116168,0.39436102218141594,0.5205173015623625,1.3373513289822547,1.2948256511656628,-0.06591502627906959,2.3529579716754516,-0.7763403225676845
13,1.3407672897638636,1.0383411177999413,-0.4374426922995034,0.4560578589437979,1.542910857046232,-2.0703126316534157,-0.715357877045665,0.08431666513565012,1.2324875881750361,2.6431244990853227,2.8334596885455343,0.5745347696277965,3.188474603885994,-0.965666833176907
14,2.300787021088883,0.674136932866917,0.7236051607861056,0.3973142435703356,1.4892252523441813,-1.7272593410567605,-0.626286735567333,-0.11567922940706464,1.804681955718467,3.636582186663414,4.049294076156462,1.3954714633348275,3.7733445334847775,-0.9155209889804756
15,3.225036000091916,0.36701175166279504,2.0692127437175203,0.41031217043404505,1.3270719997976832,-1.1311927048771901,-0.32168231696681804,-0.1948438802633518,2.22714944873003,4.284992802823622,4.884579993791818,2.3260052690276267,4.098498376705748,-0.6316575817979326
16,4.0358417845487455,0.11155003911709732,3.4731613067232225,0.4844730214935907,1.0863416332872875,-0.32738314657197887,0.15307248656448008,-0.1629424764022582,2.5030033045686912,4.590863511907293,5.320174673318391,3.265238864399268,4.17545843053795,-0.1541242773996531
17,4.649953730243394,-0.1127097196899929,4.781504537438524,0.5946177793520253,0.8006821501555758,0.6097851547703398,0.722909272199196,-0.04925155717402407,2.642967405032018,4.584493380196492,5.371409046506799,4.092650112351613,4.0285397161435625,0.4470557663703396
18,4.986142514412262,-0.3377049974760679,5.829375169343319,0.7034370337179967,0.5012393224040399,1.5841552375162602,1.2923508885429977,0.101512898820719,2.6600331893969544,4.314454514677266,5.081066727890897,4.6823546866742545,3.686951067097219,1.080368635194839
19,4.974415322822227,-0.6008922631349743,6.460869413780918,0.7661651501571198,0.2115446157904693,2.4881955333796593,1.7582328955943598,0.2358928562213852,2.5653638451568446,3.8378583521874226,4.510855720215507,4.919598010259042,3.178477852156266,1.6445039404785047
20,4.5659212735253005,-0.937550620580658,6.549674742228006,0.7370498363041575,-0.05549703814924148,3.2153103716746863,2.024282834370444,0.3001460401165602,2.3662147041914996,3.212027743130548,3.7327113226449575,4.717384850457323,2.525970259517159,2.0418349259760515
21,3.742333232852941,-1.3723524992789424,6.017854848481377,0.5768843269143054,-0.2979814666204085,3.6726306579924843,2.0156099946681385,0.24925383341644675,2.066147900410745,2.488698497898852,2.8210259331661325,4.03097746683054,1.7471811069673282,2.1919661355129105
22,2.5233304065081765,-1.9114709318250385,4.850259010106455,0.26060791240036485,-0.5227271455326894,3.792733255058261,1.6910571143395918,0.055102288046337704,1.6673024933000784,1.7112265984258872,1.8465275361452014,2.868124458292107,0.8577292603316381,2.0435537241703754
23,0.9708179142320353,-2.536601165741719,3.1023938243357634,-0.21616844769689625,-0.740867317647796,3.5428081082078,1.0515546774406568,-0.2874893218300197,1.174036902464762,0.914610178341399,0.8721073874362616,1.293324034666925,-0.12374371146489754,1.5827612062518375
24,-0.8112658806232549,-3.202180518070173,0.9002605129082463,-0.832850272518844,-0.9622807468210124,2.93005258813397,0.14308800292837523,-0.7579452974737253,0.5969741819564076,0.1275807522157536,-0.04948813930477842,-0.5748682916190544,-1.1696708359826937,0.8370922205091307
25,-2.6822849456772717,-3.836774885120715,-1.568439491209929,-1.542719673130893,-1.1900968894557369,2.0024969986894314,-0.9464201800031948,-1.3109122251048522,-0.04359853738958985,-0.62432167367333,-0.8764721240529285,-2.5735973925101985,-2.2385822910554913,-0.1261013450395538
26,-4.4755220828190385,-4.349080067202212,-4.071288265168404,-2.275571115354809,-1.4165462303128624,0.8450033537349171,-2.0961904953266868,-1.881070682450772,-0.7158973785956808,-1.3158535498084811,-1.5778587773569388,-4.5117071858570315,-3.272615035378023,-1.2064690919016088
27,-6.013505109281691,-4.638313395340576,-6.354820220678596,-2.9442283642317015,-1.6212142958886577,-0.42923480979610334,-3.166680960354893,-2.391229632001756,-1.3770010004515845,-1.9203445065918445,-2.1328595189026593,-6.1902927892745145,-4.198644362593336,-2.2821996976992818
28,-7.126727407610026,-4.608030231164528,-8.172417952238934,-3.4544639442958887,-1.772325377413211,-1.690802371415689,-4.017017679311691,-2.762646230722835,-1.9756232048997178,-2.4097673267060014,-2.5302404465728325,-7.425440054104634,-4.933497808162193,-3.2249196288382644
29,-7.673773849184987,-4.1817026775875545,-9.313261066890737,-3.7172544080904606,-1.8310996536926474,-2.808425049465658,-4.523558803278236,-2.9261558118224924,-2.457078893560582,-2.7567367955437794,-2.767841352191987,-8.070385132180439,-5.392904398188126,-3.9161020992032807
30,-7.560379771502657,-3.3178718773181632,-9.62879078345799,-3.6618119483384053,-1.7586014777908403,-3.663912653977893,-4.597137159931668,-2.832540206325492,-2.769816281209346,-2.938071734506304,-2.8522212352499277,-8.034266605743245,-5.503034834991849,-4.262826860106471
31,-6.754770709095669,-2.0224502058827234,-9.05322371245764,-3.2475352045266543,-1.5239485285655894,-4.16589562323565,-4.196598149013378,-2.4606319249598267,-2.8725775459739356,-2.9391383752968245,-2.7981959533930048,-7.294948864703809,-5.21284955039998,-4.210702275317841
32,-5.296831007505866,-0.35588857842468646,-7.61518239240747,-2.4729966187131662,-1.112391605696496,-4.260671604796248,-3.3366510170217745,-1.8219398491021277,-2.7410822387151113,-2.757946293224428,-2.627927813942568,-5.904049308312039,-4.505120844021194,-3.752042634646313
33,-3.2992480355171883,1.566540111140607,-5.438475373258813,-1.3803628267020602,-0.5316797516478247,-3.9387964601241707,-2.0887441082196516,-0.9610503476222929,-2.3731313135272325,-2.407944165954994,-2.3692512349786505,-3.983239206354176,-3.4040186820417673,-2.927975344786983
34,-0.9397242804749438,3.5822066439030227,-2.7313585632225292,-0.054205476238452524,0.18467646853648037,-3.2365498271914475,-0.5745723390379859,0.04835977702770899,-1.7912100058507263,-1.9186720867382774,-2.0530756672134736,-1.7119988819870124,-1.977568426926919,-1.8239731398837666
35,1.5554734968285358,5.496090976077878,0.2349131875410013,1.3855717443710374,0.9781651785955532,-2.2320210925050614,1.047191440011778,1.111449867114272,-1.0420020974745754,-1.3338296964401928,-1.70996193151526,0.6918543069125069,-0.3340465419224138,-0.5592533017193291
36,3.9351160726462115,7.101821460894179,3.155976399293075,2.7961012186451466,1.7703218375007796,-1.03622305655989,2.5994143306474626,2.123080988595753,-0.19266698687034461,-0.7068322151244707,-1.3662578706760868,2.9965453602626995,1.3876497608576894,0.7285864211507227
37,5.95113573203606,8.206314944162274,5.729194845005989,4.027803832354016,2.4715961807765825,0.21973494288112458,3.907987377677716,2.9802099737252035,0.6757927778086061,-0.09444509652024283,-1.0404272210930454,4.982597268922795,3.0326124780888204,1.9015682308671287
38,7.387839431027397,8.654812674746765,7.689141012701955,4.942469455544724,2.9928832528116596,1.399877346212634,4.823526644002235,3.5941926829119035,1.4773060385114989,0.45049267929388953,-0.7403378173673855,6.467627135398494,4.447596811962609,2.8393899926910318
39,8.088432771428357,8.352831358879493,8.83918599349857,5.430752571008065,3.2580546760257403,2.3791441552300046,5.24044272311229,3.901397533511326,2.1305477511535433,0.8860152929883144,-0.46223661885532225,7.326506900363945,5.4992747557152235,3.454895983813142
40,7.975266069038638,7.281799881683328,9.075050870033635,5.426668862515221,3.2155852232700113,3.0577957898079156,5.1108218752949695,3.8707725266527877,2.5685160733114785,1.1864165253650738,-0.19190946417957366,7.504324445927408,6.090422130300998,3.704686434330753
41,7.060930186488789,5.505910875015768,8.39715589811215,4.917040507301868,2.847442170887534,3.372687205485923,4.45121199306746,3.5074332430188835,2.746604022007087,1.3451041766752199,0.09187074724395485,7.020561395802152,6.171672095927155,3.5933294134385654
42,5.448480635821866,3.1688736176720687,6.910051639017632,3.9445092414419634,2.1737774683953903,3.3040565357272396,3.3413266879204286,2.8518785048294575,2.648090235651447,1.3744058935737467,0.41198790554289233,5.964110712779008,5.747139819112225,3.170635428314777
43,3.3204917631433983,0.48063253426298286,4.80892474191224,2.6036117643760535,1.2525701188120446,2.8770398724346284,1.9147426967241945,1.975012197160242,2.2863161168823463,1.3023674663685882,0.7865641620839988,4.480008100400684,4.873165515455527,2.5225391299586573
44,0.9181333474750467,-2.30449792093373,2.3548948259284552,1.0303575531387785,0.1741074203738722,2.157782425415854,0.3427220368825115,0.969673565521913,1.7032587263500398,1.1671313444879445,1.2226562765287996,2.7498557971782893,3.6504673774607337,1.7571155805666376
45,-1.4871949628840393,-4.915642277342158,-0.15768835767529282,-0.6133739449288266,-0.9490492648484732,1.244683998179029,-1.1868044673848455,-0.060211141765052836,0.9646873543491145,1.0099120805950994,1.7113537240450545,0.9687114906577977,2.210960921002539,0.9879730952837295
46,-3.6261311661554343,-7.095656605861416,-2.437687527590284,-2.158615736633259,-1.9953135278489698,0.25590966049863484,-2.4924248583087416,-1.0114908481571714,0.15253665206530362,0.8678157173653598,2.225412322298405,-0.6784125938730273,0.70122949647409,0.3175972978345748
47,-5.263453533733187,-8.630106315187012,-4.2326382849367405,-3.448876914382031,-2.848782352471798,-0.6852597569887295,-3.4216640269109777,-1.793231451754622,-0.6445269547672065,0.7677408002532515,2.72015848102139,-2.0373884386090255,-0.7349845605528377,-0.17686960316550007
48,-6.225971745615776,-9.371318037701219,-5.358692145594013,-4.35802618102661,-3.4134552512678296,-1.4654220376436637,-3.8698043388824934,-2.336416550199921,-1.3411746282500916,0.7223582752460287,3.137828022985824,-3.0006239317525853,-1.9728972465235945,-0.45341079551912655
49,-6.422715643765369,-9.254569145752786,-5.721304984852745,-4.804300439903176,-3.625098612671026,-1.9945656451412495,-3.79275514022938,-2.6008573156999066,-1.864921584828962,0.7287533494132642,3.4148719107126184,-3.5158615947124767,-2.9193903825302416,-0.5092451885845047
50,-5.854936956552055,-8.304530354530018,-5.3242167806021135,-4.758787777077121,-3.4592243594354533,-2.216485441185135,-3.2123811761993526,-2.578642987286268,-2.1639965842643845,0.7698152123411277,3.4911924332056907,-3.5874976481851504,-3.520911832397206,-0.37894837948688836
51,-4.6147555221849315,-6.631346121987631,-4.265847649139353,-4.247471547153719,-2.9341827817476953,-2.114895275712455,-2.21365287006277,-2.2938963246732342,-2.212742665191581,0.8179801406542457,3.319875305601277,-3.270846219245459,-3.765940690444436,-0.12716804804571274
52,-2.872731319683073,-4.4170434153331515,-2.7238891119229343,-3.3467495606362996,-2.1090195623899914,-1.7145778056860101,-0.934003697325116,-1.79902390944588,-2.0140328915404004,0.8405574885744718,2.8758309070595605,-2.6606824016481796,-3.6821783537521204,0.16273258204890556
53,-0.8560352892898709,-1.894126117478133,-0.9303746542934972,-2.173150413252639,-1.0764260143288937,-1.077527339336728,0.4537572469712558,-1.168017988183272,-1.598526653881347,0.8056588359966991,2.1618840500414342,-1.8760428981066894,-3.329312449507639,0.402269864624319
54,1.1799566217486606,0.6809069678256509,0.8593276020085293,-0.8686564428018785,0.04827290602028292,-0.2946465577361368,1.7628479410451647,-0.48763744285907734,-1.0209186144644298,0.6877365740705226,1.2112390056581273,-1.0435705442699112,-2.788688884905655,0.5116434767396814
55,2.983055895557061,3.0558849551434886,2.399489851742297,0.41647156035906535,1.140675964350265,0.5259213099520357,2.815597430150462,0.1525467837986299,-0.353615526418034,0.4719073198260715,0.0858273331435034,-0.28164177699041,-2.1514662297385025,0.4318300720946882
56,4.3347574424604085,5.009815808309401,3.484752805243472,1.541240944236879,2.0817181488663556,1.2723664482055643,3.4654051698703543,0.6702091834770136,0.32149735816645214,0.1565363364796227,-1.1292867271116798,0.3128466492361827,-1.506815676152332,0.1334231056459132
57,5.076155543648227,6.3752756554188865,3.9748402971348953,2.389757149942628,2.7711982754969786,1.843040078663226,3.6149406443765697,0.9994445625552693,0.9223721544812278,-0.24608661134514326,-2.3346401324786727,0.67374453343249,-0.9315138276430354,-0.37877134013103325
58,5.126237411623477,7.054000875178467,3.810401540724429,2.883539347042309,3.1388480173502997,2.1588873898127785,3.22842940465878,1.0981945692135344,1.3762625181985457,-0.7108260462038238,-3.4269683509910314,0.7703733396434871,-0.4819301486118142,-1.0657464070075524
59,4.490492234904164,7.0242283388677675,3.0183424295514216,2.9890147854525373,3.15171600370954,2.173032572786768,2.3365950345135555,0.953230757195439,1.6283600536764338,-1.2021542698385268,-4.310156260885021,0.6077777229478886,-0.18901991238006494,-1.858677457979372
60,3.2589621456549973,6.33931869479417,1.706365657278927,2.719505433850769,2.8171151672054107,1.8764219184488748,1.033700269533037,0.5822024639501797,1.6486563262355194,-1.6775025216695592,-4.905068265286387,0.2231018809461864,-0.056562792740906316,-2.666939734328692
61,1.5941208777477123,5.118182102703463,0.047763755525115074,2.1316918439239583,2.1809204553538986,1.2989098929762906,-0.532947431851573,0.03248332475991311,1.4361954759050208,-2.0910572481482927,-5.157062337431429,-0.3209708120379676,-0.0625697904967893,-3.3886692794215767
62,-0.2898406071047091,3.5289057093432468,-1.7413542139938027,1.3171820548313196,1.321542706472781,0.5057142650517887,-2.179792004194726,-0.6232036989822642,1.0200857244642554,-2.3976577598632796,-5.040442910305023,-0.944634614624719,-0.16352299031442866,-3.922584616831399
63,-2.1537442782208043,1.7676737832704636,-3.4293958260467656,0.3903545928957137,0.34038258465412835,-0.4102949309184001,-3.708172196095865,-1.2941329242267492,0.4569361540348652,-2.5565902643040683,-4.559630010910098,-1.5601824206025503,-0.300908611595034,-4.179755071148192
64,-3.76290261109526,0.035511323609199764,-4.797739093093161,-0.5259745490918472,-0.650063334206536,-1.3395343517284162,-4.927364806786698,-1.881351500469469,-0.17523244037276622,-2.5351844460759203,-3.7473143120581938,-2.081125273335377,-0.4093479186539099,-4.0941062180238745
65,-4.915770683443412,-1.4844667972377368,-5.666862114813142,-1.3153268949818322,-1.5390474409871997,-2.168580203887121,-5.6768694598438545,-2.2890415579053625,-0.7861183415787323,-2.3121600091234855,-2.660243490678054,-2.430509621373824,-0.4255192871607385,-3.6306585222134378
66,-5.468320215919606,-2.6467637139624984,-5.917110372938894,-1.8810665760657057,-2.2299055136779353,-2.7934796223653517,-5.845371507273708,-2.436355645721658,-1.2843919867774685,-1.8806294172781937,-1.3734904230893563,-2.547941515474318,-0.29699877688917803,-2.790763280165108
67,-5.35121702784678,-3.3580466201998234,-5.5018195984339195,-2.15713685386309,-2.650515565879017,-3.131976152668056,-5.384208924395069,-2.268419653665999,-1.5897843014106672,-1.2505589293152712,0.025924972305386762,-2.395005436778366,0.009869405294721132,-1.613895082648079
68,-4.577767229477366,-3.5850546691780436,-4.451512488334666,-2.114898339478995,-2.7607574652086444,-3.133265224411091,-4.313806822974211,-1.7651345790647877,-1.6444886858552334,-0.4503645208020371,1.445327240798132,-1.958892532049652,0.5039204621683067,-0.17585296524644609
69,-3.241722714418296,-3.3551838651494603,-2.8689986243938073,-1.7654162811465894,-2.5562066321017487,-2.78418371382923,-2.7223536013994303,-0.9465149662791909,-1.4223060818016326,0.4727759605556389,2.792104511058259,-1.2541251541405107,1.1656768506816158,1.4165056576202553
70,-1.505268455679696,-2.749913706176592,-0.9162895501244196,-1.157075727420218,-2.06772875630057,-2.111140818291059,-0.7568808906608957,0.12640519700844471,-0.934131962668356,1.4543276154305607,3.9786540085758393,-0.3222976689141271,1.9469784449851368,3.0336276455839086
71,0.42129199432908004,-1.8920531928174789,1.204832281726182,-0.36893164807551004,-1.3571071517891042,-1.1775745137217222,1.3922261672650782,1.3556030007822082,-0.2287763547311947,2.4158521974531593,4.926598042779472,0.7702217053799253,2.774036025834493,4.534125668755989
72,2.305623600036908,-0.9284705395641647,3.2760867506456126,0.4993311619508627,-0.5092794553388986,-0.07721916027704263,3.5115200895201406,2.6149480695756444,0.6113115787154161,3.2706192154928706,5.570461027628863,1.9366346857228103,3.5538728132942494,5.777329172376604
73,3.921984369165783,-0.0104574079566882,5.086975798026674,1.3395948730725449,0.3778633729045132,1.0760594729586717,5.387283100567234,3.7632115076018198,1.4791483634175673,3.9311631494773085,5.861017722630361,3.0760137412901125,4.183729537282938,6.636524189149177
74,5.078843207726385,0.7258851091561719,6.45726116077587,2.048212327916418,1.2048959285278276,2.1607176417070244,6.828258596545215,4.659881422564151,2.2561754119449358,4.318209719012974,5.768420889919244,4.081320391755875,4.562606743554393,7.011727983746933
75,5.642078200076608,1.1768876222633529,7.255194779418983,2.538114339158874,1.8821486277391943,3.0608711507985835,7.685799853956934,5.181996730074919,2.827483376967986,4.3700501132278236,5.285030034455941,4.848704323793743,4.6037610402096725,6.840761608150066
76,5.550903516431425,1.2841338330405205,7.40969099332937,2.748734831431882,2.339556429539206,3.679013100036461,7.869245323655295,5.239950218841824,3.0972987857425123,4.05119561151162,4.4276543249162374,5.287431179323896,4.2467255527025625,6.107414450883188
77,4.824596044668856,1.0413549696251203,6.915437414320653,2.652646725520766,2.5339480060802515,3.946683404141346,7.354908774681099,4.790208344599854,3.0025987662054416,3.359061201394261,3.2387596770664002,5.329590490504428,3.4673444789530543,4.845669880414435
78,3.559257128353279,0.4946035962742383,5.8308053154360735,2.2582073598026358,2.452988723302244,3.8319025249653675,6.187823030957767,3.843166123631839,2.522906040466395,2.3275405719372575,1.7861221903785343,4.938597003181333,2.284426168152758,3.1392777996161954
79,1.9150986888453674,-0.26428215512440384,4.269227668591554,1.6079934475810609,2.115412589879247,3.342558317801577,4.476205189912415,2.464883317367268,1.6848006273952576,1.0266458491006423,0.16046348717963496,4.115456202910373,0.761927509281444,1.116390628521088
80,0.09592816352092026,-1.1101085621024818,2.385375701717179,0.7733032519994659,1.567635526223491,2.52540291035542,2.379423464294754,0.7721795357569462,0.5603990067624695,-0.44213744787970455,-1.529216109717126,2.9018504919768446,-0.9939420234546024,-1.060514392813286
81,-1.6765242240102898,-1.9011219756381899,0.35792525289362315,-0.15454047247858882,0.8772791485500829,1.4608219317189344,0.0909505783521956,-1.0785879871930342,-0.7401083381072073,-1.954547121744214,-3.1625994035916354,1.37933412978572,-2.842715332331982,-3.208670704943886
82,-3.1901626407625985,-2.4981026538214257,-1.6290692532076836,-1.0749933966274805,0.12449724538848803,0.2540203869441851,-2.1816947507572406,-2.9078955453885587,-2.080930896353978,-3.3754604960481447,-4.616944458288808,-0.33570375940816516,-4.622141603394923,-5.141764628390002
83,-4.268488058038801,-2.783391409007615,-3.404188334719609,-1.8898856328103157,-0.6077610706967016,-0.9763320246448732,-4.237750416476883,-4.532686892009146,-3.31652597669846,-4.5726866881500365,-5.777186796441536,-2.101174667363896,-6.163921940576987,-6.687746812071541
84,-4.791733716349006,-2.6774681136833682,-4.824272895243964,-2.5144444559861214,-1.2433296829102727,-2.1106867756142744,-5.9025042745653,-5.78690478999285,-4.30871959505134,-5.4309634266270015,-6.54625222865902,-3.7618766615152475,-7.311023374483746,-7.70585993363087
85,-4.710606102861565,-2.1509746605224875,-5.786282565075733,-2.886489270990638,-1.7210985720962657,-3.0410178545419693,-7.043108538439476,-6.54039129624909,-4.942854857367431,-5.864405329283378,-6.854438684883375,-5.164402281418975,-7.934626992004279,-8.10102657523762
86,-4.051049681218341,-1.2306074659191735,-6.234507451914836,-2.9727983378009557,-2.001055259606274,-3.681682916602681,-7.579444845910338,-6.71380642729656,-5.140914776136409,-5.825833854240398,-6.666752893751873,-6.172863270700661,-7.948752860436705,-7.833964828051696
87,-2.9096197084009074,0.0019673561741689063,-6.162788106086366,-2.7720039770206557,-2.0674936266181945,-3.977601410065971,-7.489202607051675,-6.287709828376442,-4.87005260695255,-5.311836537477733,-5.9872825428265095,-6.683709175535124,-7.320840705674278,-6.92582988406874
88,-1.4402334510291208,1.4181863155773353,-5.611905285320016,-2.313787802586131,-1.9291691146708245,-3.9089428550581617,-6.807008726775775,-5.304689652505499,-4.145646902652215,-4.362981931904652,-4.860012172843488,-6.637893762901333,-6.07701424349183,-5.4567657772245335
89,0.1658775051025884,2.8568111567178285,-4.662733521481235,-1.6545736225177443,-1.6165632907987748,-3.4919360658446172,-5.6180820122275446,-3.8643033227831727,-3.028758745641187,-3.0592603328325723,-3.3658972478258926,-6.028832059784992,-4.3013563226142315,-3.558421202366594
90,1.7043977974824536,4.14270430374025,-3.426084868658349,-0.8703091177553128,-1.176764429680814,-2.7758603982325885,-4.047416391461724,-2.111498263973122,-1.6185868535811079,-1.5114297217764592,-1.6164351455117496,-4.90498737143612,-2.1291956025453804,-1.4011586657050596
91,2.9832777967820316,5.107975013642014,-2.030393445815229,-0.04724799510877498,-0.6667366927556231,-1.836711015783129,-2.2458802817609795,-0.2199903936351433,-0.04109761817659513,0.15056500780822937,0.25564290549094365,-3.36650097244913,0.26492885871072863,0.8227125289646925
92,3.84607861510288,5.6129761406582315,-0.608507577785368,0.7281424593886131,-0.14590904224573906,-0.7683908132730094,-0.37483023073822286,1.6273096681013501,1.564612734107807,1.7906274013251648,2.1076352079178275,-1.5559668540867946,2.6833800364958917,2.917895402300575
93,4.190512466907966,5.564586529336494,0.7151334260750769,1.378942712940621,0.33095186883996935,0.32747283495689766,1.4091341439670555,3.2583975897761994,3.0605197805701505,3.2794412236979236,3.798980888797255,0.35582401315320444,4.923938995489526,4.705222070883748
94,3.9800312135337594,4.929477253885089,1.8357526761085492,1.8460693986984655,0.7197153303483712,1.3518904329946337,2.967793685667544,4.530363527131802,4.322816693684085,4.505870156048944,5.203056487455016,2.1876853171368444,6.798812997537661,6.038875669228592
95,3.2472064647519105,3.7406089356542624,2.676919820384078,2.0941524096685757,0.9910433577221929,2.2179167704736362,4.192127993753238,5.343531938914117,5.25266544424465,5.385704168617641,6.2175636373121925,3.767391165666054,8.152191868312357,6.819881015008737
96,2.088656587076392,2.0959813041772537,3.1959312951776098,2.114378124930467,1.1323493207938158,2.8581685933472007,5.00954356617532,5.649995706444891,5.783631502712536,5.867052916172084,6.772586246832037,4.950316088446099,8.874577938466475,7.004452448823381
97,0.6522857770745676,0.1495645797375969,3.385476303310076,1.9240596939188288,1.147488574861143,3.22982064334816,5.387167244306608,5.455755705990448,5.885360233759244,5.932151351482819,6.835644947689429,5.635091496330786,8.912464516073115,6.606370823354733
98,-0.8815058807979579,-1.9047182512785927,3.271540621985571,1.5630971931203015,1.0544080813079229,3.316790497611586,5.33128367863706,4.816526246327976,5.563527149269231,5.595787425996983,6.413375882072407,5.774311490180691,8.272434321335044,5.69323811957364
99,-2.322296213250949,-3.8542226271434217,2.907879877071462,1.0878665074404055,0.881230439103212,3.129159918764772,4.883356136116139,3.8280779508710037,4.856505653634985,4.9009359213076955,5.549786926781104,5.37890097692333,7.019346130574584,4.377156554885613
100,-3.4930412465318224,-5.49159903694708,2.367761935892842,0.5633850114737876,0.6614216150959021,2.700171502559321,4.113338290235768,2.6126504924678216,3.8295033252721487,3.9124465636299504,4.32137178785053,4.51555703925782,5.268913844905335,2.801024897851032
101,-4.2515504290588675,-6.638743716440803,1.7339925091773374,0.054804942889251695,0.4287697901010276,2.081353481143446,3.111146629561287,1.3033882470651177,2.5670936463163763,2.7097586960000433,2.829657863562276,3.297585291797595,3.175583633274595,1.1221574466450828
102,-4.507426828865012,-7.167752325618549,1.088449374420394,-0.38064944032970066,0.21287487539092156,1.33644550223546,1.9772206514325568,0.028880288845007335,1.165103965027354,1.3795859413391298,1.1919910625273533,1.8703410934643512,0.9171066034251275,-0.5047674382720314
103,-4.232420999713242,-7.016243096523922,0.5024173210411897,-0.700269989719768,0.03572274747614125,0.5348254280193887,0.8130672191962721,-1.1002820219957898,-0.27727640147418137,0.009346926306613032,-0.46850816781345567,0.39321421075188245,-1.3224742251077544,-1.9433856436149346
104,-3.462963033907184,-6.195070018363768,0.02891613349446678,-0.8801726676920253,-0.09027926966501697,-0.2549115866019891,-0.28741001874723265,-2.001438206947528,-1.6644998313929957,-1.3181462249106481,-2.032861387374047,-0.9794460559201541,-3.369590344255833,-3.0881478694441347
105,-2.294616791070146,-4.787382666380473,-0.30205129623594495,-0.9168549856647936,-0.162664861931191,-0.9706726750536121,-1.2451339733497895,-2.6253868873836455,-2.910359264560693,-2.528536502527716,-3.395150171621365,-2.1159523805397207,-5.07594314028352,-3.8723205075681943
106,-0.8692273808223386,-2.9390888836724858,-0.4848086326544696,-0.8259290088589462,-0.18776764989027167,-1.561470950491855,-2.0011363154820496,-2.9572845650209203,-3.942227519587613,-3.558396078636214,-4.469740509146926,-2.921186733623272,-6.32992093320561,-4.270822499527948
107,0.6435230756475694,-0.841890447691018,-0.53584324212463,-0.6383543433105325,-0.17838511613520622,-1.9906473420184785,-2.519594278280931,-3.0133334975055366,-4.703909663948945,-4.356641528955882,-5.196354847111816,-3.345118835368581,-7.063710807998446,-4.297967126907984
108,2.0677073655976708,1.288970173838144,-0.48864427237501423,-0.3948337154536862,-0.15070785318210528,-2.2375915506490474,-2.7885214890201575,-2.8342001036874187,-5.1573336731014745,-4.885321807228586,-5.542789493365149,-3.385085117578623,-7.255744134459576,-4.000870286815446
109,3.2430420764976415,3.2394337959418698,-0.38645087114574633,-0.13926293067126083,-0.12104880320335458,-2.2979773411045987,-2.8182219026762687,-2.4764431771347177,-5.283358886207639,-5.120194353034212,-5.505314327850878,-3.0819020571828855,-6.928677026108596,-3.4498299613641175
110,4.0442004450357665,4.820705431391852,-0.27411798180174873,0.08777962787338249,-0.10289855373449301,-2.1826437027568004,-2.637820863242117,-2.003353841466123,-5.081941110496281,-5.051372259181334,-5.106988121139713,-2.5107643871144885,-6.143588776629921,-2.727295514805079
111,4.39505021738753,5.889706734721133,-0.1904154776591551,0.25456854125298073,-0.10474752784636812,-1.9153485225824032,-2.290368912996894,-1.476519022359569,-4.571784599350441,-4.684119423713496,-4.394260248022239,-1.7685701593887306,-4.9914238268409425,-1.9170884809737465
112,4.27604794554816,6.363448183338975,-0.16196807333146698,0.34204152862626985,-0.12896893763081294,-1.5296899053074005,-1.82714468895364,-0.9491476206123369,-3.7894735107560336,-4.039642705095365,-3.432299703365594,-0.9597134633095118,-3.5828682822017113,-1.0953113262278038
113,3.7240083343763066,6.225730647307925,-0.1997312983158497,0.34542782423149343,-0.17187057869850356,-1.0655269674449355,-1.301836777301172,-0.46179967555743695,-2.787952081403211,-3.1555338020784953,-2.29949936015852,-0.18243898365468927,-2.037833500495593,-0.32394079025736067
114,2.8245598547432023,5.525645285788418,-0.298438604255378,0.2735945849798749,-0.22482863710773962,-0.5652368539136087,-0.7652479662887047,-0.04070886787286283,-1.6341549849257313,-2.0854002238813862,-1.0815664083245216,0.48242284042769934,-0.47554708094453296,0.3524553806247868
115,1.69862513637638,4.3684373684247735,-0.43893062658488896,0.14637114800002923,-0.27624373152029746,-0.07012286921762086,-0.2610438463989138,0.301533358291117,-0.40560549948951585,-0.8972295542750486,0.1344472321429252,0.9790510342003769,0.9940165448165565,0.907001760675555
116,0.48507141002265175,2.90027340040987,-0.59278314072255,-0.009583732771335935,-0.31393504389171806,0.3827545279255563,0.1771186669905396,0.5634930456950404,0.814096661232828,0.3298398848620944,1.26587960485985,1.2799479586103497,2.2769321257230786,1.3283885795772497
117,-0.6778585157126976,1.2891669999257578,-0.728273517360681,-0.16560635888945377,-0.3275317767115485,0.7631122891674414,0.5269661964685977,0.7513652846466943,1.9408042229155305,1.5104376015257963,2.239711719709841,1.3850649818454772,3.3001838648899153,1.6172264821576325
118,-1.6696731261411981,-0.2953148867957456,-0.8165357406134629,-0.29571816346692464,-0.3104415857678897,1.0492052752237913,0.7775821220173244,0.8752068732352257,2.8960699152547735,2.5593691216073853,2.9971206423849064,1.31744676634906,4.014632072523777,1.7818777098714482
119,-2.4010229228016096,-1.7009637732977028,-0.8367858785489944,-0.38044112872780345,-0.26106904494503147,1.2287491610674988,0.9282402195785595,0.9456431409370093,3.6136161786349095,3.3990029088312625,3.4971211259104362,1.1165268076618815,4.396246664030019,1.8346668777039405
120,-2.8217735847709773,-2.8082367619718562,-0.7797417226764941,-0.4092063447460129,-0.18310505524729478,1.2990139861842391,0.9864591581954767,0.971559964977025,4.045374382813495,3.966852029269678,3.7190767634876742,0.8303918101394904,4.4458031582378466,1.7891225760789498
121,-2.923098748200786,-3.540390806087289,-0.648755263334825,-0.3811056340488085,-0.08488109181835485,1.266157085337777,0.9656621450271414,0.9590250860074672,4.166359523635109,4.222386230094863,3.6638575366962707,0.5082752257243333,4.187212411513317,1.6585525383864614
122,-2.733882792087993,-3.8676848934356696,-0.4586367377996576,-0.30403492528358184,0.022052811584927244,1.143910176901828,0.8827865160322949,0.9114044430838896,3.977665308684208,4.1520685379798055,3.353444048976059,0.1942854101743228,3.6646098107787575,1.4558905574698402
123,-2.312546210180626,-3.8057209495053463,-0.23257681538236916,-0.19253883404906744,0.12484037510415422,0.9517688557131277,0.7561082151250763,0.8304020283314167,3.507000923737007,3.7717364860477582,2.8288543293135637,-0.07700088270756181,2.9383060236564664,1.194451590365907
124,-1.7359704512161815,-3.4087243412596524,0.002114505751964837,-0.06484590932802295,0.21136774663152408,0.7128579892561558,0.6034518344989122,0.7175984847359673,2.806447449354356,3.125744466821124,2.1464101146350756,-0.2828523312988208,2.079732118340966,0.8890508946817344
125,-1.087438772732447,-2.7591083630103412,0.21858818645860117,0.06033928028040933,0.27209400779243376,0.45166453980671295,0.4408676462548984,0.5760161811347206,1.9474664893403517,2.2827182918326874,1.3725547404898346,-0.4127295607871639,1.1656035290486109,0.5569090125432623
126,-0.44542306196101705,-1.954980509970118,0.3945221250967289,0.16674625322110584,0.3013702730889578,0.19183547129834505,0.28178265272838754,0.41129113510539206,1.0135929170159352,1.328277253958346,0.5776469962304861,-0.4670430534338805,0.27165628845787443,0.21786893193882653
127,0.12531380042523507,-1.0973234777622602,0.5150202553445198,0.24271838198451418,0.29806114833138425,-0.04577306913043554,0.13657726950532526,0.23215859234364333,0.09161524670697745,0.3555624244977081,-0.17066395497616677,-0.45483872847939283,-0.5335651717307596,-0.10633717617589356
