,AF3,F7,F3,FC5,T7,P7,O1,O2,P8,T8,FC6,F4,F8,AF4
0,-0.890389572536317,-1.4359953391920341,-1.924939203947078,-1.248340401240423,-1.0653378153790332,-0.38293058837847865,-0.8200032867452626,-0.03925382866418127,0.6678282299683199,0.2178896610459946,-0.28276271771944356,-1.5730362463537408,-0.639822233981826,-1.2325822854204276
1,-0.1350146617708711,-1.2060797530832605,-1.8489054242053284,-0.633501158342195,-1.52558273488571,-1.5808091669945414,-0.054516969771104325,0.23514855680509247,0.7094267492497234,-0.19584946053636132,0.9321983515762077,0.7218571402269595,0.902280125214027,-0.7720221566968772
2,0.5065224070860362,-1.0081980636932466,-1.8067918385005715,-0.0905199239230171,-1.9129378392756482,-2.6660625277846672,0.700289218680664,0.4957878168754125,0.7669061423365933,-0.5421191664573866,1.9874706922915428,2.722901899042716,2.236150965603952,-0.3833416617575758
3,0.9658978377404855,-0.8643802384641579,-1.8272213590451842,0.3189246402718222,-2.1812156811596086,-3.561379979349251,1.3985094799744615,0.7198991017841788,0.8858322824267859,-0.7166126680895235,2.792920035868385,4.207236813168898,3.2268548131510837,-0.10625098192217897
4,1.2073598789427575,-0.7757897177603574,-1.9116426171129952,0.5602730915411931,-2.290928268424361,-4.205458799584326,1.999205461454456,0.888114433077431,1.0875508420602176,-0.6513248046861244,3.2847712583260176,5.027769551159939,3.781705030965371,0.042836154069148556
5,1.232653717903534,-0.7221685101514695,-2.032278567154485,0.6305655146365261,-2.213960085989373,-4.55821902976197,2.4689488168094953,0.9865181901207982,1.364141486467527,-0.3261703499308569,3.4319910447970328,5.130615327403362,3.8603431320691604,0.07288545387071259
6,1.0802342991208527,-0.6652298925422834,-2.135363649360212,0.5580947468304073,-1.937351173149723,-4.6039271324172395,2.783729804213337,1.0080411630752877,1.6794384927956483,0.22806883598837624,3.239724754060241,4.5598616319147025,3.479137903545724,0.016776954009209356
7,0.8187532824782557,-0.5556357035582252,-2.1494142785692416,0.39722047045909503,-1.465741499549175,-4.351845822997128,2.9301775895755053,0.953038057334648,1.9758171525657844,0.9356697165591368,2.7491855807660337,3.4490452465337005,2.7092096648556163,-0.07367269398848908
8,0.5356473380460781,-0.3426202241697504,-1.9974921087050252,0.21902521935609126,-0.8221705295631513,-3.834301264168944,2.906101085332897,0.82900813525762,2.185369124001169,1.689430080454805,2.033656952028568,2.0005315432004744,1.668014889928035,-0.13574453659891852
9,0.3224091082026562,0.015150141535585757,-1.6117440606376896,0.0991136036168491,-0.04710048064147044,-3.102389823339613,2.720381332299258,0.6495322550817411,2.2433079414940424,2.3690976717583263,1.1906639646701551,0.45565275220444673,0.5051521002853663,-0.10603103282746879
10,0.258676797457206,0.5391851698469089,-0.9480425856207303,0.10431361484354211,0.8042832843103741,-2.2198860251238597,2.3922304831911845,0.43259493863859233,2.1010935998701985,2.8614721880471117,0.3308601431911073,-0.9402428240592803,-0.6162030794776445,0.06841692544124905
11,0.3975469250781528,1.2230083355817476,0.0016157904088676357,0.28026322976571716,1.6662683860696452,-1.2561937263030036,1.9498028279934974,0.19852521891864203,1.736887949373407,3.0787664306568834,-0.4353039555390764,-1.9729412383175637,-1.5401560259167464,0.4195174053895697
12,0.7544475244415049,2.02778093859119,1.2011237798676002,0.6418147422544522,2.4679398099172443,-0.27933533219523987,1.4281344260546514,-0.03218100539954038,1.1615008068435873,2.972285501389679,-1.0116011947243346,-2.489757734451404,-2.138686943399257,0.9497679306084222
13,1.3014952212588815,2.8828117932102684,2.568351019638809,1.1678554549171005,3.139164900491018,0.6500481773762422,0.8664262408855694,-0.2409015980608711,0.4188316658006866,2.5394266455647343,-1.3289041064131943,-2.4208536395408795,-2.329242706784074,1.6275366765535213
14,1.9685302028822163,3.691379586553587,3.980171492184303,1.8015566684078894,3.6167176662457736,1.4829179043061447,0.30477615220481885,-0.41257527455578336,-0.41921800517936225,1.8232177534728782,-1.35503195895519,-1.7884173717346847,-2.0867876313746625,2.387172472693816
15,2.6510596515161033,4.341490708699413,5.284302306613836,2.456294688940379,3.8500115827906516,2.183859125401213,-0.21940970999004733,-0.5368811608443945,-1.2624648794772977,0.9048702202308985,-1.099940404041094,-0.7023849223010987,-1.4483725978847046,3.1344705358480263
16,3.224278440939644,4.720378917191537,6.316773982067713,3.0266469347326934,3.8059434014720246,2.730909287629326,-0.674966695756346,-0.6088313541884629,-2.0151684122054134,-0.10908756866968974,-0.6151840532989968,0.6566680386047979,-0.5092260960176146,3.757257290854256
17,3.5613468102010786,4.730864876270603,6.922911456485195,3.403081761238852,3.4724246843473363,3.1136079105365857,-1.0400245367394378,-0.6287710346499323,-2.58969098754503,-1.1027649067660654,0.012627958506305853,2.064943156949165,0.58946309951642,4.140032530013934
18,3.5533560316648223,4.307259807148596,6.979036878510214,3.488353402070701,2.8602849892250313,3.3299966128747385,-1.3040749319068345,-0.6018440010863267,-2.918925457558265,-1.9672786909343187,0.6737600954360919,3.289098042723179,1.6796818909762492,4.180868937470623
19,3.1280330259344855,3.4284022359075688,6.411828340492,3.2132765172147253,2.0033561771429387,3.383440424703666,-1.4686339417163936,-0.5370281199473247,-2.9655695857996283,-2.6149791871472474,1.2511651540043698,4.121205379759444,2.590169238114534,3.80824409978138
20,2.2642924092977066,2.125688000433817,5.212436890154797,2.5495435762801466,0.9566773037378448,3.280083863736306,-1.5462566312585315,-0.44587338010014876,-2.7268759507722473,-2.9895003414800727,1.6379924938008397,4.40981819714201,3.1711765185007477,2.9952681731132382
21,1.0002422164905966,0.4845608697572557,3.4430639484972816,1.5175743771977206,-0.2071112757645143,3.0275168268992223,-1.5579222057369055,-0.34108677654090297,-2.2342637181620084,-3.0704355113615027,1.7542078821482845,4.082550788617226,3.316832240949014,1.7689329452579332
22,-0.5668757495268149,-1.3612065829344222,1.23465959952254,0.18801533529617784,-1.4029847743573942,2.6348705489934447,-1.529097787591839,-0.2351065656259014,-1.548018286665646,-2.8724151905149573,1.5597468284206775,3.156863842871653,2.9817435198825715,0.21255459283655287
23,-2.2891998358121883,-3.2421118094615733,-1.2244036870706816,-1.3236419363203356,-2.540026397403804,2.114180134645992,-1.4850439090089564,-0.13879707714692507,-0.7480855727739693,-2.4393042892913925,1.0620410640557372,1.7375246347807074,2.189207741615613,-1.53953974624461
24,-3.9843838254379307,-4.971070833597433,-3.7075606383128012,-2.8688915109067135,-3.5287259009467435,1.4825233997137122,-1.4460902037347905,-0.06037712317884338,0.07744126609822287,-1.8349801877588416,0.31654104706731495,0.0012231114751750087,1.0295822738447638,-3.3149365249895686
25,-5.457388620529752,-6.3649328184493665,-5.974912733395762,-4.283126655237413,-4.288498028676611,0.7642407934458504,-1.42365233442595,-0.004672336466125442,0.844242259314827,-1.1325800069396286,-0.5801052080507009,-1.8292508734168915,-0.351201449250727,-4.922375744771843
26,-6.5250925615752875,-7.266603303271095,-7.800587800326303,-5.405499534648749,-4.754756092124493,-0.007508759139966553,-1.4176735365580875,0.02724404746229881,1.4822287638212481,-0.40416075858878336,-1.5034218870396436,-3.517322207517402,-1.7715069962898151,-6.174986376639437
27,-7.0404015899837615,-7.564825008655459,-8.999047637677249,-6.099108816745644,-4.8848577927340076,-0.7904962065725734,-1.415974185206713,0.037986060711227,1.9430148663543256,0.28758471363273164,-2.3191756111245474,-4.846564010652922,-3.0394703867438833,-6.914469834091358
28,-6.9125294718946195,-7.208898233285161,-9.446877368196382,-6.268785621607383,-4.662300111690388,-1.5348842251042245,-1.395716676794377,0.03336194482839991,2.2034620970963177,0.8944892956880162,-2.9034999238258243,-5.651200959026699,-3.980403593275347,-7.032882591240727
29,-6.120589637557313,-6.21626420342097,-9.097180866356695,-5.874035423742791,-4.098684419063243,-2.186504368914452,-1.3268841776627647,0.021487130656210465,2.265074419573128,1.384609394003167,-3.1620221818846534,-5.838724886398051,-4.462083554378781,-6.488860516178803
30,-4.718533565781969,-4.671836455466934,-7.984720148426204,-4.935342139826246,-3.233191671735718,-2.691722088532998,-1.1773721761522113,0.011580391153426562,2.1497465574249577,1.7408433222929356,-3.0450064263835226,-5.401422707737517,-4.414147098023133,-5.315802938483182
31,-2.830657961911466,-2.719101921640907,-6.221220236488349,-3.5329525214314224,-2.1295725231549905,-3.0033610404412774,-0.9190374816026083,0.0125659607989808,1.8929760145133754,1.9574344038524538,-2.5560686774438843,-4.4153380286820925,-3.838663205884748,-3.6206049146829655
32,-0.6382075468041444,-0.5441481265870878,-3.981616044972167,-1.7982931292634403,-0.8709285826030649,-3.086925808146615,-0.5338704528215319,0.03164471980529822,1.5360251852902442,2.0356435205083865,-1.7529716003239832,-3.0271030810070374,-2.8102694971765203,-1.5728344574559185
33,1.6411749250757,1.6452707315375599,-1.4832342949648054,0.10082981159467226,0.4472027777675368,-2.9262294265497273,-0.019375564630545933,0.07302208293220831,1.1185962587452005,1.9798852997340148,-0.7402212853379498,-1.4308912597391963,-1.4658343773444042,0.614401247098633
34,3.7784411237197455,3.6428859784198857,1.0392058225787486,1.9792862688891513,1.72478239552181,-2.5275172453185712,0.6077243402967514,0.13698050069376325,0.6733538143633166,1.7953432781711707,0.3455282995739989,0.1608267577988429,0.014814660523279061,2.709478378282207
35,5.559312328907433,5.266330714507067,3.3594553005896133,3.6554653979317595,2.865472021783913,-1.9212884120591964,1.3102006744609842,0.2194567757243289,0.22315736935925495,1.4875985357958275,1.3551254918136588,1.5482076073496986,1.4342312160252062,4.489917836904154
36,6.808307567559875,6.376087184541041,5.283210800240742,4.971292738435295,3.784377134353247,-1.161250164316268,2.0319338618163503,0.3122294202280177,-0.21874770571059524,1.064241796458816,2.1486943253226225,2.5720083065876804,2.6050309950248844,5.769078052310495
37,7.407689239007356,6.888819504521124,6.666473415719773,5.809019368793982,4.414696323237355,-0.3201887529628504,2.70255829987872,0.40374298765625544,-0.6459655794483805,0.5379089707273332,2.6162637839384426,3.1345659818970275,3.375903398876079,6.4184217256969776
38,7.3091625430531195,6.783778085903359,7.426917392045665,6.102886964528934,4.712782774554198,0.5170257373848014,3.2448343585040975,0.4805030052925951,-1.054528832647476,-0.0702150769915868,2.6941488481304625,3.210917648833786,3.6522572418311774,6.382515254275688
39,6.537183529548589,6.10190156792943,7.54743598170039,5.844487245917385,4.661280712044226,1.262624501843835,3.583994815763866,0.5288813340031256,-1.438066931244215,-0.7275647263780596,2.374613546862462,2.848753885699095,3.40864668329004,5.68490360232767
40,5.183845486624904,4.938159115047903,7.072099705224035,5.081457503055231,4.270158805834988,1.8362361236323563,3.6579220006278432,0.5370961417463512,-1.7838686102279582,-1.3891082414935516,1.7073594146969289,2.157604139454163,2.6913608295702542,4.4242167921726905
41,3.396372287606808,3.428458596617903,6.095710741198655,3.9099795598336757,3.575614790814447,2.174949481717683,3.4267570971691423,0.49708908305540367,-2.0709197835254782,-1.9987745176144611,0.7926219047718992,1.289244460979358,1.611006619906055,2.761142867274917
42,1.3591140272652376,1.7330085796983474,4.748845375145257,2.4622743422362605,2.636967589350568,2.2417295395337025,2.880487127548846,0.4060221931159226,-2.270548257327805,-2.4936641696897275,-0.23307306818033988,0.41256774680790254,0.3263536610399081,0.8980751993937618
43,-0.7274866321354376,0.01831245709019953,3.1806695075053213,0.8908227377251946,1.531785248856324,2.0309215168758668,2.043232448507605,0.2671580597469203,-2.349728119371143,-2.810734646652214,-1.2163410415948712,-0.3131129491869619,-0.9780695478423715,-0.945843324253255
44,-2.6682668704038988,-1.5600252675869508,1.5418679329766378,-0.6486615078686165,0.34961821065306287,1.5699353417917516,0.9733617012402982,0.08996412734809807,-2.2765098129341768,-2.895089881103652,-2.008648755560867,-0.762239163816664,-2.1173105963522727,-2.5610150958287847
45,-4.292508429058237,-2.8717735455688236,-0.030233205166757093,-2.013457537242426,-0.8151890914234895,0.916717268653503,-0.24086314975759743,-0.1106136698811728,-2.0265651142966723,-2.7085834318847017,-2.4870895645850206,-0.8610718459804882,-2.93062573925021,-3.771658753352621
46,-5.468832195169744,-3.8224274166629373,-1.4227979859709243,-3.087457627427609,-1.8710621278332995,0.15320884463387868,-1.4897573780205196,-0.3156463741579395,-1.5895671455430682,-2.2372585734169563,-2.5712200189486065,-0.5971004894134418,-3.3020190545511237,-4.455057662899686
47,-6.11450774478344,-4.358694306968023,-2.5540210169860034,-3.7908491541295786,-2.73655626889559,-0.6244294517843295,-2.653828384918089,-0.5043154734813783,-0.9741170018634315,-1.4962527477581662,-2.2336370655853606,-0.018671757981335784,-3.174053224733095,-4.553568582892208
48,-6.198745595250066,-4.469075329533288,-3.375001532161529,-4.085137955878071,-3.346940261480428,-1.3175782656137152,-3.617081422261396,-0.6563476657127457,-0.21017345817268218,-0.5311706980028993,-1.5030098340560871,0.7747209354735148,-2.553422802584918,-4.078249134269129
49,-5.740401322915545,-4.180140964379725,-3.8675778020118727,-3.973437891254924,-3.6594729395960908,-1.8373492205692687,-4.280291832817677,-0.754483659813586,0.6516192881786892,0.5845015372910569,-0.4594713362511262,1.6495959747350704,-1.508064196970395,-3.104152242069361
50,-4.8012169550084165,-3.549576017656551,-4.039269362732382,-3.4965280098442935,-3.6569209227640975,-2.1155703391827783,-4.572506165942335,-0.7866635320003948,1.5437709769780577,1.7557287982272078,0.776589040480042,2.4601026066190976,-0.1567912887707562,-1.7584436432034376
51,-3.4761542119270548,-2.657323430880196,-3.916745218750932,-2.7256126257003377,-3.3489818820103894,-2.1130956068022,-4.45928303077795,-0.7476420111327549,2.388481086483516,2.8752029437661855,2.0603977969142435,3.070536586205126,1.346600423585016,-0.20335781737156433
52,-1.8824883126105894,-1.596171616363313,-3.539232137579082,-1.7529683592513623,-2.771431929768583,-1.8243534221754687,-3.946652083457968,-0.639815520539531,3.105967047329027,3.834330598442028,3.2408775618983476,3.3752086328578446,2.832253461053733,1.383495258875152
53,-0.14914164999497578,-0.46292819314072214,-2.9530186951950466,-0.6817165985138274,-1.9829979539243385,-1.2775973427312484,-3.0803761477693814,-0.47314072705432036,3.6234172211718145,4.534496201724971,4.17838141513264,3.312714629880567,4.133557786498107,2.828871668439324
54,1.5926864079215073,0.6490323468873118,-2.2077602438938877,0.38415739912211494,-1.060153507046586,-0.5309448034541978,-1.9407470440899652,-0.2641390669742932,3.883331888187027,4.897199295771344,4.75983079379564,2.87270459971979,5.104496183887558,3.9813770220540747
55,3.217081598742866,1.6554776962002689,-1.3547419014232385,1.3486584746557826,-0.09023468314243663,0.3351160808512693,-0.6337256007573938,-0.03409766105853513,3.8501322116171126,4.871906526302413,4.909620933240065,2.094563900183764,5.6332613416812904,4.724974408148938
56,4.609194605636405,2.4853015567293135,-0.44672088371426644,2.130931408082077,0.8365492799251301,1.2276032536811576,0.7203409793581204,0.1933210109336218,3.514192672241091,4.440848472165328,4.595452334259243,1.0587787540281957,5.651144024129292,4.987553957012813
57,5.669679310716877,3.083082070185301,0.46144612290725373,2.6704313587278654,1.6354990743143396,2.0518860929535787,1.9989832021170586,0.39477270237242595,2.8928463999986507,3.620458616430689,3.829071920149973,-0.1270733722594471,5.136479826436583,4.744377578743677
58,6.3184345535129625,3.4106456316203033,1.31239145206397,2.930085844787843,2.2354131980670253,2.722053038481776,3.0894287780731613,0.549900271327157,2.028366800381261,2.459615382848124,2.6626165993837225,-1.3449930371420162,4.114110899040453,4.016875266248989
59,6.4982465140808845,3.4480356730906023,2.0469879173206214,2.897574714114593,2.585384152130937,3.169542705367246,3.8987519467762963,0.6436511386532651,0.9833651811755556,1.035222386593457,1.1817258041320708,-2.4829241088181075,2.6512568217666086,2.8677163260245915
60,6.1786474797738435,3.1941202245303595,2.6069016600297976,2.5849147983292378,2.659674601382546,3.34913348702913,4.361450489489073,0.6679598198344098,-0.16561866112879087,-0.554119946705009,-0.5032331054905119,-3.4481575736989374,0.8508476788435291,1.3932677681577075
61,5.359876037798486,2.666837040137583,2.939092133536322,2.0265294902611966,2.4600964408623764,3.2418376903139596,4.443933818755664,0.6225917914636162,-1.335374377850013,-2.1955556689376152,-2.266586410863719,-4.175886036948255,-1.156714784177237,-0.2854884972296907
62,4.076369624659911,1.9028552559250813,3.0018475972321848,1.2759576975802562,2.0155531481961573,2.854722697167738,4.145803201639703,0.5150511228966123,-2.443158610287275,-3.7698316066983346,-3.9764872648544523,-4.632073473296326,-3.222642505982164,-2.032699990391997
63,2.3988697836855284,0.9563012132540489,2.771452348519702,0.40135368343682465,1.3787146349856059,2.2181113231845946,3.4981695115990434,0.35957310783003693,-3.4128864247300066,-5.1590576688666445,-5.503223711046301,-4.810924207009117,-5.189254164803027,-3.7074249024478494
64,0.4340688942321498,-0.1038057070835217,2.248260616840954,-0.5200291022338561,0.6201371240076567,1.3809285204289437,2.5595387101197864,0.17533871590678723,-4.179812962243154,-6.254053470551214,-6.726553678814742,-4.728219071227312,-6.899681998631507,-5.17307057995177
65,-1.6791743464988007,-1.1976294046158216,1.460864696224255,-1.4080911705276635,-0.17953222962130835,0.40511051032611856,1.409960142170147,-0.015855947788267093,-4.693476775297125,-6.961131950107548,-7.542214357407205,-4.412471483123159,-8.207740640547483,-6.306290265474901
66,-3.7776701835703834,-2.240089906329905,0.46720823007028534,-2.1864859101406307,-0.9383671063390403,-0.6400452121801093,0.14415843473314066,-0.1921785935211334,-4.919027335168001,-7.2082672861486685,-7.867894571252629,-3.896131529477651,-8.987910242314296,-7.005219829096002
67,-5.685836458600373,-3.1476241206603355,-0.6481148808237481,-2.7890653246432127,-1.5819433620998165,-1.6829154245724387,-1.1357284339580782,-0.3342696156677845,-4.8373588179086715,-6.950600506850088,-7.648917031330802,-3.208889773739947,-9.145244752757984,-7.196905805548263
68,-7.231094823769406,-3.8455379882096583,-1.7805756469914393,-3.1656042617242046,-2.051033746444419,-2.653612776619343,-2.327355500602885,-0.4273828902639618,-4.444652332866587,-6.17514955819151,-6.86366145554318,-2.374539777619376,-8.62475557083962,-6.8436525548901965
69,-8.26135948489012,-4.275129655324683,-2.81598700406453,-3.2862288177735812,-2.307296297681363,-3.487054426049422,-3.335053658946891,-0.4629175555285935,-3.7519376214016105,-4.9044316173055735,-5.528418461610897,-1.411960574637443,-7.419500429654714,-5.947841469409757
70,-8.662636521705977,-4.399653257516447,-3.6432397382478063,-3.1440415147936007,-2.336303851753357,-4.125299666491805,-4.076247576406564,-0.4391837785000571,-2.7851079835003394,-3.198518377303878,-3.700983242233478,-0.33975035577704027,-5.576312408769109,-4.554603559177368
71,-8.374357688949408,-4.208230501045222,-4.16784843955082,-2.755572886263887,-2.1476224756654703,-4.519573556769092,-4.487299291641306,-0.36134475985399633,-1.5854938330050863,-1.1548931906767472,-1.4819883617567793,0.816910054780555,-3.197932565759622,-2.7516214898428997
72,-7.400007718206053,-3.7170143269343603,-4.324325445252425,-2.158887986939187,-1.772046483518563,-4.6323921020001375,-4.5286030386156675,-0.24057844085538377,-0.21070352968298087,1.0945675866214728,0.9871478470375828,2.019249414017744,-0.44035586032816715,-0.6653668655391193
73,-5.8109430560979165,-2.9672515830554236,-4.085378104165356,-1.4094248867969486,-1.2564770417306952,-4.440054821696986,-4.188628592444684,-0.09259195737612341,1.2649157453550193,3.3900493279561887,3.53062676116928,3.2100454522198394,2.495470264919002,1.54669655434465
74,-3.7420589460485,-2.0203386584441727,-3.466271611820398,-0.5739207457710691,-0.6572338655847254,-3.935510943617944,-3.486474709339728,0.06431104365634384,2.7510538856597884,5.553939894577252,5.949532040744271,4.312867814839883,5.377830030847086,3.707967037366616
75,-1.3790760955311738,-0.9504492792762457,-2.523404508831884,0.2769413113982536,-0.03277068416111972,-3.131295442234851,-2.4724111425160378,0.2113717922640568,4.144295363307539,7.404415548312013,8.03771249279736,5.236540638169996,7.963679558843984,5.638005906248935
76,1.0614652821225141,0.16424697945121955,-1.3471056933249532,1.076297286534529,0.5631991017081981,-2.0619459678617904,-1.2259076716219997,0.3314800696703417,5.333643321203844,8.771619344643842,9.601151335835304,5.884759375545505,10.021750187077952,7.169956942355633
77,3.357125775586577,1.2504534705569108,-0.04969719889381508,1.768271803631656,1.0872677177278915,-0.7851322976697784,0.14919827521613005,0.411013559185871,6.208821102024633,9.51495209953285,10.478814314788998,6.169540208589254,11.356841817356205,8.168116755560042
78,5.3060225686009765,2.247291961767982,1.249252046046004,2.3135448390893703,1.5099162343999908,0.619277573032037,1.5324548623345087,0.44122805429280654,6.670864537899153,9.539490947990117,10.562326011772008,6.026154790769579,11.832249923432824,8.543310914154565
79,6.750966753011634,3.111286988809612,2.4380409785773964,2.692478437491061,1.8167496987410319,2.0527979438810604,2.797134237869895,0.4190703613521249,6.643926058932282,8.809306482486924,9.811591597799078,5.4266684803456124,11.387157019777307,8.263757890434743
80,7.597617124800002,3.8179782647449327,3.425857163131495,2.905300950386471,2.00736595751888,3.4047654234383486,3.8223807431569696,0.34735095232278596,6.0867589378416405,7.3555666639444475,8.263760955649975,4.38929627546327,10.046259950253074,7.359589863839173
81,7.82383450009205,4.359961939220918,4.151712289860108,2.9693007869614574,2.092185950625991,4.561370861446727,4.505991834638317,0.23428191592831815,5.0021407465020955,5.277821784163305,6.033711673281298,2.981496697040117,7.919859620221247,5.920086070385679
82,7.4787810292613175,4.741838030600117,4.5881400305784386,2.9134770975265547,2.0878732436413086,5.416516863757859,4.776371722392753,0.09245193967172638,3.442576368641807,2.737700569642703,3.305382124906228,1.3158679496032648,5.193954132161518,4.0837936793373935
83,6.67192794712162,4.973145516254027,4.739505612118751,2.7715376157695575,2.0121829294182683,5.883310042411246,4.60209402107067,-0.06263270768959128,1.5109766625965781,-0.05472283680634956,0.31460878295687644,-0.4607776309606138,2.111314822346383,2.0228302762879955
84,5.55372235084914,5.060780252657933,4.63572259198582,2.5744387377527653,1.8791723947653964,5.904725439833908,3.997617875570573,-0.2142709332468713,-0.6444243910442528,-2.860588365358837,-2.674626418886618,-2.183597509978198,-1.0541695080424256,-0.07645240570403783
85,4.290956023247799,5.002540730073781,4.322886658686176,2.343773456218493,1.6956618927335527,5.461920041150262,3.024029967803208,-0.3463629813718282,-2.8409574254920424,-5.435757676144575,-5.397669157722836,-3.688771453179448,-4.026642964700694,-2.033780395264593
86,3.040682026917944,4.783309548065462,3.8527160635701345,2.0872104169653443,1.4596522379284362,4.578852944577408,1.7842165900399285,-0.445091799126668,-4.877516193363736,-7.555425039736231,-7.616991511331322,-4.832694320418922,-6.557237763989975,-3.693568073439442
87,1.9267260967059183,4.374972743111149,3.272709807923635,1.7968863217271953,1.1611065470086026,3.3222806028644976,0.41255984529826034,-0.5003222094457451,-6.554270575539899,-9.036912612881876,-9.146899903442275,-5.508730964921961,-8.44924523137994,-4.939572437997085
88,1.0224184951011461,3.7405578814119473,2.618642996694243,1.4511947270029186,0.7851136140006693,1.7967804172352209,-0.9399798499852945,-0.50658485666543,-7.694109987489773,-9.757969361012197,-9.872195587284262,-5.659485343967803,-9.576527917978325,-5.704076900802306
89,0.34220142680684945,2.8423229282647444,1.9105077150721164,1.0198622163274793,0.31702081588952524,0.1351263703950931,-2.123794128127499,-0.4635558969419536,-8.163435095544175,-9.668494812447591,-9.75867492585378,-5.283275924657881,-9.893201104878306,-5.9709789759444
90,-0.15659728940301612,1.6527648966960793,1.1523893347837633,0.4716402728040345,-0.25128044226539553,-1.515004387078998,-3.0093803388264293,-0.37599413006584737,-7.889769188880986,-8.794468346953295,-8.854436081966243,-4.434291003210502,-9.433823367371835,-5.773012345375822
91,-0.5620878677285853,0.16685843617655455,0.3361395366916493,-0.21654857520173387,-0.9150425806843153,-3.00647271508775,-3.5044037352371507,-0.2531512515709697,-6.873805129126365,-7.23384309872165,-7.282111707631291,-3.2166075514173915,-8.304567070149321,-5.184019531991056
92,-0.9880292051958178,-1.586614404224062,-0.5518633537954319,-1.0505148894804335,-1.6515977091741962,-4.208398631115499,-3.566575367045109,-0.10772383261614715,-5.193953987824073,-5.145118008936197,-5.223226318173417,-1.7728473837309293,-6.666928208567327,-4.307637014830578
93,-1.5490040716511708,-3.53693458911341,-1.5220417200614555,-2.0113972260101756,-2.4177595108556216,-5.02020032754293,-3.2102559933735306,0.0455372268493912,-3.002202853217609,-2.730106429673589,-2.896758928723211,-0.2687058232635082,-4.716356408381561,-3.263953173923609
94,-2.33450052190967,-5.568604799969995,-2.572529442129095,-3.0514766897953254,-3.1506296112449,-5.382167891034127,-2.505455544511396,0.1914077666134963,-0.5110710174000479,-0.21298341679053445,-0.5345816438102463,1.1250757149445867,-2.658656878635743,-2.17568694293342
95,-3.3861419063807827,-7.525307852351468,-3.681300175470198,-4.094372543883913,-3.7722638784173443,-5.281222780871398,-1.5689291063270852,0.3157896530847916,2.027420997828791,2.182029757126358,1.6433143550332987,2.251506801784419,-0.6870997382091084,-1.155269057589269
96,-4.681975637643333,-9.22126608244675,-4.801071744405608,-5.04018815913324,-4.19802626193614,-4.751145439645931,-0.5482370309935289,0.4071553213868978,4.348730311543168,4.251997858881044,3.4510151321885356,2.985035559118174,1.0371182851003604,-0.29394941815871684
97,-6.130786095929131,-10.459463775386956,-5.858241378674285,-5.775430741147312,-4.347778132566393,-3.867288091038449,0.39923705072664256,0.4576842720922831,6.205727610388845,5.833542357982071,4.7539604884135285,3.2462852943468707,2.3990175169241406,0.3462437827806249
98,-7.577955423062057,-11.054987952608508,-6.756588218356441,-6.186733454761054,-4.158435060308568,-2.7365167879686982,1.1294181301575899,0.46397530494958555,7.397987285083015,6.816435243338351,5.479656781431958,3.0121804640853895,3.337356436163933,0.7371665631372545
99,-8.822657116422466,-10.860666357997065,-7.385798375170951,-6.176691108587153,-3.595990943394562,-1.4837435345063963,1.533424009884626,0.4272671331322462,7.796678054396722,7.151481378065463,5.621024944344588,2.3201407846502504,3.845204549372278,0.8855956273444485
100,-9.644389111291483,-9.791439471199801,-7.634113111600687,-5.679608882167641,-2.664964297670333,-0.23683810173252823,1.554803530278947,0.35315434195534623,7.361661274697527,6.85226763356067,5.232452544113959,1.2655224543482766,3.964104303929731,0.8306437476830036
101,-9.835312848239406,-7.843667558000175,-7.403686320591839,-4.6747641426502025,-1.4134235730057476,0.8881014779851026,1.1992706805499798,0.2508401755490575,6.148250998914806,5.990928145608251,4.419407947687447,-0.00786540243270045,3.7730733096649,0.6377912035244733
102,-9.233811556174317,-5.105941372907121,-6.626678456023575,-3.1949549093729956,0.06770539614993772,1.7992183462409101,0.5351065869037697,0.1320178554423789,4.3023299830775095,4.68856183680685,3.3231044509409053,-1.3235795691903354,3.374190544443023,0.3899999029562521
103,-7.754289112275043,-1.7589286442486047,-5.27980382868753,-1.3286524355189577,1.651528810625742,2.437548354015439,-0.31621353590703816,0.009512993872402536,2.044001942245608,3.101334536669742,2.102132448752997,-2.493297322640875,2.8767535599555347,0.1766260553473834
104,-5.408572029527818,1.9367699041058004,-3.395046035556558,0.7850799254901693,3.1877906025851765,2.780866555239473,-1.1980761511295468,-0.1041543079693698,-0.35849792896489124,1.4036158937822492,0.9131975319259107,-3.34034024909089,2.3819979809371636,0.08112355420217789
105,-2.3153139204074376,5.664070401100405,-1.064582276239871,2.968717586508751,4.519773223959604,2.842458602095298,-1.9429365404502406,-0.1981219436622116,-2.621528503818771,-0.2302537208560477,-0.10688691201955226,-3.7231952258615424,1.9701666183636957,0.16880452984774966
106,1.3046052292021544,9.081762358228058,1.561412045550573,5.024227828996964,5.5033117744724205,2.665297677502853,-2.3990499514322066,-0.2642999403228614,-4.4812786005895395,-1.6438134203306056,-0.8559960808574791,-3.5559474469429473,1.691342524195342,0.47613038492683285
107,5.146769288287528,11.861934292205074,4.2845417118981,6.754716798557523,6.0252944241477815,2.3127691794762857,-2.4555481554696166,-0.2981240010676955,-5.726895219921445,-2.71415719409207,-1.2767018413278495,-2.8226316490579135,1.5609629668733684,1.003067063498162
108,8.854116970176012,13.727715098780742,6.8750264115703885,7.987031910344629,6.018979319764064,1.857549259159909,-2.0617959461452275,-0.2988705835612375,-6.22702033937962,-3.3637606696711444,-1.3604538764879226,-1.5830605827260191,1.560359351398951,1.7098853657902087
109,12.0564084625845,14.486348945161378,9.094081517073578,8.592364232937358,5.473838065403453,1.370434311334874,-1.2377531139425053,-0.2695088695033652,-5.9460291574694875,-3.5670937099449747,-1.1455545843835293,0.031314494653621246,1.6420730452522005,2.5193814429563908
110,14.413385334292949,14.053127121438362,10.719486049453574,8.502106932770316,4.438383356882881,0.9108092844613622,-0.07343342666492494,-0.21612185520804622,-4.94760425687163,-3.3511630407877293,-0.709276153071368,1.8316193725497638,1.739130259040341,3.324836187092204
111,15.65612952463669,12.462864973234307,11.571376699066812,7.716830296453334,3.01543327101062,0.5200608461953643,1.2827179485970364,-0.14698296684937032,-3.3850163232031267,-2.789814395918323,-0.1551924083238869,3.5944582754371286,1.7769743257926867,4.003185191051069
112,15.621238662831402,9.867257802812361,11.535040157502593,6.307137270928699,1.3503476084090087,0.21866495288771232,2.6449009565681343,-0.07141824337151202,-1.4793692453967555,-1.9924138575888235,0.4025731919118559,5.090691735267321,1.686407929204631,4.431959059418077
113,14.273259785316759,6.518334251804537,10.57761044819103,4.4062344924102,-0.3862243017790429,0.007019567953570421,3.8172946798021505,0.0013903118263155602,0.5111776298343778,-1.088310526078147,0.8560487594538247,6.116202283827611,1.4157448490195268,4.507752829680464
114,11.712267397335854,2.7400820907697354,8.756143629841086,2.1951446893304594,-2.0187670651469385,-0.13052579279535348,4.623400264597677,0.06350176745347214,2.3268533669261644,-0.20912110481889298,1.1187775742930899,6.52024453650718,0.9404476805868783,4.163478029549984
115,8.165357564121868,-1.1081110795465992,6.215511859827583,-0.11755139678896871,-3.3877358685563483,-0.21946748437849262,4.932795264800675,0.10907553941250274,3.741318976314773,0.5287537858733912,1.1377303088095714,6.227156884193239,0.2688396792716711,3.381583332801997
116,3.962908553988811,-4.671504937831579,3.1758305996023766,-2.3188563214351863,-4.368008192018385,-0.2880613560778235,4.681113837395997,0.1348946830126262,4.59129346247812,1.0389521417884224,0.9001363802632015,5.248089117796872,-0.5570076595853786,2.200858194885407
117,-0.4975561034024414,-7.638453641731402,-0.08946378880222325,-4.214456809700555,-4.882520136162111,-0.3606725256069148,3.880162743398736,0.14050784653796677,4.796559080839867,1.275233310542783,0.43433305072080397,3.6808448511394207,-1.4654564482819803,0.7153174596365829
118,-4.79545112602031,-9.772489453943304,-3.282446001973036,-5.648931396087522,-4.909377370398122,-0.45269103295661217,2.616669880774369,0.12800122569875733,4.3676059684182595,1.2354255556651341,-0.195401601134769,1.6977170654832112,-2.3640852478069796,-0.9351307242881658
119,-8.533687622207724,-10.934259620926698,-6.1129772198462415,-6.520672747541176,-4.481692626981371,-0.5677797612007965,1.0399677915683874,0.10146262759422328,3.400067671528204,0.9587663712258259,-0.8991853266615208,-0.4769858374974057,-3.151923833768088,-2.5812119594640266
120,-11.381947513645164,-11.091015897540903,-8.330405522168455,-6.789909023913319,-3.6804541998038354,-0.6977578651937683,-0.6593648335876919,0.06623695764617846,2.0571206786784093,0.5171867304075288,-1.57543220217319,-2.596472601783285,-3.733445297439857,-4.04578740606626
121,-13.111398710767164,-10.313111375683304,-9.750691966270095,-6.479180551300612,-2.6217077098286614,-0.8249432786751945,-2.27652475551352,0.028092253792265737,0.5428471630000782,0.00204468373652829,-2.1261933749746276,-4.423776883960332,-4.032303161358685,-5.167246797022459
122,-13.616749278604248,-8.758714740493671,-10.2755507091692,-5.66664489496761,-1.4400847536265176,-0.9263582106291565,-3.621003056249881,-0.007582888193331387,-0.9291073290244731,-0.49146738082972347,-2.4716207834768347,-5.762202028493613,-4.002771774064311,-5.821330678784264
123,-12.92322742637695,-6.649439266179894,-9.901250747607136,-4.473489906001912,-0.27112549952333986,-0.9789025033624634,-4.542317391815798,-0.036444755397490154,-2.166629507093167,-0.8796648922192579,-2.5613974782318483,-6.4796240178860955,-3.6371245519323057,-5.938090923039343
124,-11.17803902430777,-4.24059165373376,-8.716095585132988,-3.0474021817143115,0.7651328265880586,-0.9644642242496826,-4.949217582203047,-0.05564569470951818,-3.0252296430414196,-1.1029712283666153,-2.381469921311014,-6.523369037591851,-2.9677414967789475,-5.511397128675825
125,-8.62783438161734,-1.790159625168936,-6.887082593671275,-1.5443906247563606,1.5771751859586154,-0.8739870721338024,-4.8197280019263635,-0.06403072546938195,-3.425342748791026,-1.1338043947503749,-1.9551666912387298,-5.923843225442115,-2.063507857324351,-4.599519916573828
126,-5.585459001015919,0.4695294372842202,-4.637648171149107,-0.11128368117942422,2.1101463675567698,-0.7097436666946557,-4.200872088174829,-0.062078426638814285,-3.3586303171102023,-0.97864699084277,-1.3386789623572117,-4.7867863082934505,-1.0209417758035602,-3.316696618334097
127,-2.390548397665069,2.354246735404395,-2.2195431714118223,1.1290622366385596,2.3484263642813152,-0.4854313119477249,-3.1985471991809296,-0.05162108747354877,-2.882971420739723,-0.6742538060816629,-0.6117685521196314,-3.2756856355098165,0.04866818845604402,-1.8169875341044885
