,AF3,F7,F3,FC5,T7,P7,O1,O2,P8,T8,FC6,F4,F8,AF4
0,0.08200216448041749,1.5112688248290977,0.43787832209581623,0.38740254609423186,0.08872559439749814,-0.09205708205179787,0.004290465653457273,-0.29127346842038787,-0.6063821357692876,0.1253603954256899,0.11184137319458673,0.19344047689652732,0.2774878655003683,0.4090544023672497
1,0.41320838438964297,0.194454327275757,0.6956509760323728,0.27397165514353755,-1.2304324935802,-1.1532481571569426,-0.6468948712808902,-1.9708536715024854,-2.9535382912819035,-2.073243346241557,-0.3549763666324956,2.1782073924597865,-0.6787087947378024,1.4096342812416904
2,0.7190329325479965,-1.0650265270355632,0.9375086221654507,0.14961403210788468,-2.4621778207992078,-2.1086948552300595,-1.2058438091529342,-3.413937990085751,-4.999580562633322,-4.0412428314361,-0.7467659477689989,4.048132406949465,-1.5594985383225723,2.3644879725137913
3,0.995602659028861,-2.166545186293281,1.1737966697576003,0.02912654370206479,-3.519206578370821,-2.881048944625878,-1.599389270300984,-4.436595924045506,-6.554631488753997,-5.5731441335298415,-0.9933670318403527,5.694797560877202,-2.2759279227222056,3.2474272011420298
4,1.2404638006740718,-3.0299416654201714,1.4076861714626254,-0.07534934067885123,-4.327212830282959,-3.4123527010356227,-1.7778555220868197,-4.9089535094308845,-7.484876431652244,-6.516888011845828,-1.0479421976331107,7.019410273331212,-2.7586654879864296,4.026558364285718
5,1.4512523651257996,-3.6020220710848188,1.6328228079022906,-0.1555125191344215,-4.830323199853984,-3.669430476084551,-1.7220805566600887,-4.7721573563649775,-7.726013484241789,-6.790603473615484,-0.8943226574636951,7.938064603023051,-2.965791728241467,4.663131499482515
6,1.624415076498881,-3.8599236199710707,1.8328977169037581,-0.2075240870092378,-4.995191183559149,-3.6461629258880417,-1.4459149886441311,-4.045608212755515,-7.287870624865746,-6.390012528912091,-0.549582607526326,8.38707856537678,-2.8870185539346425,5.11275307263866
7,1.7542349019088879,-3.8111467852257555,1.9832657659051784,-0.2320155960068859,-4.813422279227652,-3.36244677460453,-0.993816662170462,-2.823554317904847,-6.249832662559279,-5.385817190181578,-0.061503859718574486,8.328108883602585,-2.5438956786383886,5.3290599748655465
8,1.8323801368598542,-3.4904467775710213,2.0544027390370436,-0.23350448976683613,-4.302120733003633,-2.860131213093499,-0.4339277919561287,-1.2616764663329723,-4.748011741265202,-3.911840479287006,0.49859796740688145,7.752544456016415,-1.9861344524297404,5.269468667037188
9,1.8481312115223147,-2.9541207233895546,2.0166937772565743,-0.21930567655196911,-3.502493503391605,-2.1966547529061375,0.15227286429945086,0.44428558972766763,-2.956207507516927,-2.1459451516641628,1.0465128096439102,6.6845500408251946,-1.2846909404940836,4.9021941290721305
10,1.7893552781387185,-2.2724790418201892,1.845831765047698,-0.19808364933737743,-2.4765984429137315,-1.4374074036034312,0.682127674299374,2.0847351840935295,-1.0634698178403044,-0.28663384781615253,1.4975829347470204,5.182116355253373,-0.5226248063934564,4.213450091639667
11,1.6442045617304932,-1.5214248415761582,1.5280083348597007,-0.17822663775229775,-1.3024642379893356,-0.6479628144389065,1.083900225062209,3.463529762710724,0.7486014485407376,1.4713625118966014,1.7790959199619945,3.335590378243086,0.21505168477595635,3.2136381424370475
12,1.4034145129188413,-0.7740838542420149,1.0641082136344069,-0.16624322119296833,-0.06793038292173052,0.11274860328331689,1.3070037358767006,4.422653894437714,2.325831009601539,2.9592981319066296,1.8408538442119324,1.2633983728303702,0.8513015729491837,1.941419092279891
13,1.062972810822839,-0.09334983067884546,0.4722529223086156,-0.16538562621226827,1.1363429385068946,0.7974948037163274,1.3288796560188787,4.861019561104686,3.5562920812779346,4.051759989918475,1.6624929395908659,-0.8950064666542117,1.3256648726707831,0.4648123454690035
14,0.6268235436064317,0.4739362293342419,-0.21174917423929818,-0.1746944779701649,2.224158973399881,1.3735443790803517,1.1575955957285244,4.745107268025853,4.378424878448764,4.677349382978819,1.2566451966538903,-2.988598311179936,1.60065887848211,-1.1211636097025315
15,0.10917388928551545,0.9006464095049982,-0.9362388926616788,-0.18863595668720773,3.1207589468065575,1.8231230959766869,0.8298918757512795,4.110383288607671,4.781925323287852,4.821927235964304,0.6676281210160984,-4.865956384409831,1.6653752256208465,-2.7003776398792527
16,-0.4640935668121816,1.1805593131367311,-1.6377613468081866,-0.19745989325540644,3.7688505696477232,2.1417918224088517,0.4050748042951786,3.053731837397053,4.801911076801665,4.524679449835883,-0.03406773652506628,-6.387260802671566,1.535952492636608,-4.144651110300715
17,-1.0553980326363885,1.3270183624207508,-2.247024141828478,-0.18834078944308058,4.133079494135669,2.3352931717243863,-0.04426279328874597,1.718336208272864,4.50775978392849,3.8681415292963255,-0.7607192529163264,-7.4360718037612346,1.2528796078863993,-5.325274015785033
18,-1.6172221276690837,1.3692361205739025,-2.6962145767865846,-0.14726991830308714,4.202436962333338,2.415582292239939,-0.44329331960743673,0.27337104264720835,3.9886463941935233,2.9639659861271115,-1.4185827814146605,-7.929825540592357,0.8753665107817628,-6.125922695395932
19,-2.0958382356393765,1.3466762700301138,-2.926936573913869,-0.06154921318579073,3.990286249609462,2.3968009110884756,-0.7261703712485488,-1.1085787652998462,3.338114023566502,1.9365729397170957,-1.9199860039185785,-7.8280378731209375,0.47331327044057764,-6.455685673216951
20,-2.4368656202396397,1.302177128672379,-2.897886019777582,0.07738990635267066,3.5319510303497457,2.2918794501080275,-0.8458250061568569,-2.273325987933985,2.639975729909867,0.9068862054245427,-2.194829424759098,-7.137349314263274,0.11770641905460244,-6.2607620552950465
21,-2.59215820421218,1.274665785891134,-2.591321474547474,0.271234522324175,2.880107383151328,2.1102826072279766,-0.7810001815339206,-3.103346389663967,1.9574926317666705,-0.021849316612665252,-2.200103164914636,-5.912763633716663,-0.12946434678085633,-5.533384188078695
22,-2.5271769920071625,1.2924162973768385,-2.017431489857232,0.512571470015418,2.0985127569480513,1.8571843586370673,-0.5395939552158595,-3.5303476944337677,1.3271800141969052,-0.774594343994673,-1.926241060254165,-4.254722012410766,-0.22449827489924506,-4.316658312427528
23,-2.2277545667107854,1.3677977596120816,-1.2158643129425935,0.7836771846059785,1.254842132783771,1.534108640271847,-0.1578964139524565,-3.540834905532308,0.7578539703286475,-1.3103788389437523,-1.3994709536016625,-2.3020015708268433,-0.14917919091967438,-2.704328887978706
24,-1.7050780847443574,1.494320648496234,-0.2539654253699244,1.0567179404739553,0.4135414784190475,1.1408372983335928,0.30415333376588327,-3.1743193246561874,0.23474663790453068,-1.6231370324400578,-0.6797536207925203,-0.22081074964582612,0.08528054746430809,-0.8349497184914322
25,-0.9978375194243012,1.6465272152243884,0.7783632498129852,1.2956044715883022,-0.37037904505589825,0.6781934824956886,0.7710615369180223,-2.5147620139580353,-0.27221835430811636,-1.7377927566821212,0.1455988856758743,1.8091565878780835,0.43835818622329975,1.119443014752484
26,-0.17080456481911838,1.7829122005633398,1.776854776764599,1.4595177162902047,-1.0558171171270183,0.15117466647370054,1.1621856376396362,-1.6766688519642428,-0.7975037690115594,-1.702452805970778,0.972016114936093,3.6105901872010078,0.8446998521349464,2.9693741441652293
27,0.690415270680942,1.8516495308198122,2.633385503751633,1.5078557319713313,-1.617776448498431,-0.4281530829402392,1.4031274268762306,-0.7878775310660345,-1.3683061755234245,-1.5780189517665073,1.6903810557502463,5.024955878312046,1.2226460214801518,4.527232734084658
28,1.4881482586101746,1.7984955821945146,3.247725078521775,1.4060875333271199,-2.0470997444823773,-1.0385732662577285,1.4366554257430801,0.028567073973308026,-1.9942303611453602,-1.4268073082761317,2.2008836301304067,5.927845037012674,1.4858624520281059,5.6278185006287424
29,2.124057742981684,1.575898576534371,3.539228468269499,1.1317845213957587,-2.347928231410225,-1.6489326611299295,1.231727966472961,0.6710025326715008,-2.660188192272886,-1.3018323712492987,2.4263123704827807,6.241696963534547,1.5566002544388198,6.147770647707347
30,2.511830887860102,1.1521149698818234,3.457098534386109,0.6799742635295666,-2.533434657773819,-2.2189768612436938,0.78938341392118,1.0720190655691113,-3.323955569581438,-1.2382620480051036,2.323060183234028,5.944463438942292,1.378754801090188,6.021462827587532
31,2.5894764799049375,0.5190473002563006,2.987941037968379,0.06694907261834111,-2.6206459199382146,-2.7019270379740856,0.1446102232048151,1.2059690354261365,-3.919103310459026,-1.2482020125998505,1.8883237550019816,5.073110415570567,0.9287850956506845,5.2512085346245305
32,2.3294769359230196,-0.30241218470016135,2.1595829473709927,-0.6682270877000076,-2.625310893044121,-3.0486788376004985,-0.6362225330251865,1.0902326939081286,-4.363143776167234,-1.3194715108607815,1.1623912519510577,3.7213282892547883,0.2227253370548957,3.910180505748329
33,1.7452053686549134,-1.260519707337602,1.040505028777491,-1.4650378043648824,-2.557753428032488,-3.213253342906976,-1.4622456424413073,0.780238306971909,-4.569833892329723,-1.4184511396954573,0.22549807434764177,2.03140718829919,-0.6820339319573899,2.13725015608013
34,0.8924311370420058,-2.2749154399782925,-0.2652874640899632,-2.2458508522077,-2.420478705187458,-3.158892581388298,-2.228581738537111,0.3591230827125645,-4.463792491308035,-1.4964916487890818,-0.8105837806541148,0.18086627066609812,-1.6908433114260895,0.12390732374537311
35,-0.13465679988551915,-3.243091957356034,-1.627619617774883,-2.9230706715212618,-2.2079998372757292,-2.864007584070714,-2.829231079018489,-0.07631467337357856,-3.9950708412391545,-1.498858872444906,-1.8153634940519938,-1.6349699396244939,-2.6816093511144925,-1.9055940232688364
36,-1.2127641758113097,-4.050696105953386,-2.902898722484809,-3.408505382086645,-1.9089694084539852,-2.327101322153509,-3.1707518729615027,-0.4312053450034691,-3.1511743521238946,-1.3748353038737042,-2.6553945272312576,-3.222759022476606,-3.51934193412475,-3.7188303812333943
37,-2.203270479929917,-4.584729742034945,-3.949017396657329,-3.6239906914955142,-1.5102950797236427,-1.5698349961083051,-3.1849598092831126,-0.6273894683565657,-1.964320336756849,-1.0874547182071292,-3.2110939239740386,-4.411279468864655,-4.073730602801557,-5.101831753101503
38,-2.968952270065259,-4.748236560067948,-4.640862576948494,-3.5120433612935518,-1.002547303801739,-0.6375899121737456,-2.838937336116981,-0.615219151362636,-0.5123990962977645,-0.6214222262303651,-3.3925329456786057,-5.069797095800649,-4.237528155807042,-5.884640750866441
39,-3.3916491918683342,-4.474704944614903,-4.884738003018266,-3.045175070894196,-0.38568720904700593,0.4028225383078497,-2.140952036030485,-0.3807166784698531,1.0869234137048793,0.011956983040211304,-3.1521744261720253,-5.122650292226171,-3.9432731996599504,-5.962692730916699
40,-3.3886283758484326,-3.740249260632093,-4.630041046006055,-2.2325216286192573,0.3259947347449628,1.468273855982747,-1.1414009774941352,0.05281947818208964,2.6884229788504137,0.7735982073367852,-2.4928421339940554,-4.558379462848973,-3.1759516093243874,-5.31126127763495
41,-2.9254436670782304,-2.5717088762967264,-3.87675960361762,-1.1226548255632434,1.1007987533431414,2.466826562084301,0.07144511503548837,0.6288003237508715,4.136271594226377,1.599457363137418,-1.4697347053330376,-3.4322516708794444,-1.979589072380363,-3.990931448597633
42,-2.0234191838572784,-1.0491465674266318,-2.677757401847463,0.19816272751552705,1.889239852593389,3.30684925054192,1.3804262028141998,1.2661188080243064,5.283337641509328,2.407069862581031,-0.1859869285042853,-1.8617002031604653,-0.456449890938983,-2.143067916842907
43,-0.7604818163061668,0.6981828994146212,-1.1353570001536004,1.612486190116142,2.6268374009794146,3.906686417481834,2.6521057569637096,1.871224558359391,6.010013984494691,3.105039968510858,1.2179402322926187,-0.014945389124139709,1.2415818546923427,0.024575637511261312
44,0.7351397639324279,2.5025418055946798,0.607647474962543,2.9825582649283033,3.2400397928139286,4.203707659418337,3.751450614196154,2.351605839922664,6.239789793028677,3.604325532974933,2.5799805073836395,1.9061872991213422,2.9288445482317758,2.2607433499558707
45,2.297932354609178,4.1743561396050834,2.3817766967289957,4.164531807129883,3.65472566339526,4.161600351911103,4.556785552693798,2.6286928129572997,5.949264890320945,3.8299140302762624,3.735544984569253,3.687560686771493,4.407353969560329,4.2995911166839385
46,3.743518975580561,5.523179023240779,4.008095408332795,5.024516516141904,3.8062414714724606,3.774968590383423,4.973250592117188,2.648412501796568,5.171144139821991,3.731395049906572,4.537705250064959,5.125915054318,5.491377599732034,5.892302665381701
47,4.8903990484108855,6.380606789942853,5.317070196050957,5.4545667036661865,3.6495818144687915,3.070630752122877,4.943240437520982,2.388084024042993,3.989796851557641,3.2910141169271965,4.87595772366025,6.0514319718554175,6.032021500016709,6.837599589300433
48,5.582389750604385,6.622305126305105,6.166976534614754,5.386604740168564,3.168160184745378,2.1054210976849363,4.452735533781907,1.8589460315794177,2.530055751168959,2.5280459376044884,4.6911043090243325,6.347118362904237,5.938494843363039,7.007313565381676
49,5.708940213763882,6.186187675416263,6.459752049570749,4.802420500718714,2.3796928580135073,0.9607380782456878,3.532968973610393,1.1042527403099127,0.940900151944401,1.4987374896792338,3.9841734005113203,5.962720203893354,5.192946805811156,6.363658205784631
50,5.220650239294573,5.084087991156142,6.15242706587579,3.738296741829726,1.3380304793387308,-0.2655191427908467,2.257430766900401,0.19346598789823147,-0.623618272013,0.2916066899294039,2.818004217039508,4.921427923311047,3.8564678878558643,4.965768407679487
51,4.137850245414014,3.4049660349846826,5.262735480002624,2.283436861191621,0.13028601216317362,-1.468678690385073,0.7347138568196254,-0.7864652037485282,-2.0234848186639436,-0.9815159029368391,1.31105235060871,3.318429697371626,2.064948910783143,2.9643696084868156
52,2.550927940636424,1.3087129807032152,3.8681625379003823,0.5721316718966655,-1.1307446737597995,-2.54756426769673,-0.901904500988663,-1.7414563907912821,-3.149169519785044,-2.197721798240447,-0.3759768345413623,1.3113153298159685,0.014856431139207113,0.5849417371928318
53,0.612107762513529,-0.9891765828327597,2.098437266370373,-1.2296103927898516,-2.3181850894174145,-3.414144317672985,-2.507008906908532,-2.5808935497280365,-3.9331202387536823,-3.2370583059875924,-2.059055607444862,-0.8966906545566531,-2.059585465291372,-1.8987489166189628
54,-1.48053978270834,-3.2405807995435993,0.12222972003802039,-2.941539562172102,-3.3053936445250085,-4.0015046825409835,-3.936485697539302,-3.2272054932744316,-4.354735255367296,-3.996568830206779,-3.552913325704109,-3.0788159771563697,-3.9150418872109602,-4.1975796636805525
55,-3.5051007405454095,-5.192836500492897,-1.8705234972538916,-4.388786871439342,-3.981219996768684,-4.269311426898142,-5.060647709242729,-3.623359558145823,-4.438210166810456,-4.402477945659473,-4.69340043007498,-5.009644746985642,-5.329859434259897,-6.0423971711411415
56,-5.241299915060879,-6.618642411307034,-3.688737682834358,-5.421378245170737,-4.264207670646733,-4.206253074890918,-5.775944307621266,-3.7375881259580277,-4.243728719910879,-4.418863118750464,-5.357221525622174,-6.489983796139153,-6.132904598106084,-7.2173025752861575
57,-6.496445673399821,-7.344126529378404,-5.160514376732454,-5.931357564806024,-4.113807079193523,-3.829339046961725,-6.014315775506988,-3.565055519508495,-3.853515035863462,-4.051613724153908,-5.476485899134991,-7.36882017928379,-6.226499481976676,-7.586655914163119
58,-7.128675885658906,-7.271502934720923,-6.151392954337556,-5.865467021968596,-3.5369960522219217,-3.1803367595006047,-5.749439201745443,-3.126571509998402,-3.355129432866092,-3.3471277652166607,-5.046232743133244,-7.559812243267932,-5.600207620257225,-7.112288707690763
59,-7.064564100401143,-6.39326358475861,-6.578395673260018,-5.231798996445013,-2.58926405491596,-2.319994717351586,-4.999329026730771,-2.4647978084654008,-2.824914171858155,-2.385936838034672,-4.124029339606695,-7.0503623896440475,-4.333385735992415,-5.85858602415674
60,-6.3087322122333855,-4.7957764814095105,-6.418169547322667,-4.099494546473052,-1.3696264520163366,-1.3209614863501844,-3.8250111926708072,-1.638639055414384,-2.314551338089757,-1.2721658656502364,-2.821783541398186,-5.902162141064559,-2.585895464070205,-3.9845900369528735
61,-4.9440374774039855,-2.651412051294359,-5.708193651009926,-2.5913631538321926,-0.010107644939405377,-0.2604219647143158,-2.3252962426464,-0.7166402501809204,-1.8432262753370494,-0.12032016711509039,-1.2909289781076747,-4.243104781802982,-0.5779760975772312,-1.7239272169535222
62,-3.122073720205903,-0.19976165074838423,-4.540868596334564,-0.8701556296068701,1.3391295829045904,0.7865896144030086,-0.6280275456460608,0.229773642560886,-1.3969391680337386,0.9587372548838827,0.296991318021656,-2.2515237272665405,1.4381957657932702,0.6450224936838584
63,-1.0450050828286785,2.2800357366970476,-3.0512308852735384,0.8799683438110414,2.5272259261424592,1.7524648265913074,1.121455589539837,1.1324724234800851,-0.9352164962342591,1.8706605974144197,1.7717170636305335,-0.13470137124061812,3.2115092378487353,2.8349308869236225
64,1.0590503672693312,4.5025864154917485,-1.399898647412975,2.474588551147173,3.420474873026418,2.580490373835568,2.7735763610611315,1.9316444516981468,-0.4040621433350657,2.5475945296041727,2.984773615706001,1.8956427734724417,4.525005535513509,4.586612433416704
65,2.96393947972476,6.211014682005009,0.24648483912920371,3.7502124396023264,3.9183213616640136,3.2265037018837743,4.188210872043942,2.5793383709242117,0.24728320883038626,2.95396833718716,3.826386537200987,3.647759945893674,5.22446754032204,5.702426717265229
66,4.473037655398539,7.208740216527254,1.7346996600974083,4.582870345856331,3.9654625965847607,3.6590755796393473,5.247438317015887,3.041442732087043,1.0490752848921738,3.087505791616197,4.236659947598753,4.971059675568797,5.238495358880965,6.071424336608971
67,5.442799404791625,7.3840550705107,2.9417158132115087,4.901782938080887,3.55849251386402,3.8587966921573003,5.866061760630879,3.2982487674366667,1.996856036729353,2.975601041358003,4.209726585512909,5.77140526272662,4.587210335955224,5.682735864041625
68,5.799161476034606,6.724158641391468,3.786624416452643,4.6963919400790255,2.746232355177881,3.817319238552318,5.9988527626407,3.3439023465657662,3.04342819899566,2.667921282894855,3.790609644607144,6.018671868198753,3.3783277292235505,4.625301208442906
69,5.544644248852518,5.3166641553013445,4.236324553785566,4.015917544460515,1.6237093194782521,3.536702807158584,5.643841934169984,3.1851220660941557,4.099064215282235,2.2266426671514594,3.065584986454322,5.745813338825447,1.7911449633399064,3.073946051092274
70,4.755292724275954,3.3382571472216314,4.304506673843228,2.961600468451713,0.3205722771425263,3.029367157769977,4.841419413894642,2.839538836614466,5.040483379388662,1.716018746335314,2.147732658146379,5.0398778051267845,0.05073926053773496,1.263755819814334
71,3.568018916265665,1.031935013649199,4.044476120462834,1.6727592691139783,-1.0145451965711714,2.3186324618650342,3.6694632634071476,2.333920360673541,5.727486021429453,1.1929831958783625,1.159983770303971,4.026529864148028,-1.6039080467564473,-0.5436147831788367
72,2.160243041709087,-1.3241636184723717,3.5372550203523447,0.3086027629577659,-2.2316887157943945,1.439518598115663,2.2351235010697166,1.7024184421994288,6.024688121319407,0.7002164195157591,0.21821954309464234,2.8505139969526874,-2.953259181892592,-2.096885102285881
73,0.7247825789874112,-3.4521592779095327,2.8770435756769888,-0.9717369531327541,-3.197012430594958,0.4392604525855511,0.6642099172542092,0.9848552554925686,5.824820184502972,0.2626142800999682,-0.5831637185928831,1.6549990881171603,-3.827234617245118,-3.1900610347964733
74,-0.5564513040762677,-5.1093042303224765,2.15641111330249,-2.0283211120709423,-3.8077923720668276,-0.6230716247334114,-0.91066752938392,0.22497542828678616,5.069696832862968,-0.11253250208586806,-1.1813174286212274,0.5627992526921259,-4.127610255389948,-3.690347599307379
75,-1.5363067009648121,-6.117680149486853,1.4534851558795632,-2.756254839998775,-4.003225545854514,-1.678363960041542,-2.361990430137054,-0.531447613277716,3.765266419695904,-0.4320058552973382,-1.5495071310897013,-0.3379347163010653,-3.8396844384873225,-3.5551521197424707
76,-2.120590197633747,-6.384850934671847,0.8229469633130694,-3.0964010754346782,-3.7698397699748174,-2.6509518394843323,-3.578107384672818,-1.238743975889927,1.9880429687826622,-0.7107200645560753,-1.6959743417304483,-1.0017425408865226,-3.031739437356882,-2.835906255319989
77,-2.2782882688401305,-5.912916320340408,0.29191963913956814,-3.039864499185498,-3.141100261466677,-3.463785125549146,-4.47193163451135,-1.853743042522392,-0.11845631413641806,-0.964721867314861,-1.6577747280580306,-1.4268164604825746,-1.8426587029012764,-1.6683892792659092
78,-2.0426591540317958,-4.795055951561475,-0.1390154070412226,-2.62603162654767,-2.191577123981355,-4.044909205682094,-4.986880046655851,-2.33835917975699,-2.357122752196834,-1.2046239728717492,-1.4909918467087475,-1.649210414576027,-0.4598019715002627,-0.2511987665313057
79,-1.5033311292975784,-3.200373202920173,-0.4902695351214982,-1.9347976001607745,-1.0267164690018924,-4.334619158699598,-5.099708753088857,-2.662192758083171,-4.4988991410848875,-1.430829084988066,-1.259170128204618,-1.7316010469717036,0.9093852932268282,1.1843108652050578
80,-0.7907630512445412,-1.3493935225964853,-0.7944437836317406,-1.0743012000521317,0.23025600575678545,-4.292454299000628,-4.820245431164358,-2.804895425320317,-6.309839106153062,-1.6315173913275713,-1.0219301968108163,-1.748651060762056,2.067742566521072,2.408158550116607
81,-0.055415528105031725,0.5162620149429467,-1.085990656691045,-0.16594939423561525,1.4525305621607174,-3.903127338597749,-4.188326806725588,-2.7580186357906253,-7.580011402124363,-1.7838165786416613,-0.8255295828763981,-1.7714321640530057,2.856312975649146,3.225008494306139
82,0.5553701526365762,2.1658566988171004,-1.39121444274822,0.6712887610450445,2.5232558910975946,-3.1805338595461303,-3.268490759359089,-2.526089439550458,-8.150440201461656,-1.857953442473361,-0.69667132596424,-1.853396044992784,3.1758837258261514,3.5019104439885727
83,0.919547971778416,3.408922009271748,-1.720351531777621,1.3353910904459172,3.346918192533229,-2.1691562138894858,-2.143129609192158,-2.1267294474390495,-7.934547645210067,-1.823608773050093,-0.6402390388988514,-2.0200551826729565,2.9992742662532574,3.1867373475675005
84,0.9585443000016126,4.118270710577688,-2.0630874219806565,1.7529304861754633,3.8574561335235824,-0.9424399141222618,-0.9048798040093946,-1.5897328983682537,-6.931280173427515,-1.6572602600672293,-0.6409647595728641,-2.263913674259365,2.372918516485262,2.3149448828366137
85,0.6489591496873583,4.243811383446171,-2.388292019883629,1.8866234322481097,4.022515389307808,0.40195431476240845,0.3509968006072966,-0.9551286018041111,-5.228140635794053,-1.349075070064173,-0.6684269807597887,-2.5453666172700276,1.4078545675904524,1.0039511897493216
86,0.02620900304985527,3.8156229581856898,-2.6480731946040157,1.7380712366367561,3.843770013628534,1.7497737879251778,1.5335889077644256,-0.2703532622381959,-2.9935765332565194,-0.9079430191292868,-0.6843176725536191,-2.7993790339878797,0.2617224792071576,-0.5638526569608829
87,-0.8203729707640786,2.936204357251439,-2.7855561500191595,1.3455693093718613,3.3537112649963783,2.98009383883373,2.5621906374113363,0.413250853854519,-0.4594485725048511,-0.36352147175544125,-0.6506578584873827,-2.946884355337036,-0.8854210873570517,-2.1669325617855395
88,-1.7603016810609926,1.763250820020161,-2.7451895971919336,0.777437160977478,2.6096720806748825,3.9766715132266857,3.370768428239953,1.0443394958638428,2.1045093740718843,0.23534726891212193,-0.5375935322653762,-2.909127072261394,-1.8578834674468272,-3.5756215765708474
89,-2.640815773485046,0.4855386612129973,-2.4839440670950528,0.12183550904353187,1.6860812722684408,4.639653623520122,3.9109833262671465,1.5755614236514313,4.421345181714449,0.8258631411672296,-0.3295523799061621,-2.622714010261505,-2.509860849446828,-4.584035777387042
90,-3.309257163158201,-0.7046311621738789,-1.9815647169334898,-0.5255652737578026,0.6660136359399925,4.896433736045985,4.153882627022321,1.9673258613297058,6.239089959973457,1.3395046386441205,-0.028851008152198022,-2.0529988311732685,-2.7461263507960427,-5.038578440570314
91,-3.635831191628379,-1.638578813970733,-1.2481018868309046,-1.0744611919015885,-0.366968389487451,4.710438842831633,4.090478244804774,2.191039864043472,7.36065558165695,1.712068194797673,0.3437408249210411,-1.2036265836718045,-2.535050616703879,-4.859227229671207
92,-3.533522847832961,-2.194243022408632,-0.3272683601674713,-1.451679862092884,-1.3358698794368058,4.086741583884228,3.731451028423949,2.23155026614801,7.667737392930638,1.8939171883813422,0.7515094268062361,-0.12058705298967101,-1.9122447198773536,-4.050790965299341
93,-2.972289707965927,-2.311911429563999,0.705265685983446,-1.6103335530554972,-2.1756610605719584,3.0736430947911995,3.10616250375373,2.088574956740489,7.135636749955278,1.8587133440329908,1.146959812058466,1.110096608227668,-0.9744539306786214,-2.7026706687285706
94,-1.9854146969718396,-2.0006138687319948,1.748792878858302,-1.5352092673410398,-2.836750095025331,1.7597452818597443,2.2610423032138423,1.7769669145945497,5.836927679363483,1.6090533823431064,1.4788267217069213,2.3709858174154497,0.1352905745015857,-0.977197931311021
95,-0.6669858218974322,-1.3344487312407247,2.6890450889696944,-1.2437529590775096,-3.2865391559016417,0.26650489882729056,1.257296184758077,1.3257250863976904,3.9332183774402347,1.1778577457319397,1.6998575159259313,3.527138260776492,1.2490250832055105,0.9118449417947148
96,0.8392741341258917,-0.43955609126302664,3.4128038578050117,-0.782603272008682,-3.509301177004707,-1.2632058040168463,0.16779764544402392,0.7757549945634359,1.6557626424151846,0.6250041330457139,1.774172070923283,4.443465388355271,2.1985667292121978,2.727597832423206
97,2.358358054204309,0.5262107307624415,3.8236343657453964,-0.22023677490113672,-3.504772707908444,-2.679476175781469,-0.9269762573444545,0.1764907994750512,-0.7228294934108634,0.029471586588529445,1.683061955966278,5.003104347080301,2.839986778390158,4.241533783452496
98,3.7069837017326295,1.397828396102597,3.85642645239337,0.36318341658548925,-3.2859322116414735,-3.8411644171768566,-1.9440131669700145,-0.4183858386229574,-2.922264532379416,-0.5219654455174128,1.4283230557387976,5.124142454826861,3.0743106283402706,5.263646225759753
99,4.718048638107053,2.0281982784378236,3.4884713614711678,0.8872868049556334,-2.8764227081649434,-4.6313354539733025,-2.8037121063993244,-0.9557700362231693,-4.689269547030967,-0.9478147019657354,1.0325951983530282,4.772204846570928,2.8614946478490575,5.667330322314514
100,5.263096595706085,2.310098174618953,2.745213995568495,1.28266596060088,-2.307995102254762,-4.970461090636922,-3.4363589437602755,-1.3880391919463504,-5.828732461708052,-1.1846525518533235,0.5366531275695235,3.9669756777886676,2.2257452479689057,5.40562283003574
101,5.269644134078257,2.191811185764919,1.6995476596423538,1.5001700241452045,-1.6182170227838986,-4.825697233528645,-3.788557643178988,-1.6775286085803764,-6.227104482158516,-1.1975088707149124,-0.005925308848129585,2.7815860016507155,1.251538275911356,4.5166735875172135
102,4.730956053152173,1.6842285986506853,0.4644521068322298,1.5170485214092022,-0.8485421254887426,-4.214977239691089,-3.8288803405059917,-1.8000910582274965,-5.864936652262491,-0.9860561113231835,-0.5358834702315252,1.334829735041637,0.0710670014577761,3.1178184177663786
103,3.706938949299022,0.8585111520001069,-0.8202307867954203,1.3391511571744072,-0.04269856006163955,-3.205278708779398,-3.5519472145631474,-1.747353657882878,-4.816945070252057,-0.5854492571424641,-0.996116159474003,-0.22279882451147973,-1.1549160461636394,1.3891925655064312
104,2.316084707323496,-0.16520132588017103,-2.0051915396942888,0.998977751559081,0.7547408140938348,-1.9051560706215502,-2.980237114509218,-1.5274390397540776,-3.2397656900864806,-0.06152533326167125,-1.3390474092477656,-1.727371369105337,-2.2599791213351628,-0.4507562883568553
105,0.7196600149011716,-1.2362247281238041,-2.950861633459965,0.5499828778644724,1.4997844308693207,-0.45238356080363495,-2.1631585290220294,-1.1640938007168375,-1.3492952847416713,0.49899636707207123,-1.5325078393777474,-3.021615102625973,-3.095256451063981,-2.1744212744473717
106,-0.8995737378375144,-2.19606524524923,-3.545752846541253,0.05808262050521567,2.1506053840467145,1.0017880218842938,-1.1732410287853317,-0.6943336659487298,0.6090486476495659,1.0018341311846397,-1.5633237537827913,-3.9740947241642655,-3.5497320507396743,-3.5748340141298867
107,-2.361071342417347,-2.9020030053276287,-3.7213095160196175,-0.4082938570120884,2.6693791308440242,2.309796593699961,-0.09968277165003796,-0.164849313588073,2.3928963694776977,1.3599046029099349,-1.4381915733091313,-4.494896164393297,-3.5647508112142687,-4.492058593758953
108,-3.50930310816223,-3.247992015270002,-3.461114905277847,-0.78807956794498,3.0243775558319257,3.344205931781024,0.9601498849061045,0.37248683573093433,3.7937957586213242,1.5071818367784855,-1.1818196945593318,-4.545733205783527,-3.1408595955816607,-4.832667161309025
109,-4.232499720966964,-3.179800599957012,-2.803086949991035,-1.0358999491389427,3.192213859634395,4.011383424973458,1.9103804439929328,0.8656073386990009,4.662250579432984,1.4094283666596248,-0.8327186379446271,-4.143208477149975,-2.3362489554014974,-4.579799251722096
110,-4.4748703327923085,-2.7022404188165914,-1.834312160221993,-1.1276763034883603,3.1600308536540083,4.26078759122673,2.6663590885442408,1.2672821216955992,4.9237741619363025,1.070053310149288,-0.437352760178192,-3.354945861990201,-1.2573031932718666,-3.7926634084803195
111,-4.240849699584924,-1.8775727795441732,-0.6792422213266212,-1.0627913883405942,2.927347486836567,4.0888480229012,3.1633431310173843,1.5397295550174916,4.584201960498365,0.5301241247183324,-0.04358330669636026,-2.289318662009703,-0.04288200207346641,-2.5958410077990957
112,-3.5911427952097417,-0.8155377456905007,0.5170541459926632,-0.8626722220625603,2.5072412408738183,3.5371511700894884,3.3630757787331746,1.6583514119903382,3.72409451320357,-0.137505625865565,0.3056010690182939,-1.080372814536498,1.1552117888902755,-1.1601786918795303
113,-2.6315344234306135,0.3432907445662833,1.6081821261688594,-0.5662083897135501,1.9265585411621033,2.685388336271686,3.2574503738761837,1.6141902230138139,2.483597793182895,-0.8390467158319643,0.5771654229008713,0.12984036349972072,2.192687572938384,0.32180259371908043
114,-1.4964287751769045,1.4481569157323333,2.465509043742952,-0.22289164587245858,1.2249165987429562,1.6401770475566864,2.868798372803816,1.4148081405502109,1.0403852872166899,-1.47390304972891,0.7512599604154114,1.2090351179484908,2.9512608581525988,1.6623635864215414
115,-0.3297317969354485,2.3595912742556213,2.9943764345118615,0.11513807785154997,0.4523865836376809,0.5213482901038913,2.2467643838003966,1.0834340984265267,-0.4158853371642407,-1.9498618989190675,0.8222793744670106,2.0501792555536675,3.3527294762944075,2.703107068143241
116,0.7340957835101343,2.9684905118774823,3.145235768252792,0.40086406106329275,-0.3340828019718373,-0.5524603239192427,1.462170815356029,0.6564117118246621,-1.7088985680312312,-2.196966850933311,0.797802244358888,2.582756802877813,3.3669409215853943,3.334298770911395
117,1.5862104500035545,3.2100870465569322,2.9183022584902263,0.598822665085969,-1.0752567556781099,-1.4770778867354764,0.5986623015074011,0.17918443631428466,-2.697360441295596,-2.177910759246365,0.6958027321204729,2.7785669682291725,3.012924325434514,3.5065005263560245
118,2.1547720606316454,3.070965970933369,2.3613034162602067,0.6893218239130017,-1.7148073938264579,-2.17337202452231,-0.25680452319062064,-0.29875164521232206,-3.2903408519844364,-1.8933476510469864,0.5407686506365401,2.651660449571236,2.353463688418973,3.233284288515721
119,2.410374939589206,2.5884099485097933,1.5609087738820688,0.6699789895181496,-2.2045710574995394,-2.5940075599777077,-1.0234393007921372,-0.7293454822938249,-3.454660358887451,-1.3813433809606939,0.359463137851001,2.2528520927631663,1.484279216138209,2.585134687674688
120,2.365297478944867,1.8425367528636019,0.6293100361386874,0.5545525731076697,-2.509272592359601,-2.725855728855614,-1.6349245142716602,-1.0712764409224669,-3.213932116885693,-0.7111318364175985,0.17702716191073045,1.6599630899816296,0.5196448155086939,1.6759059603456627
121,2.067241669761839,0.9427576228966519,-0.31194831226574304,0.3694575169953358,-2.610134509858452,-2.588122414866846,-2.045609612922616,-1.2943738772590745,-2.6400694913873513,0.027740638560838728,0.013964965867044004,0.9654446964816633,-0.4233702923637879,0.6441973634773804
122,1.5889612686214616,0.010867769321884796,-1.1484902886161226,0.14868329613469097,-2.506883012874712,-2.2268114190218924,-2.23396638773442,-1.3826219981470445,-1.8390705689782785,0.7390689958588338,-0.11567044247822937,0.263265252831894,-1.2398174351172029,-0.36738497209768145
123,1.015642250609652,-0.8365306446116939,-1.787648628896842,-0.07197513179140987,-2.2178295088834363,-1.7065576423411983,-2.2030595230617456,-1.335389327711809,-0.9335608122974183,1.3342071565532148,-0.20482058217078636,-0.3631097548629489,-1.8490056997762467,-1.2319738920315493
124,0.43205165420888925,-1.5036261086144322,-2.1690943011410466,-0.26042849502938653,-1.7779292032384508,-1.1011079444913678,-1.9781765135184044,-1.1667651309713938,-0.044836562863099234,1.744578708905834,-0.2528443643827609,-0.8501218954996409,-2.2024590410084897,-1.8544172796313663
125,-0.0886913318992187,-1.9268369988558374,-2.270295445748429,-0.39271981308358445,-1.2349725521376054,-0.48377688387889467,-1.6021070924246785,-0.9031433365441989,0.7230101958898708,1.9305606331739176,-0.2641341735396174,-1.1598853192291263,-2.286983244952148,-2.181434915898024
126,-0.49329642283355624,-2.0806970302968377,-2.1063707987163562,-0.45578014986753174,-0.6443177181615252,0.08092730090320008,-1.1288199136953194,-0.5794265014755652,1.2948406848592893,1.885489404084776,-0.2463204953483911,-1.2818948406598427,-2.1228662147132438,-2.204910189672491
127,-0.7526131423655511,-1.97774256788326,-1.724749558921792,-0.4482408434099958,-0.06278524262765692,0.5435878755446197,-0.61642586529746,-0.23439377807011252,1.630846169928872,1.634400436432344,-0.20845408891251163,-1.2308678646125017,-1.7578993556296723,-1.9583819178608621
