,AF3,F7,F3,FC5,T7,P7,O1,O2,P8,T8,FC6,F4,F8,AF4
0,1.277732641984769,0.9633979756664804,1.1219902660042014,0.8555002427105112,0.39102130875727914,-0.622481355923962,0.39914889340829646,0.521972895672655,0.027190467006249223,0.9764403859094204,1.1042652311222791,1.6686249012499064,1.3110051222651966,1.671426911893714
1,8.96595436998452,8.734385118903734,7.355203470223968,8.356420967359359,5.022631255592432,5.709711553882164,8.117764319108451,11.80488661117026,0.6296844635061375,6.952576630057867,9.29514547695645,8.765470020735071,7.319291929186049,11.180343475908321
2,14.6758879232288,14.584473583630901,11.882894766343126,13.995322973769495,8.570773743204192,10.492850883543502,14.051422759083824,20.672641817354208,1.2068352857382014,11.728493165224604,15.551424983869266,13.911321146652853,11.790317802182052,18.28427039045091
3,17.144419911334953,17.272575731811333,13.658146923043828,16.548698069962867,10.321936459685288,12.517405046669264,16.96610248343539,25.317622640051308,1.6936403802761146,14.438527358366539,18.55463983429083,15.948965097508108,13.758831038299146,21.428834655541234
4,15.8410515828431,16.276519343676473,12.290300019547622,15.512083341673641,9.954451513675682,11.342827892907433,16.271980914032753,24.750828871304666,1.9779098138944406,14.492251291086575,17.649727249773154,14.427868022083695,12.768027082349338,19.91279246414487
5,11.077259807165154,11.884459829897496,8.123930057059313,11.19138912691528,7.58785465536393,7.399290884838864,12.136181344036613,19.017030991341265,1.9279973944418074,11.704258317201077,12.989935928804762,9.698030987930872,8.972328389111643,14.04129902790538
6,3.9236574703281635,5.099273522305762,2.1402240387526774,4.6000551578740305,3.737226736705757,1.8377734866704518,5.443239182903591,9.225381057028798,1.4491798022287894,6.4006756396576145,5.524399613031875,2.821676825134267,3.1239087108309946,5.066595684701011
7,-4.041498898738287,-2.609914053588223,-4.288222462021551,-2.8006983495649425,-0.8090412223779726,-3.8202422899179926,-2.3881717116409735,-2.6304810259285505,0.5455496139586228,-0.5473891322197175,-3.180819292952898,-4.674244930085809,-3.5625597760689462,-5.075247459197861
8,-11.09044366834878,-9.641069341568748,-9.723388501372435,-9.444697458804258,-5.155108767145963,-8.122957034682784,-9.697507290825982,-14.051370362559625,-0.6421079969976927,-7.811434800828046,-11.26374511427862,-11.145494636524752,-9.649694841076169,-14.179856570829452
9,-15.726245763404142,-14.596346208153594,-12.987173798603822,-13.999684954309561,-8.470098135892156,-10.084574828242207,-14.927724545046873,-22.551920444957204,-1.8457126539369928,-13.833564896605926,-16.969042903692962,-15.196554201576813,-13.779994074786535,-20.25551034527592
10,-16.999458547850196,-16.550489096256985,-13.410861518348904,-15.626437145023782,-10.135252239576921,-9.423224860050503,-16.95548709628602,-26.216978635235378,-2.732656254356067,-17.1666091245594,-19.04394346890793,-15.981322414554118,-14.979599553503604,-21.964263934213957
11,-14.694005745083011,-15.203004846034409,-10.957685409963432,-14.111423589884788,-9.844802588299803,-6.58000290347466,-15.337507874678346,-24.1653409464389,-3.0064051878668345,-16.84900404014062,-17.031472412375653,-13.37235230543164,-12.893578851425577,-18.92265484155066
12,-9.348506188650942,-10.898196330671105,-6.201446397827094,-9.862116111010813,-7.6509787779637275,-2.5288383490252233,-10.417565032307799,-16.796947732167634,-2.5119066859335324,-12.707193136345326,-11.383417309066084,-7.965820724639689,-7.892073100386845,-11.790430564007448
13,-2.1177906280436103,-4.525817649362467,-0.17793645568453406,-3.785312317528196,-3.952242044678505,1.5500308756074337,-3.2648645684986333,-5.7425513976353555,-1.3068146499286157,-5.482655730963135,-3.3584069702717994,-0.9293580613808724,-1.0131428953807484,-2.123791063270193
14,5.48646304701604,2.665696632950709,5.848644983554355,2.9119194761727507,0.5711937582298,4.624016071453869,4.550410333724022,6.49256620879207,0.33165125854731436,3.277805676097437,5.2732837504953665,6.264269327110421,6.25328153532289,7.974526789157937
15,11.914719780204193,9.303484558297606,10.649581417083251,8.95360594199705,5.067480398203801,6.081142180646593,11.301187782572438,17.115936139582654,1.9732740757330098,11.562208036111059,12.644030853132818,12.151960849385768,12.29529523271989,16.326762584559642
16,15.890050201673706,14.132808037345374,13.27187548875709,13.218515911088971,8.658018075682227,5.847941209838044,15.493262028723004,23.722425122394952,3.1578062392456427,17.38530392322917,17.216010660896778,15.573208184822752,15.746619125674677,21.16238201279031
17,16.649845499528862,16.233820142342687,13.211966229277834,14.925857540128813,10.59987053644211,4.332692106152438,16.211013870232705,24.880355496330466,3.5358999600119536,19.30112526293162,18.113751061911536,15.883255630701465,15.80363708854056,21.498941122392793
18,14.077421151294436,15.184183484951843,10.497047087498471,13.762262074117968,10.44033099017566,2.2301525126836927,13.334624563124203,20.471875309720946,2.981136754360732,16.79121072316454,15.284402934443909,13.052605970595078,12.41449132949686,17.336475598055188
19,8.706373560072896,11.144275155871112,5.666573336820233,9.936183480804011,8.131767654001829,0.2634045897780726,7.571537506432168,11.695592799377337,1.6345108613796684,10.414783270498548,9.45856591027225,7.64645662025551,6.294160800872899,9.627906725240713
20,1.6046578242783098,4.847671955739355,-0.3367983369658425,4.151143907472434,4.074746585238331,-1.0490895925379125,0.289090805976991,0.7335690769627811,-0.13493150333421533,1.6745849116438811,1.9390009890377964,0.7010257296991557,-1.2373327991006475,0.042745863801314996
21,-5.834854018522289,-2.5107880137911653,-6.344652780683589,-2.5041864750512017,-0.9328420608790245,-1.5292095065051634,-6.814330116078753,-9.821071125946997,-1.8410477178326823,-7.365429444134612,-5.714139783238921,-6.471734200395967,-8.55313045809767,-9.411461597296366
22,-12.157452661808664,-9.481945826209566,-11.177941679361892,-8.740775404632474,-5.843261526523344,-1.3431461126262965,-12.119339810380609,-17.614846376536,-3.0265459678941036,-14.603152400097668,-12.016301877582515,-12.514693718701349,-14.08186775780659,-16.817830490518674
23,-16.117564730682606,-14.637086694848064,-13.86494349574456,-13.306277034487767,-9.580165708250428,-0.8848867756311227,-14.473731262546245,-21.086436953751374,-3.396029960683468,-18.41723210457931,-15.83442941839065,-16.257275939584016,-16.649404621552378,-20.73404150139391
24,-16.912586324537838,-16.863200972689388,-13.82702989669348,-15.236206208584298,-11.286885868617748,-0.589662077718258,-13.460329599738373,-19.78183304203049,-2.8939333203084243,-18.043722020612556,-16.5594439037885,-16.919221731927262,-15.72416619883829,-20.456346206105373
25,-14.340624651148632,-15.61743188761838,-11.000692978150694,-14.069465804074802,-10.540978018137167,-0.7481231551158113,-9.47735267125042,-14.368804089184998,-1.7053122406946173,-13.719223297264195,-14.163684052397464,-14.261223535306785,-11.516635859122776,-16.122578274148456
26,-8.853662054318646,-11.078209654140817,-5.871511044328801,-9.976433306668874,-7.476107732526109,-1.3876838962471765,-3.613495252414995,-6.3755562097767084,-0.18434407400304836,-6.569257694427998,-9.159127930403246,-8.659267270702108,-4.919051390185729,-8.65027003234499
27,-1.4920339905239437,-4.146083641928447,0.5929492118845169,-3.759354797890344,-2.7718197705537766,-2.2609148406524056,2.646288182417839,2.249475293233711,1.2610014754928933,1.7093138586355048,-2.484874905084406,-1.0819775113950598,2.6935071527933503,0.4632499367938715
28,6.295963543639616,3.721495749184967,7.108808433043735,3.2900213278303014,2.495151496655521,-2.9418580694505807,7.8048855397153405,9.624197032406547,2.2875815546384524,9.273819851267115,4.64935902801753,7.042376599589399,9.75273590462544,9.43277652401663
29,12.925167576803302,10.816706161818251,12.318998280636402,9.656540316372901,7.106467315494622,-2.9932633204460615,10.725908174453755,14.340326143000143,2.7014763800712247,14.555047822652199,10.946107911839283,14.066583709156143,14.815789585392059,16.515840458117317
30,16.991021037990006,15.565329107009397,15.073627873406153,13.938160092874938,10.001559606055455,-2.1438192365210798,10.89952092266449,15.707154416698076,2.4864545469844663,16.573003074545834,15.218883886150504,18.445644055278127,16.851089062874102,20.329740545188702
31,17.573412623684806,16.898253470645205,14.692347693116721,15.175424156648578,10.542478910977747,-0.4121102249721139,8.535613576004717,13.803247559021115,1.7764546764744327,15.091707436697249,16.59453516500795,19.08297156356019,15.43976492689592,20.107932388498504
32,14.460755507458398,14.516672419301347,11.147801558775061,13.090889465941864,8.67248949244473,1.8667145029062564,4.465539497084957,9.35931622181645,0.7909805485871441,10.602560785256435,14.695778747672552,15.624058680934315,10.85841627502909,15.855694560419309
33,8.236059119033545,8.978621053321945,5.117488430031591,8.172351494226955,4.924112764895188,4.122057361252506,-0.11526865069421473,3.5283843748554884,-0.23819402540931614,4.165222578219177,9.765999874074552,8.614546164248639,4.029188358628355,8.374374406510253
34,0.19041864791767807,1.5773052600485304,-2.124879314972139,1.5702435984005692,0.2732439243854625,5.711307384611663,-3.989509863723069,-2.390615941403737,-1.1230449537136622,-2.8419254067551325,2.6911798126292386,-0.5414996476088002,-3.655586176532556,-0.8619392893912177
35,-7.9337282665821265,-5.964913729894935,-8.97103063150485,-5.172969814776843,-4.1212693113715915,6.113684274521452,-6.2489988513852435,-7.217694764245174,-1.7440450498857654,-9.004046969061177,-5.11667094914445,-9.843703389190624,-10.606090022604796,-9.97132170715322
36,-14.32445802717769,-11.91350490155676,-13.844093044297912,-10.497915531773021,-7.221127598015961,5.093762982827918,-6.522924790588435,-10.103488234336705,-2.0452125314029144,-13.134151723246363,-11.98064882983593,-17.138985871946954,-15.358096827005992,-17.03543361924163
37,-17.524641427385376,-14.94484688582269,-15.585445734245218,-13.213586832395126,-8.371907035362963,2.784613037668087,-5.041950472131788,-10.662550946203961,-2.0133469831933235,-14.481172692405256,-16.327071779590803,-20.649007522544178,-16.88541396636642,-20.511769213260628
38,-16.795344796994165,-14.466448650023324,-13.762647076819146,-12.79189392302257,-7.455019818291864,-0.3338644533240659,-2.524370935899085,-9.01524314112148,-1.659435113779699,-12.855792284078687,-17.079319562137343,-19.445524736212004,-14.835659449534463,-19.59818354834502
39,-12.320116543802238,-10.75057509429027,-8.808706709357203,-9.491591267365965,-4.8894450499851665,-3.554035470886459,0.07747409662273458,-5.734447824731589,-1.0149754421237291,-8.658043521006144,-13.969987417823246,-13.735908434508534,-9.631456145736912,-14.45645285334535
40,-5.185039366477098,-4.8458072731632456,-1.9407638118187331,-4.275685643682235,-1.487361338250071,-6.121754662295442,1.8911197091052687,-1.7037558459510767,-0.14446362243918226,-2.800284109065475,-7.669287215848238,-4.861625527223181,-2.4023670427146437,-6.222307814295328
41,2.8752007984837205,1.7102365776557964,5.135826733439049,1.4577450076328764,1.791117129174059,-7.428208391698548,2.4008549734964006,2.091516684801789,0.8366755134280822,3.4685204606212587,0.3312850243046265,5.012191735848935,5.250901688746101,3.224441035695924
42,9.910820129234082,7.300323967725684,10.669203985738514,6.258924262171047,4.111537431532817,-7.160244565668395,1.6015214696237257,4.801094219827593,1.7558038659720534,8.814289066729438,8.072840737150791,13.448098194506873,11.616465921636498,11.69345512415081
43,14.260785434116222,10.648883889517654,13.331201087764482,9.017624829519212,4.988421025557921,-5.371051850593766,-0.01882836566686087,5.919627196519193,2.402817123070749,12.102403053690095,13.638154714247351,18.383631484224136,15.274993180842767,17.222824966274267
44,14.989976339959396,11.140867922046644,12.581558634821663,9.251453069732307,4.396294188737605,-2.4567449958632563,-1.6618047466123802,5.411230596364584,2.579146620996244,12.656101668292294,15.676432887385234,18.691473310006668,15.447089445163034,18.583941838222938
45,12.133283702430438,8.951578346191468,8.814662715705937,7.208124381769787,2.740587849080142,0.9494691538858038,-2.508421187236854,3.704803549562691,2.164281755400836,10.424170120493645,13.787155905506738,14.48573003761516,12.190427806200649,15.60902163648006
46,6.669907495579929,4.953415284011375,3.2369813258548374,3.752182887795546,0.7021606108585989,4.132801638696767,-2.0213488173425618,1.5497707488700605,1.1760502788692784,6.005985282516242,8.638980642686754,7.07709659257642,6.386634131230384,9.238056170522977
47,0.22781321460465684,0.42893386541671374,-2.496334553616404,0.07093626233637888,-0.9938540219522921,6.4589304196012085,-0.1588996355381105,-0.23376261013504776,-0.202274159930119,0.5135013368845398,1.7755567654986546,-1.4166939724054108,-0.48730587123346375,1.2581126408551355
48,-5.399888230469975,-3.3239799023027143,-6.7807524771633245,-2.7096913596152765,-1.8125574361811423,7.502028637174349,2.574223911338857,-1.0362235550227805,-1.6467513391327036,-4.7061789476551015,-4.842898564967457,-8.692642753290734,-6.747409212209822,-6.200777091361662
49,-8.783706158930642,-5.376462254780738,-8.545323012052926,-3.8789883574569672,-1.5747891211840548,7.112109019371316,5.263502160033747,-0.6772956234219492,-2.770697429938298,-8.4202088501699,-9.426542617946634,-12.92976058688545,-10.946330589953504,-11.270817730523486
50,-9.269503283283376,-5.426312180429455,-7.566531764963801,-3.3518511895840306,-0.5028551523887504,5.415101295015774,6.872101232298649,0.5197310572466375,-3.236504950104975,-9.83565606996651,-10.888887676019237,-13.298183606855751,-12.247457670195152,-12.872368323189585
51,-7.1428353843235,-3.850391909202732,-4.509680809745998,-1.6665076494435316,0.8672332890681503,2.7583318053200445,6.591844752017473,1.83624793283083,-2.866528258378995,-8.804971761089764,-9.154952677212709,-10.154259379735361,-10.621394618448374,-10.997819554669721
52,-3.4912015549941153,-1.5365612303552962,-0.6802979197581155,0.23153036354190945,1.8790365931710107,-0.37394412244228004,4.145214640492323,2.424704710327486,-1.7141858079528183,-5.8454556568274665,-5.142913627665764,-4.864478352287969,-6.807725774551935,-6.662020195836498
53,0.1934831859375322,0.4499389521666813,2.436465123999129,1.3491328528035713,1.9926832398424132,-3.4490288821504826,-0.06395788281853967,1.6480133389796734,-0.06659686374566384,-1.9618553724023218,-0.4235604184652581,0.6803742600371813,-2.0557527412452616,-1.5325384064565775
54,2.5428274051549553,1.2559117317354942,3.697237931766213,1.0278964368563093,0.9884391880302141,-5.960793068487534,-5.010030338230984,-0.628229372315707,1.628271620562138,1.6760835747276646,3.330125343639192,4.699887332076984,2.2735102493332295,2.642166438149686
55,2.793778828703072,0.5547416966523726,2.7064544257972103,-0.7839528654118297,-0.9317661704181777,-7.486772195340145,-9.309857935575304,-3.904904710341847,2.8910845699858223,4.100012459316997,4.91812374591983,6.099143165082118,5.1180858111112775,4.619177026358338
56,1.058493303778386,-1.323241454889958,-0.03516256631710762,-3.470706266115158,-3.18280991774845,-7.7335738911133465,-11.620667639361043,-7.145316240046403,3.3575321118416848,4.834519338973115,4.016943900451501,4.796971490722449,6.009058240119473,4.065939392389192
57,-1.7160126758428769,-3.495230166068583,-3.2980141674855896,-5.931646533867764,-4.968818790048031,-6.579380621199773,-11.054175094262545,-9.086127151309833,2.8939533552848786,4.017105742606296,1.2715552844850389,1.7029025838431915,5.15736155539267,1.644686910996451
58,-4.093071282884969,-4.837924154017781,-5.558639244341612,-6.956581571045647,-5.539771517552074,-4.115317164967297,-7.4788246754760745,-8.672198869953654,1.6428530587629233,2.306152847536711,-1.9584786091382755,-1.6444374523288654,3.3119037927155075,-1.2559680742238868
59,-4.685454545839605,-4.407633024614315,-5.560271948353719,-5.674825131990216,-4.4528591781970075,-0.674672477477463,-1.6114381895579888,-5.4716666255193,-0.01871044509952966,0.6086984879980976,-4.113037838362871,-3.6522412337321577,1.4439373734268672,-3.054225295121882
60,-2.7057505173637315,-1.8272717344836482,-2.8084211637227634,-1.9259098429507433,-1.7538189078414175,3.171963537654911,5.138893037049231,0.0775312252707575,-1.596012957097816,-0.2765909085636274,-4.02765098489336,-3.265789369492699,0.3704807164965993,-2.5911593851328143
61,1.6665431911603823,2.4972367054481195,2.174388043181234,3.5821707212609004,1.985126213432993,6.678737247694221,11.036905437805475,6.69153053660838,-2.631463284604403,0.026314485412718087,-1.4013724698550898,-0.3761717814142849,0.44935281592531723,0.3866307426147363
62,7.241864810760356,7.418598083683314,7.9358832067831075,9.398068915184178,5.791739092130383,9.053975101878063,14.494657652639322,12.55145566243591,-2.8467512541981734,1.3151590604395273,3.034474119312498,4.098052000171529,1.4530896084814267,5.055409067871382
63,12.138043529403072,11.353542289423924,12.513150771254974,13.716428813551467,8.555089843684724,9.64264631575808,14.515677630392652,15.822109742048994,-2.225689206499705,2.8749965420601176,7.717885450417661,8.48988914912657,2.666952292649163,9.730475512354307
64,14.374053368848212,12.76990526931447,14.061522243424307,14.92424955541354,9.348997876401842,8.11983760002868,10.980442995807595,15.224835500959566,-1.0109608154017309,3.749913250533531,10.772616911990932,10.93941378046885,3.1781140751183496,12.415899102645135
65,12.557456843822232,10.70799680161371,11.495753157515209,12.139558426133785,7.722765282453897,4.634833198705075,4.69055771354063,10.483948592332585,0.38294240502519494,3.129808340204128,10.672762711271123,10.048629374699468,2.2551371869270507,11.515642079125398
66,6.440614688202529,5.168150034892067,4.932687079375415,5.570391985581855,3.8705920944003402,-0.15326484172091612,-2.8398246272631096,2.4970831483086755,1.5101155327704114,0.7139250522145115,6.831066492409435,5.421295348526377,-0.3178876426837663,6.46908151969369
67,-2.8496693347393887,-2.7712698013807846,-4.220797787459108,-3.431117548530634,-1.375897064970894,-5.182571220838038,-9.78338174518878,-6.839720111163929,2.0389518094186894,-3.0874359622133487,-0.09681038284722852,-2.0962552703756074,-4.077300664805932,-1.9140444638101912
68,-13.009810350004711,-11.163902871315067,-13.584241128144246,-12.657030027099319,-6.737478064354662,-9.229465614011298,-14.474749719685692,-15.116054079142499,1.854333220261316,-7.20216661852848,-8.312461043543456,-10.56789589312069,-7.95672029716435,-11.556271253647944
69,-21.15351804199922,-17.692581793232755,-20.448456372374935,-19.60920775389649,-10.812598025535161,-11.22795417512625,-15.828964894966479,-20.06721565943556,1.0834545093085872,-10.201242939916861,-15.36889353749143,-17.487147630547216,-10.595279041411402,-19.651682787697453
70,-24.64324077099351,-20.321404200225004,-22.56708256781,-22.19078589304124,-12.451747108899832,-10.57757062907709,-13.592817752113639,-20.21942567287692,0.039400783614167906,-10.772252811884814,-18.916247209523128,-20.519480239592223,-10.787078459364455,-23.49630401378749
71,-21.915877871900996,-17.915650973649182,-18.86060694591573,-19.328061970422997,-11.079161320587502,-7.343117904233472,-8.371377755745945,-15.329382372861847,-0.8951106619875887,-8.207603802639847,-17.46725081945827,-18.24741509586993,-7.927544049513536,-21.359982659655522
72,-13.047703535394541,-10.642383108246475,-9.816372185039665,-11.339687428181744,-6.8727002698036515,-2.2751281981759712,-1.4375191274494807,-6.485713108900128,-1.401727409665435,-2.736276058375462,-10.934488896663312,-10.68718329487045,-2.3038848473921694,-13.122129855713402
73,0.13005080914497816,-0.020882432248586744,2.5482038707531243,0.0639414349408276,-0.7496350209765301,3.368149817135568,5.609683244817536,4.161279165600359,-1.3316554165679666,4.430489892226446,-0.7558900050524484,0.5949975445435517,4.881087305132878,-0.4539306182618362
74,14.426323971035853,11.410384121143501,15.166550421095947,12.166767443394983,5.842887020190482,8.154268760152636,11.237727432165505,13.966313773132203,-0.7473556283988222,11.380094019996164,10.449389593196987,12.82488919501412,11.781540661905881,13.53789030976809
75,26.10653139501183,20.73290241076003,24.725129473128362,21.926046655609596,11.28232454123765,10.871017208411361,14.322000631200055,20.4913249814407,0.11053832160020316,16.03819293328149,19.604820285732625,22.742222554504533,16.412308737196682,25.125731945464953
76,31.911049582124182,25.424550419443666,28.567397193349386,26.767157371259373,14.181001262156512,10.864208802119292,14.358764309638387,22.145178567532458,0.9160286362891217,16.80766506778826,24.067874994443986,27.506790654738058,17.239664327610626,31.008140150956383
77,29.98847264110671,24.05959647993434,25.445662486696254,25.280474361808814,13.746884188989855,8.215792376561332,11.515749929669534,18.58458969896119,1.3753091637916675,13.104877837490223,22.419420153191382,25.529484578525118,13.679026673842275,29.282618404778965
78,20.470943941695516,16.733960735048804,15.905251252647574,17.62831192282197,10.000381622260456,3.707513614047254,6.53125748113317,10.772153160508669,1.3272559842991882,5.6138279817237295,14.908498640838248,16.981185917581218,6.339228410114392,20.04974176397344
79,5.514342173838287,5.089806355201019,2.1858132864511286,5.5449009315956825,3.78783071152964,-1.4179678566037994,0.5067021455608244,0.6872171310699607,0.793079500686481,-3.838363131771447,3.413088961365988,3.8187235518401303,-3.0755514909722237,5.457227660538133
80,-11.224023823320037,-8.077052902863027,-12.341153984265164,-8.079322298157887,-3.4164578665320526,-5.8233201488977455,-5.346463433062595,-9.217576781441071,-0.03925381783997383,-12.763325842899203,-9.075376689404493,-10.695849364535029,-12.192876560140606,-10.843324365604406
81,-25.53625898396249,-19.52757711851419,-24.049418483740865,-19.925280592034895,-9.873029965915647,-8.455990163298447,-9.946769078584863,-16.655095413415467,-0.8868456995945709,-18.71453612037075,-19.291098027010673,-22.85817176127189,-18.61334180506381,-24.67903101458434
82,-33.78374649634193,-26.418801099767485,-30.011554629911505,-27.094694320534536,-14.01413469234844,-8.824946622824323,-12.526190053399848,-20.061326267799576,-1.4719770799704175,-20.001255160996713,-24.60680366845198,-29.52701676422988,-20.582419463837965,-32.497043894957166
83,-33.874109199110094,-27.045245583054648,-28.767993866297036,-27.85567129405473,-14.841837408392268,-7.094548724808304,-12.734070112317559,-18.92874964068161,-1.6144049893398307,-16.194436272632938,-23.751083821721522,-28.98598366510489,-17.495343763638278,-32.33511009023794
84,-25.820552911300638,-21.28078427412475,-20.70104486985277,-22.084137375286712,-12.182020366748054,-3.9762697297135308,-10.657636563678455,-13.84407920606447,-1.284715052020007,-8.266754445045517,-17.12385931835948,-21.412772882381923,-10.083839859135637,-24.342096761196018
85,-11.726015573670887,-10.600898411329482,-7.913024521852101,-11.281667053993875,-6.725037950780409,-0.4643251354191979,-6.769131132595206,-6.245538033971702,-0.6031911525455244,1.6793195306801352,-6.628535626995324,-8.819611356813981,-0.2264456890223089,-10.703095133151209
86,4.8017367217856926,2.3190679827716343,6.354004247183226,1.8345442130700333,0.15970438306673562,2.4908172431783964,-1.8176881074293094,2.009707245083777,0.21126594975525914,11.014339149563178,4.913809223646857,5.517302701580327,9.564465644395804,4.999862527094333
87,19.635252243321787,14.31661752635747,18.591530081582558,14.055825021210278,6.785957213719415,4.261983551931489,3.3120501653281202,9.133801752983041,0.9205088493754526,17.33250570605159,14.5800563916335,17.971268793390617,16.830144334766583,18.795552129412652
88,29.230445596730895,22.56707431281756,25.945013478493863,22.519321123768,11.590433955997367,4.690599544345313,7.751176223651198,13.816380000332744,1.3449081766104949,19.122657464877832,20.14117075149216,25.553249743999167,19.827880094658152,27.400609546899467
89,31.53504357924087,25.29324382500997,26.92598116186894,25.427054848258706,13.52860245952371,4.060528906639368,10.784536307462405,15.454266938082494,1.4126804370800647,16.15962037381881,20.607418751542017,26.687755102169817,17.978636644343702,29.055698816002764
90,26.452402213910815,22.168890577688245,21.724946213413794,22.45191584904865,12.317775108596633,2.9236495648631147,11.955070805532287,14.16649009451821,1.1664425870918183,9.506024483334219,16.38021926455913,21.558374408914776,11.97706772908761,23.893305578827544
91,15.746778783636968,14.316786381216952,12.053917681848343,14.729344989528991,8.46426365721786,1.8501851480720453,11.119903281606934,10.624807428908943,0.7293986460002031,1.1379947955900356,8.997227229103663,11.939915539538971,3.543835744202319,13.758182686527476
92,2.443744877974771,3.921088130944783,0.5857394457824757,4.4561927857777714,3.0759149801036134,1.1993167807798246,8.452777189563468,5.7800972719892725,0.24816400841672098,-6.675531209426378,0.583188637204996,0.5921890075401985,-5.0936019192008954,1.5677544341551082
93,-10.073626233312117,-6.416009802210794,-9.827474098445506,-5.767709887398031,-2.4751592179679665,0.9940177811052396,4.398208989199576,0.5846325862483819,-0.16351781263390922,-12.038191530918871,-6.798955668046906,-9.579098540522413,-11.828850604729887,-9.56862326765493
94,-18.991408339823213,-14.375648902426846,-16.918151850672665,-13.65000008174203,-6.932742664161385,0.9433957910890952,-0.4081024780479856,-4.204328940002995,-0.4582743450915543,-13.929485511965146,-11.688967382898134,-16.327705739805445,-15.226003227154205,-17.195544673442196
95,-22.742403278153226,-18.478842367741837,-19.529546968303737,-17.7591841251747,-9.465466701739809,0.6007380107224433,-5.233855703850268,-8.0957044002464,-0.654565343583016,-12.400790623326964,-13.510253646815979,-18.598269928144305,-14.837651147459397,-20.07847117586421
96,-21.25698446959087,-18.352671705061955,-17.771148282226246,-17.77397485964232,-9.820011923931188,-0.4049585206501398,-9.343388592844136,-10.819114674162241,-0.8054274807305397,-8.425338568402493,-12.540459845940243,-16.64639622913802,-11.217826927892629,-18.35364003843749
97,-15.755212884187955,-14.660091646784574,-12.794172038619706,-14.387319294713844,-8.28957506682515,-2.154667259460144,-12.081042698320964,-12.215982029470743,-0.9526305195932757,-3.4780818571568863,-9.630563257802615,-11.752371960364625,-5.65361101872769,-13.264769051892923
98,-8.195518382061676,-8.754850365333835,-6.298266131790238,-8.936655972571467,-5.5305651905762785,-4.329542429996901,-12.945089289180542,-12.141126376434123,-1.0884460367594277,0.9941428123516781,-5.809426042450282,-5.665665687573419,0.2773792173773954,-6.61963011308972
99,-0.5948906782225893,-2.2028121771411833,0.04321685628098579,-2.913259590572116,-2.307271554166597,-6.2583030976799465,-11.657468982275716,-10.438347600826631,-1.144178631438145,4.025138398858445,-1.9321701833583733,0.005353254572817379,5.172807213448557,-0.17449681718436602
100,5.544016282418499,3.6624053516660195,5.043711076495096,2.473205010010393,0.7399355527350387,-7.119396010795304,-8.23137608974433,-7.0157521073554765,-1.0135035283162734,5.356247969275904,1.5080352597015527,4.245950229386627,8.151820602981276,4.8462224053971745
101,9.525231140138079,8.014183338493611,8.213383815043624,6.538807861359382,3.226772525323118,-6.238176402285027,-3.027583214745369,-1.9956569300794638,-0.6036625622861425,5.378175367233069,4.365090985615807,6.79384673372886,8.992003577506773,7.958555480006474
102,11.415514095035437,10.579513742918536,9.68511634521991,9.12753162066343,5.027547430190631,-3.37922305066722,3.2236186812227894,4.1304361728444166,0.10551224957815002,4.834814574758044,6.669827905158776,7.988467139152878,8.045197185455015,9.330376283370173
103,11.736995122868477,11.489406906999209,9.930423274861221,10.417897181456958,6.172235771414033,1.0741575140295145,9.466416417077752,10.43035891967503,1.0206270493105716,4.421995694312355,8.412903607647374,8.412557247460285,5.994533844090626,9.480024074077832
104,11.060882086332027,11.034819718196749,9.41133078394119,10.651813492408518,6.703608929407017,6.132232205077537,14.455532709535932,15.614946808656587,1.933460354960755,4.448320353960869,9.39992677805464,8.499995924708248,3.5605622647493957,8.915433158205978
105,9.68871509296491,9.453597281044813,8.325611381980094,9.92285195107935,6.572175211711617,10.423149442241286,16.987625687539825,18.297795209334055,2.5676151838533317,4.695832351650693,9.257356046477714,8.284210347245583,1.267492240361008,7.872589827041522
106,7.554666168610024,6.844855173347576,6.551389462404268,8.123072545053784,5.625494523210642,12.578531152198048,16.195298314610955,17.38301168401314,2.6631090865751643,4.536350430405816,7.594150974250827,7.39304683792621,-0.6564299862982307,6.255956577400382
107,4.377879814070812,3.239379540917173,3.804963098958418,5.069063624395503,3.7025500411824903,11.669624219554189,11.833840007470657,12.470108689770564,2.0725990692766003,3.2556599445835737,4.248991246135968,5.286708679565864,-2.230961452701546,3.79025683558672
108,-0.019277077108411502,-1.2229191122035294,-0.06992367559833655,0.7418366551382211,0.7921172259127743,7.555270433440207,4.4686105853627724,4.133998203588547,0.8349000511746961,0.45170140121568436,-0.49251233270317857,1.6291252311556017,-3.574624739768579,0.3003858984428029
109,-5.387325661238915,-6.1121629509885995,-4.823877734494703,-4.482737533747391,-2.821934763451261,1.0188427807074025,-4.522464090786427,-6.044907584591018,-0.8045026006798608,-3.6623015422108556,-5.822832397305391,-3.37803090748701,-4.736834521785962,-4.019502397995779
110,-10.888878447601005,-10.636660505152394,-9.678591611622688,-9.741700004239854,-6.509795024802598,-6.370738385618608,-13.176352589499007,-15.759535719487072,-2.4405412011577114,-8.188451041298551,-10.54059813252723,-8.861031333279254,-5.594441250271588,-8.48421395014214
111,-15.206500289634981,-13.75060968884579,-13.443000757182745,-13.809011991649852,-9.389539213104934,-12.654729862118204,-19.380578990221718,-22.525543345920845,-3.6152573418932987,-11.761053469485612,-13.363075529764913,-13.426311661893015,-5.862161531069337,-12.020360084013305
112,-16.914304046869006,-14.43548263315819,-14.8557581632849,-15.425811390610553,-10.559558360727387,-16.03353023274367,-21.421746725862096,-24.36507950516569,-3.9542977505919534,-12.991636599913177,-13.32792216513481,-15.572011331197668,-5.213766353276323,-13.478679513625037
113,-14.993823018585577,-12.068674870972943,-13.04303589358474,-13.735935608784816,-9.403152546331707,-15.408582605172354,-18.49720461208026,-20.425422024754063,-3.290345952590413,-10.9902345698192,-10.145654799181196,-14.222965569491398,-3.4610115842413522,-12.051039289415465
114,-9.30178443953502,-6.741474392640559,-7.9213786363693535,-8.66844526754616,-5.858527890026552,-10.748161890349534,-11.028081629453718,-11.33033769539489,-1.7315875110272008,-5.770543632996229,-4.371361873135268,-9.192591112963663,-0.7099944922444469,-7.635638544491529
115,-0.796641502944242,0.6112234895685127,-0.37963662242964175,-1.110140285805575,-0.5450519786050861,-3.1532354342720232,-0.6531113429930451,0.8727340511055705,0.3511308948529638,1.6234034674725095,2.6797167040102927,-1.3874116231829727,2.579596290403818,-1.0011469685893215
116,8.594377159112122,8.351361074389045,7.8568440722816515,7.226085754024244,5.323400892527191,5.412729541485226,10.13002242507153,13.189390289101052,2.419277579363233,9.339354813758163,9.262715044052506,7.34694915749917,5.670574575337616,6.334508214125569
117,16.460684545984698,14.537255185016614,14.666036102282558,14.227288189780493,10.236487896002908,12.662269018338066,18.600405434339216,22.46494041009695,3.9175380628900807,15.235913940675387,13.685363648710224,14.71455611758321,7.745415957462263,12.495025405245233
118,20.60872959065589,17.47409309900488,18.147124134658686,17.983160408094886,12.81815551261999,16.635954350662054,22.556382546211797,26.26093696233285,4.43516450982057,17.53826521745044,14.79392682394236,18.647276995436638,8.161746373134667,15.791769809661186
119,19.752625765117784,16.24246725921411,17.218255196752605,17.375549416933648,12.256331954294334,16.272039400012634,20.947228957099718,23.560194672175566,3.8276344869844796,15.415076058968777,12.31065670948873,17.952819671519634,6.67748949349989,15.249009430803506
120,13.96003991702658,11.025514273216158,11.991438889619378,12.456979225439309,8.586768078583207,11.717844106404344,14.196797979167755,15.080125589996307,2.2603080489557854,9.280171336209897,6.916794924037897,12.714791480242193,3.563423859179995,10.93145661892309
121,4.691582078694939,3.1125589476799824,3.7890673666185544,4.482069286058871,2.7264013976481647,4.283949415742485,4.108060471788111,3.088255867688223,0.1602605566107555,0.7104115877426722,0.05568088454502478,4.304604888500353,-0.4425155194944575,3.9584163546551134
122,-5.5952549042426964,-5.439311244452486,-5.216650136190111,-4.432402285270498,-3.7685947832214124,-3.947128694561568,-6.635595774071943,-9.23405613748215,-1.9085638788564745,-8.002177964294184,-6.481869700409262,-5.007409866189375,-4.331252130255534,-3.808503657545738
123,-14.160119309884141,-12.389812857535746,-12.633856472198195,-11.919253179308084,-9.152308815003861,-10.737304706715234,-15.229203805656224,-18.692350025433807,-3.4079265251903594,-14.524381981446997,-11.061763362338345,-12.721116885919537,-7.109456950924837,-10.308602945505585
124,-18.785850673469348,-15.96512099353549,-16.551979362597717,-16.052615776355076,-12.005742177304263,-14.342848051895288,-19.537298104340763,-22.9731766337693,-3.9757329810573228,-17.16761090081206,-12.648435026512345,-16.842582980097262,-8.086586785324709,-13.883954046160326
125,-18.418665577534057,-15.36662199796649,-16.090241877124342,-15.899779542454057,-11.654338162747436,-13.99736195902639,-18.67684633636744,-21.262868080921958,-3.519687138174359,-15.368913016359132,-11.05669627832407,-16.453109607973538,-7.0709854773418925,-13.749184822645201
126,-13.440485861828364,-10.977795688488053,-11.621796143350592,-11.759889926255246,-8.351426785220788,-10.083653424085412,-13.217272528250168,-14.410502516223652,-2.2286160371092802,-9.82021650272429,-6.948973561930793,-11.935438320787856,-4.414215154420721,-10.184128352400526
127,-5.495261958546461,-4.20805852363351,-4.6102086886767255,-5.021103336765637,-3.1709056566102163,-3.9529708281964777,-4.945506191987484,-4.599727874059698,-0.5022067769034245,-2.2155303516847176,-1.5931470310550702,-4.796853521904456,-0.8927525600876788,-4.397601340832401
