,AF3,F7,F3,FC5,T7,P7,O1,O2,P8,T8,FC6,F4,F8,AF4
0,0.5696153648714506,0.10899596270729339,0.5787573996227487,0.06682552308853265,-0.013578862509990977,0.1978060813901348,0.6689610062901934,0.7756813228213824,0.21717760355776036,-0.12741553463948863,-0.18215726282913006,0.825772294791988,-0.015828320528155384,0.3780533481854284
1,4.971809251002493,2.5378676329036285,5.271136077162093,0.7451227003655556,0.7148778999301424,-0.9314246660540242,3.0673226949757977,3.819294309645162,3.508622270580038,1.39741121419348,2.3909945839143965,3.982514698749306,3.645435526572144,3.436897991652526
2,7.868106834341309,4.121390424665819,8.498929571770182,1.171331456136943,1.177662733586936,-1.6348871281036679,4.711526509173833,5.726015293400092,5.959134834122847,2.4042614308145747,4.141081746476512,5.895102016438888,6.147874728752969,5.431287934709791
3,8.335973433758545,4.3124306752095105,9.30281594064825,1.1886801636999982,1.211432975522956,-1.6006624584986415,5.19080319433958,5.880140678646626,7.012582166543664,2.5365765468243744,4.475031041746885,5.871891719078196,6.66396013041497,5.671110171582302
4,6.207706662184944,3.0350161133757023,7.443637718578792,0.7850901438492338,0.8109573409516553,-0.7865076299024363,4.423005682894003,4.240199060225189,6.483366232153767,1.755742340427409,3.2765821533822663,3.8632087597765055,5.007822575879846,4.03294831025801
5,2.1215086250800943,0.7082539543377665,3.4710667445549004,0.09855545620221509,0.13053291794019045,0.5589320339583222,2.6674282987538933,1.3497667955971766,4.5896880723831845,0.3536923637489895,0.946089809022376,0.4826421742877524,1.7007709302826186,1.0081121146756213
6,-2.680801745376891,-1.898526397164977,-1.44985290635304,-0.6315093898275586,-0.5736038699054475,1.974413695984492,0.43152756866620184,-1.8512330608821141,1.8712562613810801,-1.1535708162137062,-1.7333801484687972,-3.195077190424432,-2.1949254711368855,-2.452439606230137
7,-6.742734906715414,-3.927422428366379,-5.896794964082391,-1.1493359842381143,-1.0384790268112063,2.93871597423662,-1.6937628176183772,-4.3479852753769395,-0.9791263851892303,-2.2134056910657285,-3.8586475107027915,-5.99020885962537,-5.42050721537172,-5.245268451033233
8,-8.843384744371969,-4.718907561223756,-8.61823587050866,-1.2735083282146522,-1.0918896498022619,3.047716041511666,-3.212170391662515,-5.391917341515377,-3.314551342254391,-2.437485990580323,-4.709243076428401,-7.006659341361356,-6.930642003112255,-6.471756520501999
9,-8.36638334938436,-4.025853249676213,-8.897693069347817,-0.9607008305790566,-0.7161577674503928,2.1575278723913813,-3.8539551834989116,-4.742531498260263,-4.700763720960215,-1.7436435283609972,-3.9885854826520837,-5.921851867592448,-6.233895127661363,-5.727307458916233
10,-5.474016929178751,-2.084129720284966,-6.744364856816691,-0.3198962459059646,-0.05467201926582978,0.44582016641578015,-3.621555184138722,-2.7275460042473654,-5.001867077628496,-0.38703098702309424,-1.9228176034929754,-3.082036963998259,-3.5516444948093953,-3.2279637631713363
11,-1.0378482014376567,0.4792009954264079,-2.858712235437077,0.4273583227155317,0.6410425899103417,-1.6302890252194058,-2.7422314683576063,-0.10469078594412337,-4.366127035297292,1.13105585630172,0.8149987754546952,0.6247122405321685,0.25647405174987253,0.26480177976815295
12,3.6442466922213588,2.8627579527315548,1.6060816972129084,1.0256814703580917,1.10410460911475,-3.4678142115771236,-1.554628449563716,2.220613777406049,-3.127958212060736,2.2440762507461534,3.3287501215545094,4.069323695903078,3.975041032752618,3.692862799178251
13,7.248530384385989,4.354395159097132,5.403356532343458,1.2749649725456151,1.1507893639443703,-4.501212849193953,-0.3777574114887576,3.5171879689867587,-1.6693900813473677,2.5257559732171693,4.795367859640965,6.250194906763154,6.428976410474332,6.0388871313629195
14,8.814553947048523,4.551175623969488,7.556691454491705,1.0982121435267673,0.7487924512269398,-4.3775119784044625,0.5870834899142454,3.473461020367917,-0.29431911823839246,1.8462529912612484,4.7342171446892625,6.603750685389423,6.862115262321511,6.640701148441119
15,8.004283398898062,3.4656070861484927,7.617795722985751,0.56483563204103,0.030537574378996214,-3.06814492588497,1.2882710533374946,2.2807303431307453,0.841150979094192,0.4229159491418889,3.161210459508689,5.156150023681514,5.174156579933799,5.38201276497894
16,5.160043109256671,1.491207641051002,5.748798140062127,-0.13742264032945775,-0.7530608263226254,-0.8830357214244836,1.7856120481751485,0.5298564949617147,1.7243376214721495,-1.2524884982305935,0.5787805098717803,2.4737828872797496,1.9403441784878341,2.703215396665534
17,1.1576606242005,-0.7499394545205587,2.6189331567622314,-0.7704583794689731,-1.3214562097718223,1.6162352901196324,2.1668970818064315,-1.0342898775348819,2.4201773804666975,-2.5841538023029824,-2.192047273804726,-0.5590218528426908,-1.7887015325007773,-0.562752783789317
18,-2.884566053111101,-2.6171121533777404,-0.8360973405869454,-1.1285741570521686,-1.4639143335916815,3.7760103156017206,2.461973941239918,-1.8051284109865253,2.9805561312675355,-3.0800132180395483,-4.279491977221755,-3.049059876792374,-4.836782440701413,-3.46761402663092
19,-5.940394824357099,-3.644271384080268,-3.705810124509189,-1.1067738804349994,-1.1141257006358871,5.033515447237653,2.5966759141807354,-1.5428205245065054,3.373702569621008,-2.524228297922521,-5.039521855388215,-4.379415327588205,-6.2832831440178865,-5.2425496104168605
20,-7.348518862112677,-3.656171193030895,-5.354311526379641,-0.7316109768033529,-0.37390848890150025,5.0690636269041125,2.410859145076253,-0.4543196214145585,3.468398436838018,-1.0549432938776446,-4.254821787088797,-4.375515160212412,-5.749856664686324,-5.515015126491649
21,-6.9484613789946446,-2.77971053376811,-5.557316263975468,-0.14571713676672915,0.5216164738575679,3.8853970409167617,1.736325096481774,0.9024745916033085,3.0832046080025046,0.8784175073914287,-2.1926914648041578,-3.304914757237061,-3.501432636723042,-4.3836461217378115
22,-5.055392633591318,-1.3616619279728956,-4.499991880897101,0.44633315236999266,1.284228028852662,1.7958370212261836,0.5029067360320317,1.851340599557478,2.081739532447467,2.6621824210568534,0.4919005401889824,-1.7254483915390255,-0.33451434554690423,-2.3382962849470292
23,-2.3033832542453765,0.16636478640077107,-2.6557712821499613,0.8501839016083287,1.6694546403624673,-0.6698969659922717,-1.1743952229004058,1.8766747066186262,0.473028847383947,3.718547362291843,2.971568590904071,-0.2490642754695146,2.7029892896692784,-0.06422472733680074
24,0.5756886832361606,1.4236946860748692,-0.6011708266218181,0.9462086960933381,1.5564028943829313,-2.911153808664426,-2.9709920565920243,0.8411871859934175,-1.5296854892655367,3.691175016463404,4.50732004367192,0.6861825585152055,4.661999850996502,1.7951552326473486
25,2.9596598554784075,2.1739071858106342,1.1656967409304355,0.7248998202176709,0.9840135581701561,-4.410757220951663,-4.41314624881134,-0.9419091771435286,-3.524583065240385,2.556051738013415,4.671190205243951,0.9534083683345705,4.994784737627148,2.8346210290120677
26,4.468979959350073,2.3550678738625135,2.3464151332313916,0.28301282033579434,0.133324065194597,-4.85747857253204,-5.013075608014544,-2.8117065280659723,-5.016036080914302,0.6247452180906714,3.4633310585410046,0.7402090958299168,3.71249149105416,2.980658659375473
27,4.999094922409304,2.0519023747461067,2.8752563598447636,-0.21563449398308163,-0.7357300349131561,-4.207920726962884,-4.437450763420166,-4.001145487415147,-5.561372444026155,-1.5560605276413026,1.2929133767962164,0.42744863978642456,1.3523424830886899,2.460251382798392
28,4.665084097588274,1.4335861816166073,2.8696623187193255,-0.5991505397816451,-1.3695185127463865,-2.6774522340645173,-2.6502196506629243,-3.9287218665656485,-4.919750051083641,-3.3719738067233043,-1.163780395798977,0.39896717198058157,-1.2262569165658985,1.6678130300507485
29,3.699121177470392,0.6867508525858169,2.531230447714974,-0.7452762478338659,-1.598554598947444,-0.6686872084087537,0.026221442923209468,-2.4321982686309003,-3.148960882561601,-4.320150375692849,-3.1778128913156167,0.8604702490478806,-3.142070512957622,0.9871234344817529
30,2.3496156379364685,-0.03316912911491464,2.0423197859073174,-0.6187400682033641,-1.3831547954567105,1.3393190220767106,2.9633108808113575,0.14356160858590422,-0.612330859252295,-4.146257616989509,-4.185595095668871,1.73845843902818,-3.7858589384671455,0.6372930765134469
31,0.8193273933769419,-0.6228092906044969,1.4980857918439896,-0.2774158319358228,-0.8148077964617354,2.9104728714058035,5.386143404407538,3.039957445836131,2.110994346820977,-2.9028665160025544,-3.945191415150224,2.696818559791984,-3.0113703065114237,0.5990471646680935
32,-0.7444559802471705,-1.028300944992319,0.8949432200866122,0.1523956686404934,-0.07693876501568252,3.7495307413751986,6.596578339376632,5.329089755349322,4.384876501181145,-0.9199405234869165,-2.5888789799613905,3.2631348951117354,-1.165051154460459,0.6454558317583191
33,-2.2202005772162137,-1.2316391287132935,0.17223181482666838,0.5211294518258058,0.6181412182113007,3.756133706839723,6.190233709416901,6.224757860534069,5.692281578111759,1.2956804080676976,-0.5637389912301863,3.016063949603073,1.0487483347325794,0.4615601399431527
34,-3.4718740407795625,-1.2384270771259664,-0.7166741634362386,0.7053778683653648,1.0933016252276049,3.0253736052544316,4.195708273887369,5.351785749003657,5.771477812285608,3.1975142208701848,1.514682072763893,1.7636699868485777,2.816586213148674,-0.19568955172479932
35,-4.3287428895093845,-1.0731448683898437,-1.7374815204071985,0.6455091243307192,1.251423630002631,1.7997723941817867,1.0868633087287831,2.8805154796600054,4.670616367618714,4.334388459598775,3.0477031434185777,-0.35288917381027585,3.4934271285481207,-1.3606522864738533
36,-4.603274076630957,-0.7798966027616653,-2.7427049502933287,0.360776229896476,1.0900116889046874,0.3902064536584898,-2.340755240439286,-0.518929918038925,2.708905281978121,4.450977020003203,3.6228593133396383,-2.8684891773547423,2.8177443641420803,-2.8006467384891125
37,-4.145058751370238,-0.42133882511632115,-3.4901775247111573,-0.06058668394364175,0.6863972012129635,-0.90926780691698,-5.193826709257172,-3.885323143490823,0.36520451492466344,3.5355453184823644,3.1212537903985047,-5.114661866688073,0.9966473877869493,-4.063205531020726
38,-2.910008985187891,-0.06904897460833367,-3.709157656283301,-0.49081668846973464,0.1639535194667228,-1.8877615101949115,-6.736663085428748,-6.265664809796501,-1.862337966808107,1.8113677328050244,1.7373949043322232,-6.413230112900888,-1.3629405891844533,-4.6180784727764115
39,-1.0146842504954068,0.21552862902448372,-3.193248999901308,-0.8010203171441854,-0.3461651992445737,-2.4478434468687453,-6.598694155013641,-7.00468215194042,-3.577188546134556,-0.3201766681090099,-0.0888040088712969,-6.281942857963866,-3.4520658217462312,-4.048390985198889
40,1.2510001847141532,0.4027259284314553,-1.8891237945911834,-0.8968254949497776,-0.7353773031574207,-2.595658146199262,-4.870405159637524,-5.931355974120627,-4.5512334126385054,-2.3701200233585014,-1.8051939601032003,-4.5893225300002864,-4.522361057289319,-2.2257987969901385
41,3.4650683323206364,0.5072229484785331,0.050065848089292986,-0.7421600067850141,-0.9341182197780994,-2.4009924468975186,-2.0607447127381717,-3.3879706298310555,-4.728253280771808,-3.8684104933308845,-2.9074802786715352,-1.613440083180939,-4.131104245922746,0.5933172260390801
42,5.161843064875544,0.5813558192362356,2.268154719470356,-0.3666683394123037,-0.9154789151814698,-1.947701493024371,1.0661593802466187,-0.10198254741605758,-4.18051383451616,-4.467636840014332,-3.0826018150580152,2.0113065365247698,-2.2931199508627396,3.7902867475659887
43,5.943638195470489,0.687014530123354,4.271741585851876,0.14293738693901564,-0.6915973380047556,-1.2972512490621309,3.7194183948283888,3.0479423658712657,-3.050108721470196,-4.024688804873606,-2.297012910767566,5.443991366059827,0.5073337646773651,6.52797309342935
44,5.583766254762785,0.8553309608354629,5.5455576606158195,0.6638264498795825,-0.3085090066154109,-0.48127160789375734,5.3012700822880605,5.290333070177801,-1.5057520928455652,-2.6419167437587046,-0.8058277902129363,7.843531595639453,3.449777416435084,7.979825560620008
45,4.0914215812538695,1.052486211675607,5.6893818924196164,1.064913742757945,0.1583042768554476,0.4747819726751033,5.551719535380188,6.161968431019952,0.26958123332543704,-0.6536925382930439,0.9208410770316562,8.579101161530446,5.618090248378055,7.5791715170320115
46,1.7206685874394936,1.171630965894085,4.540002975345989,1.236136872553819,0.6099407057395603,1.5101869279674836,4.579849983154097,5.596576389033191,2.066211016539055,1.446004587108021,2.3359187338900465,7.392905697075326,6.278712477310239,5.213898078177989
47,-1.0782045084613145,1.062762398681351,2.242593183471564,1.1142139003678513,0.9364332383571886,2.4936221365553033,2.7832683308032977,3.8884050139739657,3.633291839609062,3.1245015550201423,2.9806275735576624,4.4759961212249015,5.114288511382551,1.3039793720144857
48,-3.751833698514467,0.5965161583561669,-0.7535858902237981,0.7005178783675376,1.0386698586888794,3.2184271782353577,0.6934891078510149,1.5595403599393853,4.688725929502233,3.9528500018046477,2.629648144564272,0.4380225980363234,2.3413853508395626,-3.2693921647252044
49,-5.758720330734559,-0.25962725504938805,-3.7818838260005943,0.06715759651332158,0.8578548055647227,3.4421629145978594,-1.1941805056071093,-0.8133430812450226,4.968135982992372,3.7306494058164374,1.3711794742525518,-3.824331580176153,-1.327379357352778,-7.372505815520844
50,-6.680541392939839,-1.3853168856085478,-6.11201338781658,-0.6517907038838784,0.40397554489391885,2.96538701417599,-2.5488081507388345,-2.7527032395208497,4.30580971054262,2.5528364545086015,-0.40711884137042187,-7.332368920436458,-4.87197655004016,-9.914348048709085
51,-6.307653376335648,-2.502522217294996,-7.135227236935965,-1.2849506634426526,-0.2293949697356891,1.7248760685794198,-3.2538081340236684,-3.971047645585356,2.7189902810504227,0.7908816832716605,-2.128543441050656,-9.257857481933764,-7.254432061411981,-10.149005909940357
52,-4.683531428598075,-3.237217580889813,-6.532766870508174,-1.6617552912558797,-0.8753943232274164,-0.1356997647793684,-3.3747997376550933,-4.385176586572196,0.4563571312830958,-1.0139784506433784,-3.2058161643722163,-9.127901962077893,-7.726666747037727,-7.899358855465383
53,-2.101077312144523,-3.2373947241402354,-4.379271303362551,-1.6570491235501,-1.3333056522593134,-2.2531872839860667,-3.0722652555739844,-4.069538996756795,-2.0216768950323116,-2.317874027266059,-3.2345967037147507,-6.950186944525159,-6.06486514718342,-3.6341332523118193
54,0.9483795663344813,-2.3114952028577935,-1.1466835572114424,-1.231185487780365,-1.4297350240289253,-4.109483164014683,-2.5037129703671717,-3.1832100965179673,-4.1403026814758,-2.750219664921245,-2.139335209851241,-3.2227561413358004,-2.6565467993565193,1.6308984895159913
55,3.8655012595174556,-0.5361582455446247,2.4003133225325897,-0.4529321550331167,-1.0830887494519952,-5.165270387243303,-1.7587133292707409,-1.9068805094011132,-5.36410634189814,-2.2387946924155053,-0.21925860224592303,1.1803174747205292,1.5919394734747974,6.587512954576724
56,6.058568249962853,1.7145521477527323,5.3954637352412425,0.5052269155695114,-0.3473273010510812,-5.026991118961811,-0.8513374481869611,-0.41261584068559204,-5.3602005181171295,-1.0372065356838391,1.9283735007996408,5.223501224251988,5.506237000030188,9.979479114215588
57,7.064583387275639,3.8432338005542,7.09952832055031,1.4031615066221061,0.5856283845144091,-3.5928610256967857,0.2332853566235407,1.132401763844651,-4.113673868962002,0.36085630840278754,3.5906904492565026,7.9714365582480875,7.982400489413331,10.942230781978173
58,6.652305302229138,5.195174275074455,7.102263070169456,1.994646485214213,1.4329236205445635,-1.1236148288017662,1.4665287640907272,2.546042416148698,-1.9499354276143481,1.3964823384647345,4.172741248087739,8.827645046763003,8.312593913310657,9.241117457992521
59,4.883359886866799,5.268476059717627,5.4374461456115615,2.098816006185811,1.9073788574287396,1.7961695746326884,2.7180149823558466,3.6212739746346725,0.5513084506367624,1.6512613878258193,3.405897326222892,7.682897645258578,6.3983548927317395,5.338059099273786
60,2.112777525420084,3.8980445980475293,2.573535254254505,1.6599130648274243,1.8170537260819921,4.405299624268008,3.745708614018857,4.14589417486658,2.7275331992927985,1.0103112398608143,1.4581271212092959,4.9292984125952675,2.7837610243706705,0.26468105374113665
61,-1.07814523980013,1.345126198158382,-0.720986211634844,0.7743559701323052,1.142489151837358,5.982616128040973,4.24764187186667,3.954709099709557,4.035447340473466,-0.28014752392650866,-1.0977965788072668,1.3349359821549143,-1.5045687431787882,-4.66372134930752
62,-4.0073207246783635,-1.748122866693909,-3.599405710479741,-0.3275981507569716,0.06037340128709369,6.066364382393661,3.961462263494466,2.9971724992900026,4.215375951607437,-1.6884944084738192,-3.455546619940475,-2.1834610936292798,-5.2633047436138565,-8.211619879762138
63,-6.049060914428905,-4.534312800851034,-5.378682231934275,-1.3442374744322307,-1.1009370965997132,4.603819449313157,2.7757947260133538,1.390467724978009,3.3608074320424364,-2.5867670297368734,-4.834664622125216,-4.820099045507232,-7.470025406197241,-9.558604503329631
64,-6.783936312182077,-6.215155146031323,-5.72623214488359,-1.99197662743784,-1.9643704647929365,1.9784097884811536,0.8090945521695829,-0.5717670959164233,1.8682706854883697,-2.4895649845693786,-4.743372692700055,-6.091663944285388,-7.581333564752867,-8.509134780951227
65,-6.1000602282609515,-6.291923499879737,-4.73295577209379,-2.09404021215887,-2.232829209097273,-1.0989032775236545,-1.5793417129992706,-2.470561023330404,0.2850993329106445,-1.2565001443944412,-3.1546088274353075,-5.936594730474892,-5.6788554102432895,-5.5171050353075355
66,-4.215280546064127,-4.7269843571239605,-2.8508461573707273,-1.6379840771576246,-1.798206450824955,-3.801382844946777,-3.85857314712519,-3.864965839362188,-0.8902302259966668,0.8201773826491745,-0.5313104018849667,-4.6758649538601835,-2.4196052404795525,-1.5221766662915939
67,-1.6116531430076575,-1.9595294412876356,-0.7190155132650211,-0.7805533298664873,-0.7890213166244858,-5.43308869240058,-5.459461228219462,-4.417459714718241,-1.3824745333566857,3.0835379380754646,2.3131560982597192,-2.856397814043786,1.1892732181867791,2.3476438434225053
68,1.099704984975559,1.2317774697651778,1.0597496608517605,0.204160911204255,0.46495186144918704,-5.629652672790672,-5.93318088192475,-3.9987775624038346,-1.2243300851631556,4.721251409744473,4.47677947174735,-1.0382529425553917,4.114657443770262,5.112506494248474
69,3.3428015656673704,3.97330312340825,2.1127592679119163,1.017019133936944,1.5427662346992852,-4.448671096043602,-5.085757403771879,-2.7331739894893423,-0.7195961770503412,5.04894977534249,5.266572642334492,0.3952015131280811,5.613048044327114,6.211703175059797
70,4.719656809468199,5.564884648559587,2.393547618084333,1.4347678949401406,2.0800425660842543,-2.323867476760789,-3.0462727455643153,-0.9644537347420815,-0.29842468119651405,3.7692386603476407,4.431074770845827,1.3358097832201894,5.435895783119875,5.628092568297609
71,5.088924264864929,5.681597717917671,2.148646854041635,1.3832791582268094,1.9010615346988748,0.09549888985982773,-0.24682056579780481,0.8486727878640278,-0.32025175729965893,1.111139890100205,2.2469598214891633,1.9258755143510686,3.8628887225703346,3.8342202235123706
72,4.5599054972047375,4.443545480137352,1.7719885987749178,0.9558073983026733,1.0852860597135812,2.1599472116195684,2.6808246236335975,2.273002087393202,-0.9023414773385368,-2.20712198309997,-0.5718688237994289,2.426796692896234,1.561514173758764,1.5872117060783655
73,3.4116167335939065,2.336831516721162,1.6071351906914269,0.3689191459405477,-0.05883970511868868,3.4139525814285197,5.06246362866193,3.0281410848661503,-1.845069202009527,-5.188448381824588,-3.1131919407441795,3.040339019252252,-0.6697325346558288,-0.3516302979991181
74,1.9727595446088453,0.02222746016391472,1.778612654251542,-0.12756991634730935,-1.105743542948396,3.7052616842812633,6.348821921784791,3.0561903727296365,-2.6902772822854404,-6.874922443588972,-4.572242323543598,3.761705880903569,-2.1797293365186654,-1.474018180095174
75,0.5107215470434182,-1.8937224420921,2.1235839531482847,-0.3519894151720319,-1.6703039362032326,3.180278169439176,6.2482652854399925,2.510832182480152,-2.898201686336332,-6.6676172508799665,-4.519483661949241,4.332336268097919,-2.66695440438161,-1.6713881305385963
76,-0.8288193400816039,-3.041264107237139,2.256614250795211,-0.2634110814401127,-1.5525828832374098,2.179754717252913,4.791959554281309,1.673501489564477,-2.0802884321167783,-4.538131804915669,-3.038465490953451,4.3213434815687215,-2.239497048821517,-1.2249073960229355
77,-2.0130291873485047,-3.3623127091475955,1.7471578205265592,0.02447491358380239,-0.8144716315991896,1.0842390888158895,2.318450367439415,0.8321668284100598,-0.19833522112353957,-1.0565727389736854,-0.6869223394671463,3.3119465665289107,-1.3209065239173314,-0.6491554846034849
78,-3.055386689262634,-3.060975219881736,0.34175041984176696,0.29550386832427117,0.2422667550967597,0.17282269237958647,-0.613823507841217,0.17215348649869416,2.3535900187100878,2.777468846789893,1.704232241612099,1.1231446904217781,-0.44640869752723844,-0.45227848363021944
79,-3.928534108087603,-2.4619971933799536,-1.8604138847079192,0.3298476474141808,1.189940420686617,-0.4525532806128042,-3.360480436878563,-0.27742908806862815,4.829253840508852,5.846979479428752,3.3230346427517934,-2.0244681442371046,-0.03239034987321888,-0.905313644140778
80,-4.503660890224746,-1.8435347297062448,-4.358468980277078,0.009945683806728807,1.6388046792542654,-0.8558153125399142,-5.337305915287071,-0.621719291971854,6.358345702108316,7.2693250410533015,3.6572430592637195,-5.476838746018189,-0.20884522131319735,-1.910067380912459
81,-4.553546961781371,-1.3169964975886839,-6.363735317741472,-0.611187674346746,1.388888014475752,-1.1841513913067425,-6.144879863591807,-1.0147168263304571,6.250720681040462,6.670680011120933,2.665647188259239,-8.282192038884798,-0.7779033177507018,-3.019138094930264
82,-3.8293549952259727,-0.8034261899302892,-7.051628987759183,-1.3112002680669956,0.5114028539474313,-1.557874557272914,-5.6463790543592465,-1.5500549128471486,4.27028590900587,4.292643911913484,0.7806326304288256,-9.466989119444582,-1.3119473971741638,-3.605524770317586
83,-2.187397947537597,-0.11285416143335135,-5.870371563600545,-1.7743756285704713,-0.6724805964787476,-1.9848973128684075,-3.9858010174667027,-2.1788508081817253,0.7749622424022099,0.8983902568540147,-1.2575138938635106,-8.36880565262918,-1.3507347974038635,-3.1223775182267963
84,0.2849305028712852,0.9121618874201988,-2.795243613072673,-1.716947691847418,-1.7088725022380782,-2.338178040569702,-1.5471204783685912,-2.6955834555087224,-3.33928868192217,-2.4858424436547852,-2.6743606596865783,-4.912929557862163,-0.6184563818194826,-1.3563659923244566
85,3.2032016762332707,2.2565596183324046,1.5733815335836903,-1.0141431261201859,-2.181091580706224,-2.405393843002035,1.1339139661043984,-2.8050997816450534,-6.885707795442218,-4.903139453454772,-2.9444988834371917,0.2718975077476796,0.8269390772642579,1.4248906268529702
86,5.923470900063761,3.664883176020436,6.121891134646739,0.22299611459323312,-1.8685407881695912,-1.988415299058268,3.485897492743448,-2.2490250500328317,-8.752191343151367,-5.7590876096918455,-1.982138855384145,5.956691929515345,2.5752260697298177,4.497269733954204
87,7.691099129935104,4.685799155895786,9.527375638616258,1.656633788085624,-0.8345646030904896,-1.0090679113578145,5.022373045200957,-0.9421433617556219,-8.26654370954443,-4.980210148397872,-0.17037856145030794,10.622233411606357,3.990312072859101,6.882631029456498
88,7.865274793658553,4.822951071448888,10.66565758318851,2.8210811956985085,0.5900983541498612,0.4247255372033626,5.443143856894799,0.9396156579868201,-5.437804759755129,-2.9923220777175725,1.7814920201748012,12.892697610477606,4.440272236562677,7.6700015989450945
89,6.14880571229318,3.7398069733814165,8.991907347739966,3.2807724130613063,1.9224819135373645,2.0219770191065622,4.695783309943944,2.963582862200845,-0.9875287641828127,-0.5374756854259364,3.1010494510561686,11.96233726794768,3.548265343949303,6.348364202342232
90,2.7408879586996147,1.4386348995944376,4.762609466429629,2.791645562768183,2.698659851643605,3.3828043066157245,2.983791726796596,4.548038577959624,3.8469050311116098,1.5973058863635843,3.2406752431349646,7.8781522831087605,1.3697831296631346,3.0321666595645227
91,-1.6516879299831535,-1.6632924225363037,-0.9861899411927114,1.4058446086586256,2.638227569039712,4.118336115895768,0.718176046031891,5.144257292648232,7.679204866730481,2.840346083562451,2.0853962614445907,1.5800874549018942,-1.5754110692076706,-1.5090197615259437
92,-5.966153821718653,-4.803552216861469,-6.711448789209435,-0.5221244086927309,1.742515125278758,3.974331102482716,-1.5784096965990473,4.4325342161940755,9.396238696072311,2.996131991463221,0.004213128712478146,-5.3269232563362925,-4.438180603793237,-6.041636898119115
93,-9.06460417304068,-7.081167660753315,-10.809696795824587,-2.4350784543373734,0.29240206026318105,2.916167375221367,-3.3939858982203317,2.4612290938791843,8.500746974137476,2.2596181369179686,-2.275024104219008,-11.01051488250381,-6.303474337030378,-9.229251642568489
94,-10.06318043803395,-7.738272595043846,-12.099834783879109,-3.7477491032933408,-1.2511780473115148,1.147695781704666,-4.347083585159217,-0.3267938263050989,5.265119013888905,1.0927382210044874,-3.9231619177984527,-13.931117222638136,-6.495986041306582,-10.051342189697497
95,-8.606542384742545,-6.422828993423141,-10.188124441807611,-4.0376662810406945,-2.406088533403847,-0.9402286935876653,-4.274085586445448,-3.199168788722916,0.6474560209727998,0.0205906084976136,-4.30750498819702,-13.288260040372906,-4.822931242394948,-8.142528073472771
96,-4.99675835693605,-3.3389095737282175,-5.596460001760542,-3.1868904724009415,-2.8295010347342626,-2.8729712396059255,-3.2612852720019756,-5.343753177092344,-4.0026446519574534,-0.5709731991129007,-3.2228214630216816,-9.256108651099543,-1.6669488844694296,-3.9365982892311115
97,-0.1295276802608488,0.7745371118412921,0.3894988376225664,-1.4256758588539948,-2.4243251218292037,-4.214096071697135,-1.613145925413539,-6.118278441936554,-7.354703236700213,-0.5622038257477282,-0.9726283488100855,-2.9350410289071913,2.1085600840956626,1.4384366198570604
98,4.748187682956173,4.838685639560305,6.105134287276305,0.7370929845016403,-1.3576675587722042,-4.670762430712577,0.23426983592787592,-5.258427449322448,-8.495175399250655,-0.11098767786595423,1.7283256483687464,3.9664583484100664,5.41568376146896,6.486437845494213
99,8.387250624284379,7.746439569539065,10.002339906332345,2.673144440300741,0.009831428512556362,-4.156018168320176,1.8303395045701591,-2.9739023391388844,-7.1897257368161425,0.4442895727923509,3.995553536842592,9.622264800318097,7.278094305101851,9.789068821898889
100,9.885725952199344,8.692586250969258,11.099169504106056,3.8303143700551283,1.253794199234077,-2.796860451863358,2.8246796111398655,0.10250291947854935,-3.9322370916623908,0.7437431144760578,5.074858718503856,12.60235963758285,7.137064755592007,10.430260342004763
101,8.9325732066609,7.416608461813159,9.244938577642891,3.899976955573894,2.0266036057976953,-0.8928985958213816,3.0484463543086933,3.0998741868060176,0.22891223424251517,0.5607180418286462,4.5961842854343455,12.256729810649755,5.026914279823489,8.265132674353284
102,5.874624243210298,4.2802837385230745,5.124839249484404,2.9032914318042162,2.160179057032314,1.1580318844013355,2.5416443166961717,5.171018705895922,4.027432481266964,-0.10683401332328016,2.6948053686107163,8.86039935365016,1.5630723987576334,3.9509252874993126
103,1.5927965147950505,0.1562487845188954,0.013756070691885074,1.1716848686747328,1.6996956053671621,2.94634436203921,1.5224576702259425,5.748402246755241,6.369977483003002,-1.0388266891044797,-0.03848834170478806,3.4873395700586642,-2.251526092858478,-1.2646711585591206
104,-2.767126340640304,-3.8349647878458852,-4.631901947004769,-0.7675756434839054,0.8636232318231418,4.130155403815252,0.3115086095034112,4.712996461144629,6.6591462162504484,-1.8822866103907467,-2.7566832183850036,-2.3353914279213517,-5.336440452131687,-5.925141552156628
105,-6.121700152965567,-6.654198404978594,-7.608970429153394,-2.35977418206977,-0.048561532343693266,4.494442403754497,-0.764040731752094,2.42301897498374,4.951341247745694,-2.2885778070012144,-4.633720733967267,-7.078584512933519,-6.858549661591346,-8.793238690944536
106,-7.735532888124303,-7.635607460685995,-8.293388016231852,-3.189131201322455,-0.763645585281467,3.9833904459032263,-1.457882321072755,-0.4051634171889993,1.9065976847621557,-2.0451651189692064,-5.1248615087354255,-9.628218638844436,-6.468797409360265,-9.19334902741635
107,-7.385988739565991,-6.653723230735063,-6.765382881376187,-3.0913525494427088,-1.118408212265312,2.7048032907161637,-1.6598318107501762,-2.924297759077405,-1.4462609520539045,-1.1546447086446063,-4.125933233050529,-9.550998928023505,-4.380721822814395,-7.170031812707695
108,-5.370444805441177,-4.121836205718211,-3.712620750905238,-2.1812334675621883,-1.0939591573275496,0.9086453373947617,-1.406903829176198,-4.418002849391123,-4.048692674158858,0.1636882979796509,-1.9854210349843804,-7.145033538836198,-1.2748933654001078,-3.42761701071508
109,-2.3700689685074923,-0.8334023770790286,-0.1618781102162037,-0.7935558320534473,-0.7954307479374972,-1.0566321923653432,-0.852116335801085,-4.51369173285891,-5.145075760940658,1.5454928321387844,0.6255445052330847,-3.282136739235723,1.930276069787315,0.9149716544161673
110,0.7749200732955761,2.29365227995593,2.8606129590592944,0.6368247224671939,-0.39198516341923273,-2.805018468717931,-0.20496077237880284,-3.280850133297616,-4.50393141976739,2.5976438123012815,2.9346072605657576,0.8909934761976017,4.361435925757472,4.667205056808049
111,3.3039754335399185,4.484455298311944,4.627365571495366,1.7128570846875384,-0.04452434285243729,-3.983996203129765,0.3358962802429618,-1.1874002067326654,-2.4617889078801247,3.0185865224386386,4.304997676538718,4.291627963319116,5.436346015260827,6.89966167335295
112,4.719949738912967,5.305309796227789,4.87888906168625,2.1867662417414446,0.15067688716411048,-4.345408986369386,0.6373165530772321,1.0666486055729894,0.21703189696848568,2.6850958270344396,4.413294839586608,6.179379451403449,5.001885556632106,7.172242816684248
113,4.874609399630223,4.740826304958096,3.8277203690539063,2.0137179587292366,0.18398241109766564,-3.8027132231518994,0.6596721869633106,2.7801888390956546,2.6116523041177753,1.6821234595415195,3.3190076193576625,6.304180265645967,3.333185355286533,5.6042416415355465
114,3.947782573765996,3.1415069740154964,2.0183560796700495,1.3379993605931533,0.11708831706872264,-2.4600966375447184,0.4536566262642483,3.4699716071424898,3.953010541313663,0.2718802715635511,1.4151337723642075,4.901107956083445,1.0090730491407236,2.784206091419901
115,2.3439625640996957,1.0740922589540753,0.10779054379389955,0.4244100434992567,0.04202234102404947,-0.6018269654515348,0.13121482060294476,3.0080597760756858,3.8667746474390006,-1.1839253535898895,-0.7136809859674207,2.5562041453869284,-1.2848908531874694,-0.4368564003047908
116,0.5495936091866297,-0.8674464706892623,-1.3519601289546856,-0.43683111898837046,0.03434191799025746,1.3621131485381996,-0.17728198873739154,1.6379980699040138,2.4737355344482967,-2.323514522000993,-2.473923457444331,-8.428272744412629e-05,-2.9588735041683867,-3.1984003332707647
117,-1.0027053381913147,-2.2285117388442677,-2.0605180208426535,-1.0187854265040908,0.12002093169389284,2.9866250127085117,-0.3652146323721698,-0.1286504392457915,0.32108602990464524,-2.8781042080931942,-3.4293773415142472,-2.104412797932343,-3.6670409032087594,-4.855516640427586
118,-2.0279066079736956,-2.792467624517842,-2.009845414274792,-1.2137754918494135,0.2676827695948179,3.898825036263737,-0.3791127540509107,-1.694854109383608,-1.8243322590732454,-2.7353357119429345,-3.4050327514196344,-3.319686538584645,-3.3665723434556467,-5.1200184620471125
119,-2.424371175113071,-2.5936537562453212,-1.4243035531242343,-1.0444064062479803,0.40648773469684574,3.894352095912098,-0.22853741145361206,-2.5756482887013377,-3.244663417231491,-1.9595675814212499,-2.5068016197773106,-3.5086497529784464,-2.2839802327901784,-4.091269438976136
120,-2.2552896856523232,-1.8563796277840878,-0.6378281199777991,-0.6333846761279602,0.45986942829468286,2.994347105436749,0.023838574505714635,-2.545436061975896,-3.5079575597653556,-0.7671806289717602,-1.0617868941177069,-2.8172821326184994,-0.8129048026693751,-2.183179166707371
121,-1.6934505187931288,-0.8920501863877467,0.039503060073615946,-0.1483130249812452,0.38011600884864294,1.4436283523070028,0.28671891925375226,-1.6903714476205531,-2.5950330508853283,0.5342648747451937,0.49464398350419253,-1.5877502292455274,0.6167377902716524,0.020179227568102337
122,-0.9527231305526088,0.006582276797442284,0.4188770013996214,0.2570655547847802,0.16988031841817527,-0.35296886587778037,0.47068885709299024,-0.35532373957937563,-0.8794476017361754,1.626415344727429,1.7476260161827826,-0.23540051586142308,1.6572251798282476,1.9340389388567045
123,-0.22737356548395035,0.6417779965796063,0.46814675863545224,0.486190825160216,-0.11705242569425237,-1.9400373193746834,0.5155150044431356,0.9894607783300435,1.0239154821507568,2.2597189168337777,2.4106880179572054,0.8723396994716479,2.1190514278078854,3.1211047838947055
124,0.3472133612634631,0.9411912550111948,0.2852932031150669,0.5168231429617451,-0.3949070644647178,-2.9356072427771385,0.4067609201137361,1.911905266678742,2.481730353259808,2.3126482264453947,2.3863814367830143,1.5038978213639507,1.9918041213357671,3.3835386105638325
125,0.7080937255744794,0.9435313564522033,0.03146501223017714,0.39156672941671705,-0.576759215809617,-3.132878141764106,0.1777244264243196,2.1552723383425527,3.0554875787941143,1.8161123709700062,1.7691198947205988,1.6003923356942245,1.4145698437776297,2.78247279184743
126,0.8562528251269464,0.7545724744826053,-0.1447504496168861,0.1900035645195674,-0.6051655432032184,-2.5492084322258592,-0.10298609278438489,1.705491461925947,2.6325134657927034,0.9373735194294404,0.7963002035281284,1.2593700926566274,0.6130578936317606,1.588955133327617
127,0.8345840789142738,0.49467639505264444,-0.16292195947530974,-0.004921646047380509,-0.4715762138092095,-1.4084681140611397,-0.3538386485819014,0.7721884696922447,1.4357524187431712,-0.07156543272624499,-0.2331284959573558,0.6779236701077037,-0.1739670903367488,0.18705425661959307
