,AF3,F7,F3,FC5,T7,P7,O1,O2,P8,T8,FC6,F4,F8,AF4
0,0.27558322522889117,0.3334407840016087,0.06331814411358049,-0.01655172198349683,-0.15302799156340594,-0.36052070719093954,-0.07862109341642441,0.1481466352129993,-0.3364012136580203,-0.2937330133895152,-0.19472011293483,0.9049576985395623,0.09293391701315461,0.3369397387447622
1,-4.338999123534344,-3.0059109747019277,-4.625965106835243,-1.7367382892081262,-2.143026118890445,-0.30203674456312635,-3.8411310596404706,-4.002628508570518,-8.512646500720772,-7.233823946830351,-7.261787670997946,-6.288584712277819,-6.9611620890726496,-4.902944517471023
2,-7.666094833423375,-5.379956210924699,-8.026585740201973,-2.9259089146509143,-3.473533593494286,-0.14937881876121054,-6.522651415204508,-7.119322442715546,-14.56979415318308,-12.26417403202215,-12.334106319085466,-11.625565250740394,-12.033213580766704,-8.68167756261146
3,-8.702571027678147,-6.058703748911655,-9.172031017636664,-3.21773713315443,-3.742652603065254,0.06282703074681385,-7.392552678311884,-8.423225589049185,-17.027113171887766,-14.055485328355873,-14.01997604286809,-13.58734613674998,-13.690592559259873,-9.912627029593974
4,-7.138007811097389,-4.857150422503792,-7.751376136698186,-2.524365967040515,-2.8778413225011854,0.2854200860752133,-6.245371045887517,-7.615279664884061,-15.357823217658288,-12.189472918410681,-11.907752861655855,-11.669409427404615,-11.517003350063879,-8.288359138287563
5,-3.4517566068816197,-2.192255291412589,-4.19697733611075,-1.0641795795046094,-1.1561450827137396,0.47012375496369624,-3.451546188020905,-4.9479469741250055,-10.101051904432266,-7.259287269119753,-6.671394869386722,-6.525507461784632,-6.224692877462418,-4.367642838339499
6,1.2343274214578444,1.0579824969580314,0.4500957533207775,0.7073367858953566,0.8866435472855807,0.5808239865652765,0.16318250866182019,-1.1483445805015369,-2.68039008845797,-0.6737091731528908,0.14986746162609796,0.24526352243578106,0.5812222481489049,0.6110561619085119
7,5.502451438897343,3.846106630063486,4.8545212937944155,2.2419582366226476,2.6275302828112164,0.5985007311773772,3.5704837618273246,2.7844435906590155,5.007689273338896,5.768552847306098,6.6242478834702965,6.600986566806434,6.907488583082566,5.128594548979776
8,8.076301347729748,5.299441140504528,7.783688015516344,3.0720309897904188,3.5519045068167157,0.5207770330552294,5.84478279879134,5.850493472219511,11.10906475910656,10.399608664041816,11.001704212875532,10.68974810646173,10.982762906900211,7.8661796145259055
9,8.211597429749709,5.001485611145409,8.465365880530495,2.9567257256927766,3.4094138398121827,0.3587564930801135,6.42694325882066,7.313022387009111,14.282109377548519,12.13900269860186,12.211173211882816,11.412257500876054,11.778617482768365,8.111319368295268
10,5.917014027067299,3.1170040786205124,6.7983295052651975,1.95397039243271,2.280915247409783,0.13364674782467525,5.267295202870903,6.882987879891559,13.997249006276451,10.7537475418992,10.13210280213722,8.737251393253821,9.280645780227657,5.957648155288756
11,1.9374083982403507,0.32135980744153647,3.3560286885361243,0.3954178848616414,0.5382150724384326,-0.1257727285976105,2.8093199308377823,4.775961745490558,10.599049420669566,6.856856857636947,5.56847865764933,3.673747334804307,4.434438628554853,2.237922295721631
12,-2.4919876436707464,-2.438202074296225,-0.8107057649299135,-1.2259052478213603,-1.2854332948567728,-0.3853256918483086,-0.1730160995262752,1.630230568780702,5.137187037915519,1.664126956442344,-0.04946324356236024,-2.0837492203525274,-1.2008223908003763,-1.779994380585878
13,-6.038416911755948,-4.26484896412711,-4.503677637202884,-2.4167031722956596,-2.667325043880048,-0.6083899658307826,-2.825594758860834,-1.6854158495164318,-0.963248652888081,-3.3979690743289046,-5.126382699255961,-6.71532986189014,-5.965196695482951,-4.825227663031547
14,-7.683789425276272,-4.606908024076596,-6.733398766736114,-2.839134702817982,-3.251560049145765,-0.7602144049742166,-4.468842005004428,-4.315759974967529,-6.285476997819522,-7.102350382840645,-8.372347579154727,-8.855277577617029,-8.604050077868955,-6.035057672824091
15,-7.025280826443926,-3.4262956204468105,-6.991721946297517,-2.410122834653625,-2.9404202479365074,-0.8129993942249595,-4.777425299707548,-5.644793826819313,-9.751698440728674,-8.725656977663357,-9.13799346819598,-8.003833830608649,-8.607143957713976,-5.208480653988147
16,-4.372914854266015,-1.1880860023553654,-5.363677700403232,-1.3136805138778687,-1.8971260000494437,-0.7502592548663781,-3.8354728983629793,-5.441706506405057,-10.824350231044969,-8.169609829102093,-7.5249566423126355,-4.6440557546507035,-6.286318038969912,-2.824674880052586
17,-0.6208657805012772,1.318298815636535,-2.455956759901822,0.07393090323480593,-0.46795686714867996,-0.5691603611110065,-2.062082786505908,-3.8923283950023086,-9.549265682903387,-5.888729530603918,-4.262132567301603,-0.03712685105995894,-2.5902937444235077,0.16732436957698807
18,3.0573269416460906,3.2585404889296714,0.8222605776910042,1.3169310386525501,0.9419482169520726,-0.28074879955782284,-0.04447213960620349,-1.5158727401929637,-6.459143133683851,-2.6758272140427852,-0.4137973027134702,4.2245247007828,1.2584644763021486,2.703319358069738
19,5.585043045898185,4.034071008452041,3.5477735177321765,2.0631042763278455,1.9928942620873118,0.09060436542683478,1.65748153739537,1.0009074673944829,-2.387811478765765,0.6063672611390009,2.968550748022402,6.7508598829805075,4.169273514341772,3.973336264993645
20,6.307568973137604,3.468375264523267,5.048234569201107,2.148686841124862,2.4944368558938237,0.5068085904609597,2.6692159184112487,2.9996030855944538,1.7438340780399466,3.25689326053763,5.13528916117426,6.797166565341018,5.495322138257752,3.6780516234311382
21,5.165417156360853,1.84014663370809,5.066379794024661,1.6324020250204359,2.4275813909357473,0.9142962902740487,2.8763946675403655,4.019997258881616,5.118578712736397,4.869702317621302,5.788802748198307,4.476065772212614,5.162319215590961,2.0909589999370786
22,2.6694843855791666,-0.24006279736204356,3.784947735752916,0.7524261172264497,1.9090868902659308,1.2430768503504337,2.405215999689448,3.900592595814294,7.159047640192169,5.3512835110606805,5.072218653005246,0.6799526163086859,3.595416788863214,-0.08284490512388801
23,-0.30219414944785156,-2.058940547747982,1.7201457184957771,-0.172820226332131,1.1219283956517085,1.411032115239284,1.5306573529448482,2.7901546740249032,7.599229413411437,4.848133513931741,3.430970205611026,-3.2476763688775883,1.49627827967641,-1.9890532598412431
24,-2.8098880897828042,-3.0504271133269287,-0.46929505687790374,-0.8609980176173614,0.24459318334885669,1.3378373585268764,0.5569399002978158,1.0769590467346868,6.495836652654534,3.634048808751042,1.4174247974026875,-5.973576038421688,-0.43351419272686165,-2.9399767029162653
25,-4.154799034727786,-2.978715226545102,-2.190041384305648,-1.156968416979299,-0.5933174220335944,0.9694450600312419,-0.2827161627634302,-0.7363403242086108,4.18971277905279,2.0080314099829213,-0.4855836689706046,-6.6127083081610865,-1.7206352826977427,-2.6507202048090055
26,-4.080687131623302,-1.9939341903069507,-3.074282125103985,-1.0683642014662553,-1.317318560627548,0.30798718932706176,-0.8749809765957295,-2.173397768117568,1.227473950577551,0.2347956500490189,-1.9685879925867082,-5.001442466146125,-2.2279474645856654,-1.3169967421061286
27,-2.8148817695772492,-0.5477158643465738,-3.0496266513753323,-0.7374590653428875,-1.8830627449358321,-0.5640796498174898,-1.2168874316165061,-2.9024604186299587,-1.746904579982772,-1.4673054724781502,-2.9103268224107377,-1.724278938664636,-2.12206920077135,0.4842741820289064
28,-0.945422383113378,0.7940491089259898,-2.3093509769737786,-0.36513257036670144,-2.241185982651172,-1.4792535408615863,-1.3650452584161517,-2.8048901046313617,-4.117909118446458,-2.9089959844162068,-3.3236797133876443,2.104429127060124,-1.73321087169712,2.027199210853128
29,0.8139289800890525,1.5687474700402648,-1.2059061371721174,-0.11973100883878154,-2.3167031907648368,-2.209804015533479,-1.3748633642983141,-1.9826216332341273,-5.422671292746252,-3.9113794768819474,-3.2749443918826393,5.223182857991574,-1.3752474119778928,2.712930064947133
30,1.8835718882448655,1.583915739603593,-0.11229891470096645,-0.06772529652450136,-2.019688634806827,-2.522656572716174,-1.2605696369423256,-0.7098807073736357,-5.448401336236398,-4.308729087087405,-2.820458174206665,6.639901682665871,-1.2014000237047262,2.2887837349454214
31,2.0109762493355876,0.9732074686826646,0.6988396889110433,-0.1531131179272333,-1.2877800701854674,-2.252276686729072,-0.9933878172027693,0.6524769790678282,-4.27752954866905,-3.9801656113134705,-1.988234584279267,5.945656271440121,-1.1503518881310841,0.933715428496624
32,1.3318568919739693,0.1233354660393786,1.1202801602544255,-0.23248832729295407,-0.14353611096964008,-1.3689287603721896,-0.53546936430086,1.7547553977973804,-2.2638362191614525,-2.8997296456948956,-0.8066265835520489,3.427049252498315,-0.998561068300847,-0.8167282418299395
33,0.2838840605484767,-0.4977832907887835,1.2045189898770516,-0.15025182469619655,1.2614701227933451,-0.016217244632559174,0.11022277900677638,2.343084992763642,0.05969735164953856,-1.1820073059479879,0.6417272492796326,-0.052467168862115825,-0.49196415899144325,-2.2751569215958267
34,-0.5891851661790908,-0.5442903751448157,1.0993080390134038,0.1779173373835637,2.6433302442467563,1.5018230764855516,0.8617065128309972,2.3117264002292215,2.1197768455980417,0.9015453643354084,2.1749136104439275,-3.3556394075493134,0.500517088490189,-2.8606429879124877
35,-0.8658289041158393,0.05272145224212299,0.9569123908277545,0.7091987703182926,3.6375911536484287,2.7886798452310364,1.554372257759953,1.7137482332630822,3.4506287258476926,2.951849882318885,3.50691675938953,-5.453089956983744,1.8776946480698018,-2.3168135735197155
36,-0.4195723240901623,1.0411983869737331,0.8570542874367388,1.271153877318346,3.899106059792265,3.463803462894708,1.979926415258634,0.7320483228054773,3.8082810905931965,4.517814302144661,4.297468519715059,-5.7551008669529935,3.290670135027641,-0.811455366286616
37,0.5300609718191557,1.936377499425029,0.77538338575265,1.6177998100298132,3.2213258626889427,3.2806704271248845,1.9569449428506644,-0.3776438637058996,3.218410728877128,5.202493911822482,4.247611315794766,-4.285216298762305,4.235672050515069,1.1179813564831687
38,1.5083780701886262,2.2123154481956537,0.6089636883587117,1.525867735547545,1.633421291470554,2.2164787018923415,1.4070542413774485,-1.354360317705206,1.94593391062336,4.7718938445294095,3.210831627910269,-1.6431527925791813,4.228225503601016,2.7538883591511745
39,1.9836948293830439,1.5265525664285782,0.24564067444495835,0.8953813001266119,-0.5646859706551862,0.5009648499548032,0.40573169693015393,-1.9920021672516293,0.3995532827386287,3.2346759864569123,1.2788452629576614,1.223417611872915,2.9988024633034747,3.456228205411302
40,1.5963885399920132,-0.10853442441684218,-0.3550238792814477,-0.18577026283910028,-2.8520445328754085,-1.4309384634867817,-0.816044909935978,-2.178157211396016,-0.9955234578565375,0.8666389936343422,-1.1948562951569708,3.3548149539770717,0.6376694108314697,2.897540798345971
41,0.3286997720719828,-2.2785912012524143,-1.107534004787503,-1.4426759186640359,-4.616010033037587,-3.053964232581515,-1.9260427834752651,-1.905426791856057,-1.9154836466669107,-1.8325774488260176,-3.6525126536751498,4.105534624437179,-2.370207040998816,1.191963660301386
42,-1.4544110985607102,-4.272428803323406,-1.8013838242964373,-2.4862033645969674,-5.327212361749487,-3.9033940492976136,-2.5870950067722904,-1.2574631896474742,-2.211583574810306,-4.245158808973332,-5.463097176493003,3.349813532967523,-5.244375060281319,-1.1283440708699473
43,-3.1156332807948397,-5.312241003845709,-2.1634945426368297,-2.9375583428333614,-4.7068840873247755,-3.7165881175364377,-2.5652598953606103,-0.37846297878447815,-1.922474681957083,-5.7802661154309565,-6.0934890300683575,1.4999347338270765,-7.1211673916489255,-3.2833449735869897
44,-3.9721001611661917,-4.83375582461439,-1.9627629518336072,-2.563611679662811,-2.8312698210817535,-2.5201443993433723,-1.8134830793950065,0.5623833771970936,-1.2300845146517576,-6.023566806493011,-5.27026024271655,-0.6635234868583473,-7.317771190945817,-4.505498485448703
45,-3.5581420608028274,-2.7182077523849575,-1.1178546997026138,-1.3750398838929903,-0.13481421772817204,-0.6328185074158725,-0.5009960273797843,1.401566747165707,-0.38196742898348424,-4.85250906305517,-3.08162710959421,-2.2856364537646803,-5.565489655157314,-4.303116002807098
46,-1.8264194089435808,0.6108981726359584,0.2359560996589096,0.3507261076084883,2.6952842711272775,1.4201776460467135,1.024299591414396,2.0019620412590977,0.3892409985332306,-2.4850808241187283,0.01575274196245117,-2.749864176258306,-2.134640541813239,-2.637970219362415
47,0.7917028499106434,4.270792677144662,1.7535180542221465,2.1357337658513544,4.905859362170846,3.0580666783001544,2.331557822959541,2.264155493411986,0.9230458936364149,0.5550806670109842,3.293747069968484,-1.8994134537020237,2.19603057367137,0.04354458556478387
48,3.4975041966705795,7.166674944539553,2.9676293859929963,3.4407066188703324,5.891655417396838,3.8159559246908246,3.0328782289495995,2.13291302077243,1.1522208924482593,3.553808703589971,5.931821214887692,-0.09029758567427626,6.325938562642206,2.9384616322783024
49,5.377776802934161,8.330184630208626,3.435468694840388,3.8348939369947845,5.371935987107026,3.4846130062226894,2.9011972039195006,1.6037012619567705,1.091087449868748,5.7772132496190105,7.231768872728115,1.9414164526393378,9.127401335774367,5.135240897981719
50,5.716597854073327,7.241280616121651,2.897009540028719,3.1414829038790915,3.475695485570574,2.1750247761676027,1.9437899332820292,0.7309751744836054,0.8058161838901997,6.657306548228934,6.8096585509638965,3.350619440510764,9.765608846360504,5.903218373718173
51,4.258691889997955,4.026064541812211,1.3897157960427937,1.508912426629318,0.7087285604896048,0.28667657401184143,0.40799189324944907,-0.3651555372920673,0.3844261878660602,5.94465505379231,4.710862785946509,3.4965105088224893,7.950081356871238,4.930996309350417
52,1.3294991852089146,-0.540457055889111,-0.7260091661366652,-0.6191376754002954,-2.1883992968887473,-1.612125407109213,-1.2841681919461445,-1.5014516216800669,-0.0818542112549351,3.7854239271889605,1.4135915918535642,2.1872621703561057,4.0410316111657005,2.436776310165464
53,-2.23681969049343,-5.236417498116425,-2.849008324777114,-2.6298478280959148,-4.449509804727353,-2.9562948064890353,-2.6545841818539526,-2.451320954641236,-0.5047765529686047,0.697369722708946,-2.2839638341535955,-0.2316383579798373,-1.0254478692370805,-0.8862976572444523
54,-5.345634695314263,-8.743384286260016,-4.3097688928010385,-3.926277993334947,-5.497219748227871,-3.3560382357872274,-3.3070036120927697,-2.985372817714299,-0.8006621870746858,-2.5547342881630346,-5.4657687807079975,-2.979045285168654,-5.977177575859036,-4.07467743688129
55,-6.989416980642212,-10.038787651554138,-4.5829421820763825,-4.113429879461624,-5.099778307396979,-2.7157744645184705,-3.0439541968835098,-2.9277853378650587,-0.8976764745500972,-5.155443387372738,-7.3366222335201625,-5.097437151137742,-9.545753063257383,-6.186081501446491
56,-6.581190232312766,-8.708207686756552,-3.4719119282115805,-3.125307595188108,-3.4255716961994054,-1.2623735458585947,-1.927679138093443,-2.2143905028609234,-0.7538855665973369,-6.455401777565945,-7.432783294689779,-5.782150394407412,-10.811035711393162,-6.587479373583574
57,-4.161663342929883,-5.0784234134059485,-1.2012885428099447,-1.2505909938490558,-0.9817957909210373,0.5270706334718108,-0.26590614516805794,-0.9328466089345868,-0.38145895838828464,-6.147911881462046,-5.745900469358435,-4.66755545574616,-9.451992420945736,-5.149205114099121
58,-0.40725759015558816,-0.1277044292472399,1.620724318928699,0.9533268980308449,1.5414890415035725,2.07626745582276,1.4747607651308647,0.6734038270669712,0.13625863832563853,-4.353044148336768,-2.7244717425281375,-1.970732997562367,-5.83180534970805,-2.2843894814997014
59,3.568788518385236,4.799974707852671,4.167337702010235,2.831942700016142,3.4731826765453078,2.8925787477463176,2.803282189021549,2.2467642143049784,0.6501655921698648,-1.5819919467008263,0.8490065186683279,1.5588516220039095,-0.8930012727254791,1.178251846341284
60,6.5611188935394225,8.388170268279389,5.640166020105789,3.8365643207843863,4.3480138398674555,2.7238218340572935,3.346993377870217,3.3978840909328167,0.9816864017904259,1.410568646438319,4.071555630985959,4.869312352752153,4.106309217939083,4.247605777987759
61,7.652110008410213,9.726688749014759,5.52271500666027,3.693472466316338,4.024288509672882,1.6386249691297787,2.960087612835823,3.8092665899103544,0.9842573125996266,3.843777780466009,6.163690885672867,6.940497249049132,7.937778191081324,6.06925186562001
62,6.503198146878594,8.559990312833538,3.758351578965794,2.4849425950158497,2.7012717537495474,0.0038509045082168888,1.7649334109908537,3.3306140599869662,0.6093440876940559,5.132444904874686,6.674323163032016,7.111609077406602,9.729420958311893,6.176878040903922
63,3.4623335928519,5.332813659677806,0.7912898487372425,0.6165258861541821,0.836572917121108,-1.634415282399953,0.11360896986282265,2.035443457624065,-0.05201432264815051,5.045605660664802,5.588315780173937,5.294045728228239,9.180356781486744,4.618967427466244
64,-0.5474271655064054,1.0263023795460318,-2.548848413144034,-1.3177457366806993,-1.0059070223331044,-2.7284009019538793,-1.5185404314016022,0.21761312160654794,-0.7771565492900574,3.753162788535616,3.3073808984614215,2.0002011519933363,6.6057957732919546,1.9245309586921593
65,-4.32110695123838,-3.1559900125338927,-5.288091089949839,-2.7273095199816786,-2.3275344990229687,-2.9073359607257516,-2.674589748495042,-1.6765858778170772,-1.2773648383831044,1.747731554029203,0.513095524375972,-1.819316011331382,2.806647983598343,-1.0767408789526833
66,-6.7502697339313125,-6.148114594740303,-6.602080943394602,-3.2111093456009687,-2.8331258657292597,-2.0990833979617736,-3.0494959162794393,-3.1652173857346173,-1.3048875714663717,-0.33040248800255484,-2.043634635711726,-5.074385583665851,-1.1888859131916059,-3.518960217479647
67,-7.163490835020862,-7.31433647423239,-6.0709841775202635,-2.6775561431538857,-2.496477045120612,-0.5547942702610102,-2.57477673041149,-3.864302520508043,-0.7635578483676062,-1.9052536295207803,-3.760539683660005,-6.870909847883485,-4.427317102267348,-4.763197534306068
68,-5.520159024630298,-6.588740842536098,-3.8138442298477506,-1.3610219771567675,-1.539001866633961,1.2317212725904458,-1.4295031655439858,-3.5986796943798014,0.22360540306310686,-2.6421122773083643,-4.342327941129977,-6.7745371915896,-6.281512088517322,-4.576523541009147
69,-2.399361100268565,-4.43043273896349,-0.4583031589923212,0.26770659870225766,-0.335210257465519,2.6836636733270733,0.023893746914493398,-2.4552234597265636,1.3261544083218253,-2.5304830784342074,-3.8528821266027564,-4.920656435324653,-6.578804928674471,-3.1738993554736297
70,1.205799188763858,-1.6242697991559853,3.0459492459719653,1.664525717699596,0.7193472236435765,3.3276705601894685,1.3568287201867835,-0.7597661344263654,2.1059084623870756,-1.847744129620521,-2.650355269128791,-1.9418552188698053,-5.576313338857575,-1.1160184889163598
71,4.214829420801666,0.9952666539127508,5.711455469037851,2.392606794622023,1.3328542787750572,2.945937611859065,2.2063015496944773,1.017593400534507,2.1774081311505373,-1.0213852148831617,-1.2332078807354512,1.255056049348195,-3.806245997642517,0.8966522475885754
72,5.797058128310646,2.800757013718589,6.805343585416011,2.2601342290311277,1.395696855713724,1.6445297147266724,2.3790974209508975,2.4010046386765627,1.372471537335126,-0.4445602008149886,-0.054465128432436456,3.7824810999279173,-1.856293150503414,2.2608164138002986
73,5.610451572272565,3.527762573518047,6.058573146934851,1.3709812912825323,0.9916948290436292,-0.18349017101241774,1.8967015874898228,3.0484190961399467,-0.15757757067471037,-0.3165262389953839,0.6293047289913377,5.036980315726108,-0.1681415477869307,2.6580781620074063
74,3.8707910296684287,3.2901599625613693,3.7293393103944856,0.07483032022846674,0.3449495972504566,-1.986313548154189,0.9698627973505156,2.8480784640312518,-1.9519385792521713,-0.5695899989582602,0.8220823140111875,4.852081880008831,1.0752270380011517,2.1331071630890097
75,1.2397307195547014,2.466989631216674,0.5063050649848954,-1.1623455899932427,-0.27366631848309,-3.229123912780838,-0.0844731948595908,1.9412492076062815,-3.373585960420648,-0.9106723032715751,0.7463141971413463,3.498211290474505,1.9404907920563113,1.0417046468185982
76,-1.419319825116148,1.5163164724708476,-2.7111204318072,-1.9203821715858254,-0.6448373606533171,-3.5587840613254085,-0.9525690708357165,0.664613939365419,-3.8288266976264866,-0.9608304909433992,0.7153170472698118,1.5433074142175172,2.6289580201762544,-0.10599971856381352
77,-3.3281380878631177,0.7916856790142268,-5.081057286586373,-1.9634526758159374,-0.6699197472330521,-2.904568055556979,-1.4213226343385978,-0.5674482318027595,-2.9979143730648743,-0.4369398090218095,0.9731408216004892,-0.36605771110857593,3.312700618397179,-0.8462252519940332
78,-4.026448403219375,0.42799851518004284,-6.0507413657778395,-1.3093915245823038,-0.38998358564739666,-1.4854519340207246,-1.4320026915668442,-1.4001881217478285,-0.9890017539312712,0.6985340021070081,1.5674255100244003,-1.720908467686514,3.997328590490064,-0.9317109870289974
79,-3.4792698555861894,0.33127988729294977,-5.484029922097771,-0.20995930312650984,0.046632116387424385,0.27305360493667225,-1.0760234641067767,-1.6485503258548753,1.6514907672222934,2.183401680579952,2.308393304831403,-2.289565019097049,4.474973026319971,-0.41051056176105905
80,-2.035785562017825,0.26440872641438723,-3.656180378902333,0.9463287654341447,0.45127003357512346,1.8797206443320962,-0.5401147637465559,-1.343251066786218,4.0901783712657585,3.5251025279510317,2.833768902402393,-2.1411308828729263,4.3931811888668415,0.41209132220709
81,-0.2689039750696482,-0.015135319004270734,-1.1321390987330393,1.7713054074324923,0.6686307416033568,2.9264230067665684,-0.025958334463716565,-0.6993909545073879,5.477712943794306,4.173135392432807,2.7572917997008237,-1.5591677857112891,3.4161037553093374,1.1098456267527361
82,1.2376683327109732,-0.626021662049046,1.4204015155624163,2.005285065754833,0.6296159315923778,3.19669083328181,0.3233475214879168,-0.02208003451841822,5.248798377304088,3.732124529119765,1.843696597140762,-0.8919582068930416,1.4130129836006815,1.3147239165125941
83,2.0771843611205734,-1.4949675546961505,3.4180047693674744,1.5937115440802414,0.36617896984110493,2.7036988558032102,0.46312336013687644,0.41407009627573005,3.342912885277176,2.1340693470094503,0.13957231186067182,-0.4047893054693579,-1.4072382947538256,0.8686114073896988
84,2.122372785041289,-2.37475047923058,4.493181692127647,0.6906056175397248,-0.01302108859111586,1.6542889618200445,0.44192712887707114,0.4662358196069291,0.25976889854201207,-0.29939146778583753,-1.9964482513301625,-0.19172013995861542,-4.481129148868922,-0.1109072267820826
85,1.5196663636969403,-2.9377232720642517,4.542571461675167,-0.40611925270139315,-0.3723470147574193,0.36100520641487743,0.35900957302353853,0.16859383794777402,-3.080300680392952,-2.9342149417476477,-3.983673242183172,-0.17430339397208647,-7.016602534033719,-1.274766432336542
86,0.5930733485327748,-2.9050487144715946,3.695779715186765,-1.3597149432370932,-0.6021666407473039,-0.8611581633922614,0.3066346518075167,-0.2932717667069246,-5.630477474520812,-5.018060678162153,-5.202825468700001,-0.1763303848372141,-8.227616746814482,-2.1776891175067616
87,-0.295015816893473,-2.1600196979305437,2.2339097014420854,-1.90146604967844,-0.6541449283267715,-1.7769084063577798,0.32392647796965185,-0.6662870045661032,-6.567129892953557,-5.924161647037148,-5.208948463751793,-0.03312727639162727,-7.599597493387217,-2.4507163855699865
88,-0.8706250302251402,-0.8027081751408078,0.49603131207869383,-1.9045921536923707,-0.5473576445806311,-2.2689554141046706,0.3818579755517242,-0.7377876031415721,-5.572248676144883,-5.358393870266187,-3.89603764442107,0.3167091204506369,-5.091206316583437,-1.944020060123326
89,-1.0205233411695842,0.872215728212273,-1.1953634222859741,-1.4058035878504556,-0.34696532867452595,-2.3299862557766686,0.4039906543500502,-0.4247613860157015,-2.94692049882903,-3.4561195258152533,-1.5515183011215004,0.7970149951739217,-1.1957174515004183,-0.7860354738671969
90,-0.7949380660996656,2.4631488401051285,-2.5763659895223374,-0.5751304698485676,-0.12839551192142157,-2.024049293831558,0.3113673198368192,0.19005055984588712,0.48674111527251135,-0.7358968868415274,1.2217963391574522,1.228812754355435,3.167921689563454,0.6617369939466915
91,-0.35366294064697845,3.580740829997693,-3.4558357459048232,0.34857939803895915,0.05539092961472292,-1.4420890030053395,0.06956136308010293,0.8884991225596279,3.662027207972006,2.0707477465758024,3.6905033267362417,1.4145607385406522,6.90554247568362,1.9349105496828005
92,0.11308084301709938,3.956825666927401,-3.717141838874046,1.1310701176998006,0.18939527871237294,-0.6733748115556637,-0.28445795064784635,1.4012470371000547,5.625007177930773,4.250596327010475,5.217966741926423,1.2317480650711412,9.061566206670348,2.630909225560889
93,0.45470435279494636,3.5095647542742276,-3.322231548450635,1.6016795767061416,0.29005594080630387,0.19794602766580435,-0.6485116560766013,1.5126992295947652,5.84672162618634,5.319164275090338,5.45564456718359,0.6936861543690243,9.095726135108578,2.5468950322225936
94,0.5978677640676208,2.3503800168153455,-2.3231001401002525,1.6841951594863562,0.38268325169667605,1.07749997304561,-0.8924536463468267,1.1459730409509097,4.381569764752669,5.140347730749009,4.4343535701843315,-0.04846543504365027,7.034642746447885,1.7421440630798448
95,0.5463199261676502,0.7394907390037349,-0.8734131602392465,1.397843058979996,0.4761010924846261,1.843975136430595,-0.9107842854883059,0.3954593468970698,1.8202220048965438,3.9224634009618597,2.5287890264551196,-0.7620975164426156,3.4523591531356197,0.5059942337593777
96,0.3540382189336687,-0.9881012025113771,0.7746000973342325,0.836174242711538,0.548446056633532,2.34990323770834,-0.668261928690654,-0.5049912475494428,-0.9397249407120019,2.1047648292442025,0.31424919382834204,-1.2229253901925077,-0.7094411703692323,-0.7523209206811422
97,0.09091415825981632,-2.500096299869386,2.3011988737110776,0.13564027117672106,0.5522045865735874,2.4498467185684216,-0.21910933662696977,-1.2655990987974177,-3.017334676573285,0.1868351783666935,-1.62865566821692,-1.3001710335621746,-4.419664044268678,-1.648480534086445
98,-0.18189411400617142,-3.5278146540372037,3.380648863374998,-0.5558138065090044,0.4370103603606264,2.0507095847732426,0.30848467226084036,-1.6439995040684767,-3.847228143122062,-1.4311899333132732,-2.8906527316553903,-1.0026712083441345,-6.844180424494736,-1.9493951145008408
99,-0.41943452708308115,-3.9021452615437204,3.7609071330105217,-1.1044748783976786,0.1798689077711224,1.16462427086902,0.7565312404334458,-1.5298187603358202,-3.3484262267554614,-2.5413459458013885,-3.3326712499209137,-0.4689105523831181,-7.552902742346523,-1.6380848248925928
100,-0.5870470387426824,-3.5670979065030193,3.337384415172758,-1.4099191498131756,-0.19172633612050996,-0.06139427642045112,0.9925502074112346,-0.9799400579262205,-1.9094812603965583,-3.1298233947648915,-3.0801050160653,0.09251667436291722,-6.591532721476082,-0.8990756202787943
101,-0.651986346468828,-2.5789967288034186,2.1939375823191063,-1.4186929589384627,-0.5960172618075904,-1.3593263492485745,0.9545216868835035,-0.193118856332016,-0.2056383237740611,-3.30349998123954,-2.4257176661608106,0.48593182690360004,-4.409470077297868,-0.03579601756240966
102,-0.5833030885555742,-1.0979761680506468,0.5926248637087921,-1.133216390861949,-0.9169225476557824,-2.4020049041395533,0.6688545079808116,0.5646969213665269,1.075550826316977,-3.18557997804911,-1.686922993229978,0.6010807014320858,-1.6817480010887618,0.6454329796846044
103,-0.36393183262544276,0.6273600917907444,-1.0894834893561387,-0.6141814405812555,-1.0419946077647246,-2.8974534146738082,0.23605108978990585,1.0554494878988265,1.4939292387096403,-2.8331543393875975,-1.0764220813501957,0.4473554812059881,0.9075368562328512,0.9413505870288477
104,-0.009656502210948914,2.28681384079257,-2.4594547689816904,0.02694015750322831,-0.904616933675881,-2.6846439495953267,-0.20847930141173088,1.149458722465785,1.0062831616383237,-2.2146169090215366,-0.6353806383973778,0.13890736579442467,2.848575934848887,0.8115225475966038
105,0.41694224312411066,3.5526554330815645,-3.2134016033640314,0.6477719273662723,-0.5139865421874182,-1.7954787003217034,-0.5420458756059452,0.8632915249289717,-0.04424754843754326,-1.2544160788886218,-0.25051048711905355,-0.16005577128666085,3.9043304072049314,0.37523200645497007
106,0.8095408396237607,4.14116551472697,-3.2144593105136976,1.1060130355815445,0.039697129499304505,-0.45755686396636125,-0.6925384943530759,0.34374763451370305,-1.087117473577701,0.0797340020334736,0.25795097314844834,-0.30548569498672395,4.1074689558962705,-0.14769971283040864
107,1.043242939441895,3.882176651241408,-2.520344548716958,1.29509302627559,0.608454865353712,0.9673255372616318,-0.6538678943356804,-0.19342417647740892,-1.565343560762738,1.6924685153476202,1.0180337724014554,-0.23061521791579326,3.6752958862070475,-0.5264467814889356
108,1.016230169361036,2.777747327752149,-1.3542410268997611,1.174152970604084,1.0312138217652602,2.0907158934045964,-0.4763020981081872,-0.5457841570651405,-1.1643943456363395,3.3246954626788785,2.0092082005102005,0.031385654533144514,2.8869996232289,-0.6051135339783412
109,0.6927942686038439,1.0275108025211848,-0.031402249493890484,0.7817369159431593,1.1849132532513498,2.6157196734883357,-0.23893351027611962,-0.5969585910054489,0.05722517976937437,4.591674478227991,3.0294129271539525,0.3656194237092691,1.9736459210734252,-0.35529649125491725
110,0.12925196961273164,-0.9961900140199599,1.132867980883921,0.22683372139309904,1.024413197473532,2.426169896047798,-0.01734462144543796,-0.3543553147888488,1.6828373469093223,5.09000888399701,3.7432834815615736,0.6247302962604907,1.0587449858020315,0.12054172691233492
111,-0.5309958231498044,-2.8260988600697985,1.904585205842134,-0.3415798352484585,0.5974226425130372,1.6170926055340118,0.1405865139088202,0.06000257251607023,3.0901499178728122,4.538430015708478,3.797383852175048,0.6883240834158332,0.16249476281837688,0.6325870392847981
112,-1.09565461851065,-4.015277561599413,2.178983406924963,-0.7775142440160776,0.029387059346556946,0.4574042643044219,0.22307773448509624,0.4601630418523244,3.6834493206284757,2.9004892455126847,2.9618149674497944,0.5093944355623734,-0.743843893106435,0.9759494869813391
113,-1.3840078957265307,-4.258869896509176,1.9854071094124992,-0.9796114462322667,-0.5163466918650059,-0.7008201514758743,0.24696424525258312,0.6685859958053114,3.119604373192827,0.4402593991663739,1.2457011237606743,0.13125467378298636,-1.6655951291467768,1.005103442724552
114,-1.2889156133744373,-3.4852894683720304,1.4544589371633079,-0.9178355207820215,-0.889461963507951,-1.53450247659145,0.24074700922736092,0.5833891829048937,1.4459416762104675,-2.316150180223695,-1.059080563885895,-0.3293667558578285,-2.5309027180271197,0.6849396074601284
115,-0.8176098024884653,-1.8860318764586927,0.7637148569885839,-0.6369347955786135,-0.9977103942076136,-1.8453531427886747,0.22733620287886552,0.21650210508573212,-0.8990180020006557,-4.708126970137684,-3.4283193617247707,-0.724817736060866,-3.1818370771491096,0.10226325928254115
116,-0.0954321926110902,0.1291199470377023,0.0823248962437509,-0.23675174065981958,-0.8316608321019715,-1.6091558647240334,0.21407973373186923,-0.3102579385276374,-3.2217797148682616,-6.120846438421473,-5.240699815678007,-0.9279619996075819,-3.416580485713306,-0.5644177349727595
117,0.6702148499078308,2.041467250650641,-0.4685761865677352,0.16252941251174172,-0.46216288171386843,-0.966011699703506,0.19308106616648762,-0.8090011435228556,-4.799247574452851,-6.1630556038020625,-5.95893159770399,-0.8742292246585569,-3.0670911929824047,-1.1051498452814859
118,1.2541539483164572,3.3662818148538887,-0.8311937594753351,0.45753734093008575,-0.012929196600933467,-0.15969998520699275,0.14971037175045704,-1.093285094516301,-5.115787385810188,-4.7865896377427894,-5.300364958552431,-0.5806938184434426,-2.0813193002980084,-1.3478754796606682
119,1.4843867225213292,3.7866926171208695,-1.003466231057723,0.5890210322605139,0.3813069121300774,0.5494242085156263,0.07392340084044638,-1.045107110616135,-4.032234484524921,-2.309612476364984,-3.341269266264725,-0.1374147658420339,-0.5757062300405289,-1.2137970247884486
120,1.295946579908088,3.2382603306507303,-1.0173376286281959,0.5518490986599229,0.6165660532977713,0.9670526349201661,-0.031373762507361014,-0.6577156317958767,-1.83188572890697,0.664656897991642,-0.5179154631284968,0.32421022648506537,1.1665646460504753,-0.7411379666947506
121,0.7500029799067837,1.9191674325439463,-0.9146472849555876,0.3871072341787373,0.6479257301693259,1.016714304178557,-0.14852385329364312,-0.03945782158347034,0.8690823312027325,3.4099868263710262,2.4807500187153866,0.6742101298614339,2.756865987716675,-0.07064332076984389
122,0.012576881353108546,0.22421735658425387,-0.7304428529793923,0.16180529235566132,0.49644495999415494,0.7474296360301095,-0.2501878764195357,0.6221998184767462,3.3142961033496445,5.272119779679162,4.899724856322405,0.8233959745251934,3.805526969414083,0.6010914790651906
123,-0.6992004196843415,-1.375533495243945,-0.48822360016209937,-0.05509939416939988,0.23453862940607667,0.3000871846733808,-0.30869817171824504,1.1233924195105498,4.838065709520305,5.839987342765202,6.128914230806985,0.7470630937464242,4.036534671577989,1.0841291025138935
124,-1.1848925535398882,-2.4694278555408404,-0.20550594699674066,-0.21208206375168198,-0.043198741153851555,-0.15120336665987447,-0.30570753025665093,1.311215934038258,5.059973259350964,5.045004227968419,5.87477111804591,0.48689580231640517,3.3747052801977295,1.2527837905077501
125,-1.320352228030611,-2.8183782399872683,0.0962828937221354,-0.2848215330898119,-0.25254740124224234,-0.4602050364865841,-0.2385217941431601,1.1326078838477707,3.9839193030345617,3.1630337354798383,4.240444592994454,0.1324826554757105,1.9756119268597891,1.080169826321344
126,-1.090582809347769,-2.4085766448530816,0.3846990730981329,-0.2757164902591272,-0.34447142227691346,-0.5516152805793095,-0.12117999675236311,0.6487402336275602,1.9759928474221196,0.7229575203711752,1.6904417146071475,-0.2098085541555009,0.1869732603408443,0.6400155579570392
127,-0.5870556562336748,-1.4353260184165957,0.6169050104347792,-0.20609504199632891,-0.3149506216864348,-0.43437724935186706,0.019576449113994688,0.011355397847303364,-0.36464471318415725,-1.6475179466689946,-1.0883727882395657,-0.4496774784604724,-1.5474572854525994,0.0772093815943276
