,AF3,F7,F3,FC5,T7,P7,O1,O2,P8,T8,FC6,F4,F8,AF4
0,-1.0478807583269534,-0.6771818473033913,-0.7093826030613257,-0.24494344952662764,0.009703768323702247,0.7257179450297725,0.3875573731625647,0.3424751124010681,0.3630184800291753,0.34098737751316227,-0.23095487283218116,-0.7676667336367361,-0.8121398821701861,-0.9205836016290495
1,-3.9409548728672235,-4.81199407823478,-3.5962105141124203,-2.060157695948932,1.3159001303484794,3.269815647960597,1.2458240140051178,-0.18206599137728693,7.3158724705125415,-0.8088618151873614,-2.1412016563631706,-4.667748980320673,-5.081478870236485,-5.818872982116608
2,-6.095771270606038,-7.807242751809777,-5.671225183534101,-3.3694758481344915,2.416390735306483,4.926194789111111,1.6736776144642247,-0.6629919049494417,12.661013672376884,-1.370114609119299,-3.2021668224741844,-7.4769680153280165,-7.8431629332751545,-9.19998525480597
3,-7.167403684481766,-9.006799914647827,-6.486728790949633,-3.887084657642846,3.1118423642189903,5.238701978097955,1.4724319995866306,-0.9903602602445748,15.144041717214785,-1.0201077681947666,-2.982691918871068,-8.567250777687184,-8.277154426613254,-10.197256279802529
4,-7.015157928346282,-8.215437954870664,-5.920556484520857,-3.54720712737173,3.271719878478847,4.153573488555371,0.6580969376225165,-1.1131613214369005,14.140823992184188,0.14747557495117133,-1.548525072623052,-7.771196354206733,-6.296004036179322,-8.653863516299953
5,-5.709957598640887,-5.723336038159182,-4.188819589955239,-2.505324477210009,2.858857618092497,2.022947362741286,-0.5400249600657626,-1.0530035536959095,9.817387873333654,1.6454399489121212,0.555766533997204,-5.402153516006508,-2.5581932473127376,-5.142391653701635
6,-3.5019494626270617,-2.197474969361443,-1.7615926326324178,-1.071759448858231,1.937690114197499,-0.5193265751492427,-1.7519726423582904,-0.8863950744894359,3.1193179569624703,2.7802807891809183,2.5092172266479613,-2.1323368888285117,1.7603856377676936,-0.7485536565578127
7,-0.7622874180316206,1.5190963258836396,0.7853564048853422,0.39470510631787825,0.6643906143652006,-2.764241370570986,-2.585958582388313,-0.7032811455565925,-4.419800304083269,2.933341424982478,3.526191882065683,1.2240793480716448,5.354990905052873,3.298794125735462
8,2.083248325799583,4.633584744125168,2.930793833089109,1.5932254974399649,-0.7396684786701518,-4.144957913716038,-2.7534780702433443,-0.5600484879836971,-11.020783194053424,1.8270766389988318,3.1602435384089094,3.946876025301709,7.207049549489758,6.017713069572298
9,4.6140422522248326,6.586889749901554,4.328787270880602,2.3509061423003867,-2.0267236714951435,-4.392813616083971,-2.1598309031317084,-0.44840718594220924,-15.081172183967244,-0.3293384200215659,1.4847810737219682,5.58759125375277,6.887733572152493,6.948120339957582
10,6.4606310270831875,7.14664990625021,4.857365267301684,2.637210767472173,-2.9670103715399763,-3.584831369743151,-0.9320901924347329,-0.2958747483709002,-15.577497777661657,-2.877040892276617,-0.9194738349776224,6.038234620631204,4.655396650114941,6.224260688990743
11,7.338048607703754,6.397363695948322,4.591304550394995,2.5269077385602405,-3.3908603920871587,-2.0761033890671516,0.6216771331591049,-0.0009477684901125081,-12.341799058856544,-4.920941195163348,-3.1684604658732063,5.48254338045753,1.3260704601036295,4.435525728369278
12,7.072902432854514,4.650471765039115,3.7228263526737595,2.1354890720367687,-3.2207057198131377,-0.3512434831779372,2.105438671338675,0.5088441582461654,-6.130582283386601,-5.646313817783942,-4.396924422827394,4.263988221921946,-2.026240026287306,2.344722119741078
13,5.630112004401392,2.320242406367697,2.469908614099744,1.5594410043382105,-2.4865797669069183,1.1449527636498293,3.1482948286350205,1.2191713294982893,1.544956728729926,-4.624500360439687,-4.0809151326152975,2.731496807656332,-4.428730347312871,0.5817599430105846
14,3.139278537113442,-0.1856427892469772,1.0109256118110956,0.8479270453356696,-1.3213937994187612,2.1354951648196896,3.501815999665146,1.9976588357222833,8.793628342631315,-1.9948326962813063,-2.241641691571698,1.1256201054573312,-5.304871738289207,-0.5674795923174257
15,-0.08795739591939827,-2.5280418241966625,-0.532119753605119,0.015484804507681771,0.06395981516459409,2.5572038518891165,3.0944956402708925,2.608208183182697,13.829635035064639,1.5472937073053896,0.5457349137241184,-0.45476846773641216,-4.612346360498823,-1.201832078887132
16,-3.564908223216741,-4.445176032256613,-2.0639749199688753,-0.9150887158410036,1.421304159535321,2.51958384234112,2.033027517661794,2.774255408581319,15.438031849664181,4.9574333079886195,3.344148937701953,-2.002329683398324,-2.7914954195997472,-1.6719653805805943
17,-6.676911520596626,-5.728533509636401,-3.464481853413336,-1.8654627030217479,2.5133787720169467,2.2061964436302275,0.558175197443754,2.275322714309565,13.290425897419055,7.175795747746715,5.180354692550045,-3.5013618223440703,-0.5597050189696147,-2.341638586416578
18,-8.776055365167766,-6.19963776082301,-4.549916222473964,-2.6790148159370957,3.158944511924673,1.7684414842937333,-1.024370427078662,1.0457581325067777,8.020876082974137,7.474050191367524,5.388407443027029,-4.83330648394846,1.3622889428251588,-3.3525611494015957
19,-9.315583910891382,-5.717229763726626,-5.077147113097949,-3.141390476215847,3.264561380451747,1.2600569335605778,-2.4143681027937016,-0.7611467384390155,1.040025052156651,5.696866956929013,3.848038923296971,-5.740675369168683,2.4897041344632522,-4.4990303920598125
20,-7.997709453797157,-4.22462141049265,-4.801368285103851,-3.0440093094439216,2.836166398753368,0.6388547602590418,-3.370462953672245,-2.7732541612998376,-5.858512017129219,2.3166568664400273,1.0324555833765563,-5.877498072563104,2.6975124528905505,-5.272151908395358
21,-4.894378102273875,-1.8207481527754847,-3.5728109336511036,-2.269809806658948,1.9691135742329517,-0.16991192879385858,-3.7393110210196854,-4.474639929750042,-10.985128135929079,-1.7153223894274097,-2.151723376827463,-4.936444121028909,2.1968233907600014,-5.062675821216465
22,-0.49728167531220613,1.1820014720913732,-1.436506981977,-0.867506088035224,0.8212695415711221,-1.18283792121182,-3.4636452269880795,-5.341490543538647,-13.194508594506885,-5.268985292917663,-4.675372310938841,-2.806752819455058,1.389367118565492,-3.444295745296992
23,4.33491215227097,4.254570402655252,1.309139111993765,0.91933360991802,-0.42197505108284356,-2.2877941611960426,-2.578431855047576,-5.002013604698977,-12.156136968774188,-7.384355570303871,-5.738072685438349,0.3024715381302089,0.6695739404634564,-0.4220603331573172
24,8.538431132922208,6.728773101067065,4.130140962678026,2.6883041123545204,-1.5807903390544313,-3.2332219217214475,-1.2036045888743583,-3.371088720218053,-8.385879113313457,-7.553863829016949,-5.035643711521498,3.833548592431483,0.258472056287844,3.4618751797984277
25,11.088322240648948,7.951392893228097,6.361902441037361,3.9763708152728188,-2.5043946572335782,-3.691529475975444,0.46386257308773604,-0.7133531426407744,-3.042860406562733,-5.849014959752332,-2.8512576249774644,6.9760826844275154,0.1348168216349353,7.222879125401934
26,11.266692168794041,7.476668757418741,7.3805948502568,4.393776287904762,-3.081989283749055,-3.378095500715132,2.1626819107375157,2.3929139156931316,2.4348257923878625,-2.8584751817170324,0.058330958460853476,8.872833556695598,0.08510211855905472,9.71240929336057
27,8.880620253371909,5.23529747743444,6.792616237452586,3.7515706368906128,-3.2435193736532377,-2.180914283897258,3.5926572274732416,5.189397205805228,6.738402876260169,0.5303501643801357,2.736364351926424,8.87776991645143,-0.15663206232046525,9.993213815583173
28,4.359899355144409,1.6154861862192784,4.580902207642783,2.1391559565531626,-2.9564870001513497,-0.24685068550135844,4.458526573307796,6.9360874630506,9.018388694374883,3.4233139952229967,4.358467859447753,6.782791488514401,-0.7456172284541456,7.6826612714541
29,-1.3072378331530945,-2.5865019544089916,1.1545689579440965,-0.07805659761966982,-2.2257832055564553,2.016849028747364,4.530269142364144,7.1189966589648925,9.04733660430293,5.182901343830596,4.504645544306387,2.9322351328823215,-1.6153149760661216,3.1398443709512076
30,-6.797386364984102,-6.348300805620487,-2.7244046660953667,-2.345965262264518,-1.1006178534635602,4.036969571348144,3.7077670736157677,5.605618548092634,7.185663885802975,5.578576842289627,3.277129284168931,-1.8238614335248613,-2.471420307969796,-2.578915483952991
31,-10.782460675893086,-8.692099121879806,-6.125264825761139,-4.071407294401324,0.3129543573719191,5.239467532705145,2.0699841610247125,2.699465062204688,4.185270474897498,4.7862554935988175,1.2290665812599653,-6.335480805046324,-2.8988357907087314,-7.994329070449498
32,-12.278842296622706,-8.965633855970255,-8.194227580341602,-4.79019430751236,1.8414211300808534,5.231594844392056,-0.11221955884981236,-0.9261990759566086,0.9134427562704162,3.255744636587811,-0.8614105696347377,-9.461753725784746,-2.5406493418036105,-11.62777210752889
33,-10.91510585605827,-7.045179459137749,-8.390307735022237,-4.30232773230029,3.246184287486622,3.9378245189650913,-2.4130593819343966,-4.399442875326286,-1.9044030979338678,1.510299475633024,-2.282763099745505,-10.391331533793847,-1.2754290162355715,-12.441531160837837
34,-7.037772307846544,-3.3919821022621703,-6.639897168106926,-2.7324547243524133,4.248766774740301,1.640202555140259,-4.337597706039963,-6.877978617228768,-3.843634561478282,-0.0398095370837202,-2.638494678224339,-8.875213460093123,0.6838407661779192,-10.15506400823223
35,-1.620535684819224,1.062257270023797,-3.362202280074999,-0.49650872163725357,4.582051211860184,-1.0939290892142741,-5.438518764383073,-7.769790528746116,-4.806352353625917,-1.202344676265417,-1.964479117050917,-5.299336387593288,2.8175241965104774,-5.33600978123841
36,3.9990367190199922,5.171052456549911,0.6431465566373785,1.8156047829738051,4.060302567230526,-3.5748412572363684,-5.432960497559271,-6.883676332888905,-4.932351477023254,-1.9983291653370603,-0.6792961717204036,-0.5744195290789293,4.453370994780088,0.7625000608962748
37,8.478990274587314,7.8942097119787755,4.412824710312411,3.6058568730418727,2.650134522569203,-5.190526077022319,-4.2844119044774756,-4.468720715433931,-4.453421811046295,-2.565701719496221,0.6051507556356797,4.1220337750708325,4.996122085262668,6.565278951365658
38,10.823406399795822,8.58666064151346,7.0759940601834215,4.432873758588695,0.5182708995512726,-5.578244927971947,-2.222381395112797,-1.1351317983552647,-3.5630749239590145,-3.025527580871304,1.3348643312242638,7.671181529498365,4.149793995449988,10.623646478574981
39,10.622734992858197,7.167243265605022,8.07453450208728,4.127391983243489,-1.966528242834004,-4.712890886022105,0.3095576384606258,2.3164369595610643,-2.357331494258671,-3.376644856593129,1.2290775814132027,9.30664001178327,2.048424841506063,12.009966717207615
40,8.1190822179574,4.118145093560711,7.285432349673228,2.8262234411972247,-4.289582354839228,-2.887795250827245,2.7642461348465894,5.1048869140549895,-0.8637273343016573,-3.4687678746807675,0.3791234781443043,8.791265390496983,-0.7582480199374935,10.541409505359452
41,4.087435913478136,0.3200543463212595,5.016088385931198,0.9180575657738446,-5.899550009485833,-0.6016032961671635,4.627673392330349,6.657814867720364,0.868129825170862,-3.067870090056213,-0.8028672491372202,6.432294813941742,-3.4659443359659496,6.775538659616062
42,-0.4191455571233953,-3.220050816471695,1.8839023180434062,-1.0787885446907686,-6.347323759670478,1.6035609234621044,5.541114070846352,6.7303138769885145,2.6716738315519986,-1.986068407224952,-1.7609565414398565,2.9434859540965572,-5.2717845938424235,1.795389920630165
43,-4.373253619764935,-5.659488043797368,-1.3736929383808367,-2.6668664076808546,-5.417448056559078,3.293803673982988,5.373445986396517,5.428753175112945,4.225484472126733,-0.21803144852436457,-2.026127240870592,-0.7897311577802989,-5.6371758394013955,-3.1334052808198436
44,-7.030083432999778,-6.538081540256033,-4.094997705647868,-3.5019561093913114,-3.2118591074027534,4.235144696010157,4.226456776052833,3.1447594940798846,5.108996474972058,1.9805845367924009,-1.4097064243874269,-3.960393903332547,-4.465583360416741,-6.91744245181303
45,-8.065643960554945,-5.8616700025054795,-5.836732204218844,-3.469214679601485,-0.15549994269274628,4.402540494033185,2.3795437403829456,0.4295398773704536,4.944602925608321,4.116878763360844,-0.08438119328976125,-6.027392626825548,-2.1324413848958432,-8.893692558620131
46,-7.570467142758586,-4.036560456959945,-6.429206695058698,-2.6851311566582994,3.0860137594307724,3.9178418568621347,0.20013913189663574,-2.1489473022164125,3.574207304066208,5.59104637818871,1.47796184407439,-6.79196536246068,0.6432501166020063,-8.925273817224035
47,-5.924369203839765,-1.690823066881776,-5.943717841788147,-1.4322107324840823,5.760879764591715,2.955512591099348,-1.945377494794916,-4.126139095276454,1.192326298723759,5.8936422593464135,2.686843850900368,-6.358952049229591,3.03995831680992,-7.330112276456085
48,-3.6156153739849013,0.5467657847668154,-4.602744339839175,-0.0545175035125971,7.219254683496849,1.6642436380252692,-3.751661461806301,-5.213135379010101,-1.6360970853163805,4.7991222478604705,3.062036916776872,-5.019285017426551,4.402178613463096,-4.693998737849587
49,-1.07922601892487,2.2312782018610573,-2.679645836254874,1.1473906026278011,7.084191030301399,0.1404978116751105,-4.994247243525385,-5.315541979699556,-4.106056510234309,2.4800988114877143,2.4220963872471466,-3.1131875967662106,4.442983811751236,-1.6515290496826343
50,1.3884915064798662,3.1911319140293144,-0.4306705496564004,1.9872219629722307,5.356861996113616,-1.538052330251445,-5.519075636960637,-4.510226759627635,-5.424903130193358,-0.5088141743812526,0.9595898264132112,-0.9313080790492553,3.3123017808492947,1.283281763363323
51,3.62050360225868,3.503879888270606,1.9192414992977749,2.410344577367567,2.4245955486409154,-3.2430478251234796,-5.225860635383281,-2.999891300039606,-5.104298297516305,-3.3828011882110114,-0.8265493505033784,1.313895962469865,1.5120765103900062,3.7868075209625007
52,5.4993039056295485,3.3836922611800504,4.144681781251334,2.4606549073168216,-1.0327751021328617,-4.735231432964776,-4.070250974804661,-1.064198490263654,-3.1795784014906836,-5.368688986242872,-2.3163201185794935,3.4505216044952163,-0.3052235512210319,5.693826483585016
53,6.862224851418334,3.037688649366672,5.974579328622408,2.2193567220874098,-4.213774487566655,-5.659696370338529,-2.096128226195007,0.9819183634174385,-0.25761023561272894,-5.95468855443727,-3.001044378944779,5.279613116708201,-1.57728263671742,6.905485255958637
54,7.453096198719741,2.556295505358076,7.07548672888186,1.7478288714432666,-6.396755439065614,-5.621245666452342,0.5126056610374325,2.8219358719028462,2.649702551413957,-5.058395784815264,-2.673782870729939,6.528576893939037,-2.0224490806977737,7.30185513294689
55,6.960086014505085,1.884708903842059,7.094421849457932,1.0627871364758636,-7.1168855041630845,-4.3281350868336395,3.3911674525666777,4.1688956923212155,4.467942439508151,-3.049406415053334,-1.5043087748603499,6.867429105657622,-1.7120032303120605,6.716899669378792
56,5.139030950856619,0.8858320725393826,5.764756871721029,0.15569099786103038,-6.271335929437213,-1.755768452696021,6.001317174027678,4.799601581056018,4.4646358731178175,-0.6142478799137165,0.030807447983726224,6.000020917696837,-1.0023335766961432,5.00031895748486
57,1.978077187788049,-0.5357277596698332,3.0449474126143214,-0.9537135421196699,-4.126921621098872,1.7391843393912207,7.7127950993095995,4.591943117993602,2.5630380864251534,1.4902486476792594,1.3366029415611032,3.804199322097744,-0.358938955806966,2.144802947353928
58,-2.169009018994297,-2.3076915409280896,-0.765769104868533,-2.1584583176809238,-1.232972549663334,5.418231629594466,7.956508169157071,3.557856450289772,-0.5685035313409229,2.705502614836439,1.9338663169854213,0.4641700234496807,-0.14525669105878675,-1.5817947724783339
59,-6.553861427047631,-4.126045460733803,-4.995896151789931,-3.235559119305958,1.731232600506615,8.30451132301813,6.412932022169993,1.8592452739034326,-3.7104838787835646,2.8609006818566365,1.647446924964509,-3.4709470487717096,-0.46216387236936424,-5.5744298758541975
60,-10.15117117032035,-5.494824535198254,-8.69520106568035,-3.873761167294574,4.128714098812636,9.448883540488914,3.1730542003292275,-0.20524729603240985,-5.521972844415021,2.211134866008537,0.6737189600909264,-7.150018298435884,-1.1035480259934687,-8.95571459105135
61,-11.912566150555062,-5.870501557729512,-10.852345340386472,-3.76147641272529,5.509257812150978,8.24530528236817,-1.1958579561473046,-2.2477146376293806,-5.060589507686787,1.3046404192815928,-0.5014722603221217,-9.610397653811075,-1.6470976920046991,-10.77767998979748
62,-11.090095753217899,-4.866722464953048,-10.686542660799308,-2.710614673301585,5.69118356081707,4.690260144115287,-5.725583135683138,-3.866722980672447,-2.197637707540964,0.7326775670576191,-1.304340123638465,-10.051859127520848,-1.6449911885846793,-10.312241100997843
63,-7.5247698244743635,-2.4441121958655154,-7.9250960851829015,-0.770441131864716,4.767124252507427,-0.5157654246132453,-9.265397440207355,-4.734569955792782,2.243512335286798,0.8581339173980036,-1.315832344928734,-8.109962926345824,-0.8376529821527282,-7.335518729245376
64,-1.7926444267197934,0.9937481778877816,-2.9682659803961804,1.7194489801633368,3.0434838094476278,-6.085124154989111,-10.794037190527801,-4.673383963970135,6.7050079725886045,1.635630753467555,-0.45856947950665533,-4.032385345285273,0.6981697040049093,-2.296761528650212
65,4.862345642058482,4.649896757730091,3.1322285335214017,4.172248785469326,0.9401541202248457,-10.469224037681995,-9.735094835643443,-3.6988139837197207,9.416263733145769,2.6031058359344628,0.9496399180136893,1.3158810715167757,2.532699107040618,3.710206937581516
66,10.813280044012817,7.531253070544948,8.899904994225937,5.895930767752119,-1.1165544009708768,-12.310474449370313,-6.172934411315691,-2.0185279024495855,9.047271339680139,3.0598334813163444,2.3030857546849273,6.64071814615438,4.013637701188283,9.192774056071901
67,14.48323717883331,8.741073932022873,12.816419982826902,6.298916595029166,-2.7794007403776817,-10.882874592643036,-0.88846803713503,0.014684392750303935,5.257663517299924,2.3707169673854103,2.9410376478515525,10.558265035471086,4.5018740487076325,12.66559055340987
68,14.800921928763005,7.7745249267872,13.754194836928999,5.095106148370279,-3.8280390277638436,-6.373505520686216,4.8134423273898905,1.9829543530959837,-1.0722460486960377,0.28066484523965396,2.4200488010833885,11.98866569614302,3.626639855924531,13.096623940910467
69,11.536877741306416,4.716184131918946,11.32639136224236,2.4358489409182873,-4.177739702599459,0.10273535758114163,9.446848066983588,3.495869857883538,-8.03858705517571,-2.890814289517053,0.7201144433265763,10.482608164328045,1.4620298451488547,10.247814374609314
70,5.408722358175201,0.2646763197388921,6.038955991141751,-1.0855404941803806,-3.859247432205935,6.781835071735244,11.761716994910032,4.272756459994229,-13.298760294817216,-6.2678284397801045,-1.7003088496110692,6.374464361748883,-1.4484828145464173,4.790037707254254
71,-2.087017075501144,-4.43609940563318,-0.8137048211559381,-4.571491239545385,-2.9853662412423128,11.75298595732039,11.109742038134666,4.1961900843412,-14.859628741663785,-8.665888615895692,-4.031454570210946,0.7076694272436349,-4.239316356561471,-1.858533922125675
72,-9.073473826201141,-8.115472278576298,-7.488708161161889,-7.066669867771147,-1.7183697367586164,13.535478945323165,7.6444641169152625,3.326803718514814,-11.80085487755346,-8.997527802964704,-5.384700080363291,-5.050473571622472,-5.998472567252865,-7.93065737166958
73,-13.806265188797033,-9.748550703078358,-12.274206607858762,-7.840137912294951,-0.24609778260015294,11.547822116320967,2.2898297197209216,1.8793932133432776,-4.674312300184626,-6.696830697868255,-5.116868258693803,-9.420157480399961,-6.0789659692198965,-11.824073298277703
74,-15.148156641664476,-8.865851278597118,-13.966166805380787,-6.613743959874895,1.2329009775154967,6.3133622629544215,-3.5175950290076647,0.16884577471759907,4.5773796332726695,-2.00505726234936,-3.089246481701248,-11.3220788386483,-4.33651150162659,-12.56918372809975
75,-12.865757724715971,-5.700565649109428,-12.199273742529508,-3.661246159890459,2.520285453114928,-0.6731542762602797,-8.23703419302155,-1.4602233340226327,13.178870690754103,4.001356174207022,0.23688697700546382,-10.367911631771236,-1.2066337744740745,-10.101504686512781
76,-7.66513288815769,-1.1249724730144288,-7.5337969305221675,0.25717852115582607,3.4315269095509926,-7.385258265819625,-10.659924416904573,-2.704494567139247,18.387603710947097,9.673813894877794,3.9109918128824894,-6.94421086967682,2.4112111156957488,-5.2541422575391135
77,-0.9644623718754053,3.6051997390860047,-1.2761440648539575,4.107550224004839,3.8163857119877744,-11.877141369447049,-10.24358570933221,-3.359403112233092,18.38733022187743,13.276789141326416,6.7807451405846155,-2.0714927364505646,5.428142594712131,0.521954671153383
78,5.519345087157985,7.218653554588712,4.907481067236639,6.876989330757702,3.5855313912665423,-12.876418737079923,-7.244257020509221,-3.352526489436903,12.912940488371628,13.543753548199685,7.863687974764257,2.9106016801510557,6.90949117388928,5.613666135388069
79,10.241876117784203,8.794359180963669,9.463864864500637,7.860277604346348,2.7374265345009516,-10.168689251306983,-2.6144524586589615,-2.747596758764467,3.3929474644492648,10.11934811550641,6.679181715365353,6.730970318827067,6.3740731178262084,8.726909305483874
80,12.22281253801338,8.01394640769613,11.37003343376518,6.851502325844713,1.376286795209144,-4.651288962848662,2.2980912708353083,-1.7197770178982659,-7.448287132876965,3.733307449247364,3.4283225626696257,8.530152493518234,3.950775506274954,9.240980793341947
81,11.25335938596346,5.22759202370732,10.376225258793825,4.18593810485175,-0.2882192166111842,1.9596287490128972,6.153745263725747,-0.5087266366593897,-16.40998763847873,-3.9642145669536215,-1.040627810885863,8.062104889832822,0.34234662607557986,7.33245405462746
82,7.876705752006459,1.3205602485812082,7.014421588387588,0.6252841546155075,-1.9655605987738627,7.6725272479037425,8.002940343015318,0.6391922491067008,-20.798857131421506,-10.865739105012935,-5.4731133290783625,5.706537703507614,-3.3898867700382347,3.8457551454649517
83,3.168003447757759,-2.5705668832583934,2.385901521392662,-2.872738460223197,-3.333181425503646,10.838331623842619,7.534246521560558,1.5255947998229584,-19.265231652046744,-15.028143830414008,-8.580234871054596,2.303336363022247,-6.149355916935176,-0.02900940794880586
84,-1.604586148884029,-5.399212348426406,-2.193886790439541,-5.426930947447555,-4.102178120503374,10.645148794935777,5.120985473938643,2.0382659057111314,-12.2257178352455,-15.258272987962984,-9.425293943515033,-1.1278788820407695,-7.13263098457448,-3.152641291158866
85,-5.33060908198872,-6.502264313205984,-5.578327429762501,-6.465933868404137,-4.085783442440121,7.3358957208548565,1.6623590641446178,2.1636954079992003,-1.7387369124671817,-11.47674522805866,-7.705557838943199,-3.691556561028173,-6.062270926343762,-4.775227828895357
86,-7.3210949457791035,-5.760871210140592,-7.086680955617603,-5.858305477987713,-3.252914857951921,2.0879611523684556,-1.7227167361841844,1.9719222755579366,9.126126672474932,-4.744273867864297,-3.8447518504661207,-4.8530778628684255,-3.2574767091947554,-4.714411579622903
87,-7.423011373851263,-3.5892256202142088,-6.636617720584078,-3.9105185717476094,-1.7500145177318547,-3.395216663829386,-4.048822481773251,1.5798738616051253,17.22412376746604,3.057301946470013,1.128338251654789,-4.546197963414401,0.47171287237570236,-3.333396398096657
88,-5.972283625417886,-0.7666685207177375,-4.689688030526214,-1.244749458154984,0.11929079429868843,-7.439461176493179,-4.7540955849699245,1.106100404330745,20.28180460803654,9.787275472429803,5.874773395819556,-3.1323374501413155,4.0677960537619215,-1.3477998747034825
89,-3.6210023399389843,1.8250769961065685,-2.0451076537362316,1.3981652072063853,1.9565284268345797,-8.918670440189752,-3.8410107190382337,0.6325516537835406,17.560254567684854,13.674135301814989,9.123531750836317,-1.2383336743197426,6.530202599250064,0.4566937978107139
90,-1.105892545973042,3.473174662177633,0.4406591323642417,3.368194546456249,3.360210709220437,-7.573096757899812,-1.8314335591446722,0.1864767401154142,10.035804797915095,13.814972945154475,10.021593385884335,0.46722533344350686,7.191679378740608,1.493551107266906
91,0.9669807610868955,3.8305151752668145,2.116149238962229,4.268338625922179,4.024447655601672,-4.035412031463182,0.4411060797075942,-0.25185734938493054,0.0544414928440987,10.397504831066735,8.357616574990693,1.4859748727234696,5.891410662358018,1.544676230606462
92,2.2613735196986378,2.9837578045188455,2.701102882191044,4.029540567520891,3.817277733814255,0.4277920097659375,2.1284253934640724,-0.7197106738047487,-9.41825664722385,4.587790115259454,4.601271010796307,1.626549099925341,3.0030529428005317,0.7854335431879023
93,2.7448049318139818,1.381576745416131,2.3157154223608813,2.8871326806513964,2.815387187779247,4.359273447565541,2.6543935210129783,-1.233311950569691,-15.707130135457891,-1.8665858877253438,-0.24479052317695155,1.030371986745101,-0.6821756089995193,-0.3264798561267618
94,2.623754277456059,-0.34386479078153614,1.378399108768821,1.276602515659559,1.283371272020072,6.58482455764283,1.898012823047707,-1.7567683776788885,-17.210971525081728,-7.181540131356874,-4.930555424129065,0.08724922900244755,-4.178698162628789,-1.246151564642905
95,2.2157980065800804,-1.598081792259976,0.4183480707787962,-0.3127753440115425,-0.3981887881254056,6.56243555535435,0.21584825391952903,-2.1926475467240345,-13.823051297635605,-10.054201802375681,-8.296408262323327,-0.7243035092019086,-6.571991793312164,-1.5463311645018587
96,1.8092622330828372,-2.014672728850203,-0.12765264412964647,-1.4802581568855635,-1.8358084884033805,4.5027335036461045,-1.698955696180298,-2.4005402483544485,-6.875117673851144,-9.996596311089737,-9.568173643232601,-1.0154219293405937,-7.255066622732415,-1.0625665263700892
97,1.55862719326768,-1.5559108589992545,-0.06523439138356328,-2.0119492448119654,-2.727200459114059,1.2385844291242265,-3.069537329142876,-2.23944658122135,1.354210405760474,-7.396584136846546,-8.532602753129218,-0.6243055394373848,-6.076404992118071,0.0639141126868155
98,1.446825767027894,-0.4968221716830295,0.5071616971874271,-1.9120917949735088,-2.935461521975218,-2.0943018913067415,-3.3121939314628173,-1.6207072039415904,8.390503220756221,-3.309704022672106,-5.554871552966835,0.3311195098157129,-3.3655467584561958,1.4501972815645865
99,1.3203268898400844,0.6946308912955103,1.2577835659459615,-1.3661830841884224,-2.51167443348925,-4.446491831052163,-2.2430085659864245,-0.5537202658957561,12.324737684146287,0.9294318022705882,-1.4459305633422004,1.4998167623633825,0.16487731900631372,2.6120140356112866
100,0.9779319862582194,1.5352110619486,1.7637113946380802,-0.6548713306000844,-1.6608329321694648,-5.18101665774652,-0.14532556555540313,0.8317380155056262,12.345602607113687,4.137543791909552,2.7722806774866733,2.4249664304783916,3.6108876941418444,3.128522437521479
101,0.27723277238122285,1.6989195082214845,1.681724822645842,-0.05033820686880758,-0.6644581597757075,-4.2359245165042765,2.322715080585187,2.2959729103490214,8.890604265196366,5.615453016534764,6.132713605056525,2.707248680892858,6.110952063465469,2.7773286764221363
102,-0.7815663554843579,1.1259152235085774,0.8864512218026156,0.2709028303167569,0.2127557088469429,-2.085430872925266,4.3472030668206365,3.532500099707558,3.3951931896354033,5.288761095999287,7.948280282175694,2.1484368927458526,7.061882056635608,1.6004902277137292
103,-2.0256554264183113,0.0333166720834968,-0.47223973882735665,0.2730326046298944,0.8004644494841123,0.4680333890162404,5.228909896393215,4.234616340948873,-2.250010684074722,3.6339973190533224,7.943467684591333,0.8273042615462269,6.263530473263105,-0.11260800047505651
104,-3.145650288416925,-1.171836557039669,-2.011451786649982,0.05343798939097789,1.0593203719114819,2.585753010936833,4.614525002764721,4.169938340108626,-6.33678946377177,1.4402917190087134,6.271358025647212,-0.9168856268885611,3.9582480999059073,-1.9135783010941994
105,-3.7872461331661884,-2.0435340867634086,-3.241262703705468,-0.2100745902500406,1.0672825675926136,3.664283968762033,2.6132758090699464,3.2452889102791973,-7.857898806578678,-0.49486292895932,3.4279582668071704,-2.5871810364059304,0.7579549242296441,-3.3237232660962395
106,-3.669090320684999,-2.2567331993167263,-3.7303467668006327,-0.33597238330329277,0.9648017923592516,3.499977269546517,-0.23656113129382014,1.5461652254912177,-6.748055292099959,-1.6268405658805716,0.10048714867619377,-3.68382398943101,-2.5202623962004016,-3.9647610347704814
107,-2.68800551944331,-1.720017619501906,-3.254434636077487,-0.21167225693854919,0.8828739439527712,2.304760216542214,-3.1364446375052326,-0.6600694656625926,-3.7930348870770874,-1.800686954850105,-3.003182087455875,-3.860791261568208,-5.066523430534022,-3.6570694996306283
108,-0.9756890304733017,-0.6030570043814548,-1.877685184436079,0.16285012036423346,0.8833126079319695,0.5855539672240552,-5.2734030261668075,-2.9613476564981243,-0.2676163564476172,-1.2341094961014667,-5.300991776849031,-3.0341292526203456,-6.283312143476205,-2.462826305579095
109,1.114464799014867,0.7279138362454242,0.05955091132563577,0.6745370817207642,0.9345897069347286,-1.0564403086021656,-6.062355915242879,-4.874820636398767,2.5508802737988607,-0.37337644078668797,-6.43119636910535,-1.4087557304808822,-5.930537433921288,-0.6668970268799213
110,3.0902144423580546,1.8407920231780592,2.041532658716091,1.1385281842746175,0.931703661206085,-2.130513968579774,-5.309585313087049,-5.94618355648001,3.817074061949285,0.3106123651601909,-6.286192607854305,0.5829832142785196,-4.173702486612081,1.2966733212517816
111,4.450868061758529,2.386316921311081,3.5325510588147164,1.365638006453889,0.7506769752050434,-2.397371218456453,-3.2514791967346945,-5.856079348531471,3.356539185538035,0.5061062870430479,-4.993684385201337,2.4099076057898996,-1.5244638654386493,2.95302289007498
112,4.8276428129377775,2.212222830543174,4.136310832795086,1.2319072047733988,0.31448008553822193,-1.9083499468390461,-0.46497569603492633,-4.510446966212025,1.6454855751005615,0.16070109227765852,-2.8628584016487,3.5965547516537257,1.3078935547620802,3.9033545344529195
113,4.092282737453473,1.4047770302017144,3.7091320637848333,0.7260669869308186,-0.35725860337533544,-0.9441340294733093,2.3137127216426467,-2.0908291063923277,-0.4373392411026545,-0.5284880158973734,-0.3146455686603541,3.8561415053736074,3.6112945546405144,3.922745849151767
114,2.4008558575661105,0.24708978651857336,2.3936415704382217,-0.041101789630990496,-1.1359443097542599,0.11230773790939746,4.400582518546372,0.9545001689051233,-1.9779993696358296,-1.2187337031207424,2.1897927513053728,3.1631607795556214,4.85715711573348,3.0156029381985134
115,0.1584694643542119,-0.8865462396640285,0.5663437346019456,-0.8682858366512364,-1.8157193260872464,0.9165631550479779,5.341018687263408,3.9864849101074595,-2.3724558261031627,-1.571471229645784,4.215482497026588,1.7471815702060132,4.827083930911997,1.414789156454462
116,-2.0860785356898797,-1.659672071107716,-1.280261149092945,-1.5251025676194405,-2.178865691543683,1.2682349477626573,5.005712931761348,6.309835706047644,-1.5272803060983666,-1.388008891528223,5.413440807270345,0.014284315936449004,3.647628146868154,-0.476574267475699
117,-3.786060746581169,-1.8798690257066166,-2.6814524104140283,-1.8230167439285985,-2.071743341549086,1.1511087405297316,3.5882997706930646,7.339781299275495,0.1448975631559351,-0.6821955097458061,5.573145471014332,-1.5761411391608515,1.728601236008645,-2.1874386949670326
118,-4.54158745005307,-1.5473468544169664,-3.3254058595835936,-1.6727796347946249,-1.4639407811278962,0.7048980898490682,1.5186890643662825,6.76052024504836,1.917733862057844,0.33146648657980027,4.663321525809333,-2.640189481634513,-0.3714192806742363,-3.3000017971439815
119,-4.202544108100865,-0.8341633739261104,-3.1244736701613993,-1.1105993075270608,-0.4690983766008917,0.14936848628487567,-0.6719535495182067,4.6301905071671685,3.047372785248079,1.3232216525349345,2.851503557686849,-2.966214017508947,-2.108890744126165,-3.5580193315575
120,-2.901430520938632,-0.007867122587031228,-2.2169063509049374,-0.28589083992415576,0.6807786791377222,-0.30522149869850934,-2.491152362193234,1.39571087432301,3.0569272629803756,1.9704055170859018,0.4903184672289297,-2.554678207709643,-3.0992948316756874,-2.9324262969750925
121,-1.0084728270236119,0.668174525037427,-0.9056728280066546,0.5841647153908283,1.6997181179342642,-0.5281333031130534,-3.5932581776329253,-2.197443028041114,1.9057858863202706,2.0700737544134977,-1.937917336365487,-1.5952615021840584,-3.2018396050051483,-1.6250983015139122
122,0.9761740654470116,1.0203715468384897,0.4410421247314925,1.2779967953136346,2.330134191598072,-0.4976503509930052,-3.834908544341213,-5.285427403657295,-0.011072940372171864,1.6027237598358888,-3.916155444367795,-0.3943794382452642,-2.5264016109594807,-0.008724985032643623
123,2.560750014197719,1.008078256918176,1.4947360139186745,1.6310857384355484,2.416799988407806,-0.2868370859169489,-3.2750281132204644,-7.111583926926669,-2.023344555596171,0.7286117361385215,-5.010478713938275,0.7206599799445853,-1.3692128030593125,1.4804050046567643
124,3.390764893407012,0.7145824517594115,2.0466208801724646,1.5774864061556713,1.9494889537095106,-0.018366750618272604,-2.1308604949442262,-7.234076339517639,-3.4376080468467007,-0.2765035573999526,-4.981463086552988,1.49089086323134,-0.10452369380641097,2.465345262193873
125,3.332829662534968,0.2964450205087271,2.043935748050347,1.1607676819307797,1.0621355428320858,0.18991161172993348,-0.7088502431222251,-5.652429488910019,-3.7848397952589377,-1.11881414148922,-3.85492658365694,1.7840190641585858,0.930311053156322,2.7305905933036767
126,2.49251950640454,-0.08424465372435612,1.5790741967862578,0.5136868109232839,-0.009426872241190319,0.26739031660957685,0.6703017826727208,-2.810871108907542,-2.9744972814630737,-1.5808001543776782,-1.925275167600024,1.6097832583388705,1.5214822093857316,2.273162216265992
127,1.1655250970885034,-0.3171463265497666,0.8420843153863486,-0.18481195542414566,-0.9963976817189064,0.20785788146361892,1.7370456454547658,0.5268302536915158,-1.3060175709449582,-1.5808776883379998,0.31658829795530086,1.0944422205042788,1.6155353795387648,1.288787904102675
