,AF3,F7,F3,FC5,T7,P7,O1,O2,P8,T8,FC6,F4,F8,AF4
0,-0.6865576490841769,-0.25640245157952174,-1.0344501826927943,-0.46439225375460197,0.002757792699591778,0.15753690328314157,-0.7307415714598481,-0.24228095613807932,1.1426972024761526,0.40503480066548847,-0.3445427606282592,-0.973962176491527,-0.33202408902548014,-0.5910450139731093
1,-5.2253206252579,-1.562917454570152,-4.962943118674622,-1.469055790923052,0.9804158066071407,-0.6937646791620996,-2.5796441048332537,0.359636567328629,3.096740990281813,3.266091572530355,-3.5465821880539905,-6.012558684687217,-4.294427728588781,-6.403703010018656
2,-8.445529224319715,-2.263072029534052,-7.670819088907995,-1.9173714736984633,1.8442148050960083,-1.346922485263255,-3.883092608713169,0.22970059948666038,3.4524158927848267,5.018237909434345,-6.058440355031838,-9.688216050568728,-7.196517702577296,-10.728825909975514
3,-9.585673220773758,-2.0667625357858403,-8.53529930189192,-1.593974855029483,2.471201965168127,-1.5803724764476614,-4.405964234898496,-1.001523045580607,1.657504259374501,5.07517254404191,-7.396599038390255,-11.228616812809726,-8.363506802615973,-12.605208785069273
4,-8.42603641339176,-1.0137603677935536,-7.41972860875738,-0.585524260343383,2.7319845064825494,-1.31302484278679,-4.084873185120261,-3.0947105329137314,-1.8493359653232275,3.4292438503233535,-7.282625981121326,-10.350198059497577,-7.550088548076743,-11.643686897658982
5,-5.324242049444525,0.5366326708322213,-4.683029508702956,0.7479156735694503,2.5179066917897344,-0.6373322385784965,-3.025315795291517,-5.2431516698059975,-5.758442143644314,0.6434585187678149,-5.706954423310788,-7.301564634074593,-4.995456594856029,-8.106088609704583
6,-1.0980912199911679,2.0306550679633,-1.0532655099366086,1.907639585379879,1.7846106960252126,0.20984330968142842,-1.461377941287106,-6.375331038837495,-8.387386755632056,-2.351015670969652,-2.952144173372679,-2.7868979182458444,-1.3573546566555792,-2.8331622153359435
7,3.2045923312919933,2.9161344576631922,2.588484909016057,2.4461255293012942,0.5952869978584056,0.9302192654251413,0.30657467026389496,-5.60635203199935,-8.3674304538662,-4.576514840534429,0.4408462246596164,2.206175742475143,2.458883883476596,2.959312546338048
8,6.580230512015772,2.8403151063759644,5.443783119240837,2.139357295801719,-0.8580306502310832,1.272259506416539,1.9765485357860746,-2.659833504834072,-5.245783698281877,-5.335095679404791,3.7694493472812276,6.629724139016819,5.532847852653295,7.966704366410372
9,8.31148219627713,1.7791345682185935,6.982073857739204,1.0753385695735873,-2.272653745098696,1.1252755437942952,3.2948040545799637,1.9155181470522094,0.24453174087497306,-4.427312354880684,6.317192647239838,9.597087259223162,7.162230977556811,11.0956984629265
10,8.115786830591892,0.05154523546317425,7.02857501464613,-0.3756949819368907,-3.2977229920697546,0.5637921384412065,4.0820924860835195,6.838523950631163,6.372086597675041,-2.193716710290446,7.520562029989127,10.555321418474875,7.034270348360005,11.707640100025822
11,6.171079784194356,-1.7868149390021288,5.74428124800456,-1.6985661718326104,-3.628636170251244,-0.17647759284391798,4.237978882573107,10.485783737551252,11.000268362851449,0.6256821702631298,7.110822043318251,9.376533505127922,5.289222820448778,9.748989403383236
12,3.0265453245596774,-3.1333131168390636,3.523632876401437,-2.4257997173952726,-3.105965563634523,-0.7849829000050962,3.733567913760554,11.452184862349505,12.373344586966297,3.155123844154631,5.188012562760197,6.357338989370124,2.460074256349422,5.741427011170246
13,-0.5631382547563363,-3.544360150356824,0.8582377705846079,-2.312075223130678,-1.7847844920989095,-0.9953523364832487,2.605740134538924,9.082230696520686,9.799070992160035,4.671804940251922,2.2012336947863136,2.1365237289390278,-0.6912356781765873,0.6393243280045702
14,-3.826570978949882,-2.8851683387506224,-1.7826667124668842,-1.4238462567200014,0.05413037829917509,-0.6936970266293925,0.9615184456755399,3.7730794258355966,3.9609513534313603,4.819543037901878,-1.1630336909748853,-2.443725707967253,-3.390278498345852,-4.405355211057494
15,-6.13722530935197,-1.371174535894198,-4.021603731708424,-0.11007914544327084,1.9627882188631185,0.025558846184444525,-1.008827917097086,-3.0751157533030655,-3.2730914775794053,3.6815241975474278,-4.153999551876273,-6.500883507759869,-5.05380210829131,-8.309893826657815
16,-7.115461086675322,0.511698859701054,-5.586915912113356,1.1341683275940335,3.4426196250828616,0.8809915674401749,-3.0222351998635144,-9.462720094388684,-9.490048893952896,1.7017610363255256,-6.141109097752265,-9.268985897004269,-5.421603853791935,-10.294716091426638
17,-6.662420487509026,2.177304995280712,-6.2927516605512634,1.8583110221879542,4.086525232692686,1.5001605878525095,-4.715149445799215,-13.421679202553996,-12.591154851918025,-0.5003420624029059,-6.757611995325327,-10.226338109992291,-4.583375407007221,-10.032854503488988
18,-4.9377330383282,3.1376567058740394,-6.01931341866451,1.8270809482116206,3.7022901218976525,1.5598073155504804,-5.692723067668481,-13.662724058069754,-11.55400558600364,-2.3444567796777194,-5.965834515932238,-9.18005879086003,-2.903254699118431,-7.688717592885875
19,-2.30327544322406,3.158558549127289,-4.721841280696009,1.1055678482013223,2.3766708324231622,0.9210036833130402,-5.616817027502961,-10.016142317541211,-6.810379773153761,-3.4539078494354523,-4.0335487678789415,-6.300643575642395,-0.877964555237286,-3.8488933170350945
20,0.7462693930276809,2.319296215608081,-2.4749259809023347,0.025913599975194233,0.4571316887793547,-0.292289575787802,-4.315795955037144,-3.51119577769281,-0.09280297043255516,-3.7204463244198736,-1.438797581611298,-2.103539847523434,1.0172834378093993,0.6280387079859401
21,3.6549321332725624,0.9600898809728148,0.4687501987157144,-0.9504946434154484,-1.545429489289801,-1.7064632923717298,-1.8820169017694777,3.9378271595747902,6.198792654052799,-3.2643337701963175,1.2604473276094212,2.623470708557401,2.443624166768815,4.802104727051219
22,5.878630734948552,-0.45708028628179465,3.645616173894232,-1.4203568747441246,-3.103592548228498,-2.80791001429018,1.2840076930688133,10.136194469269144,9.877477285554079,-2.3264668621484352,3.551242577579138,6.94522098223203,3.2440305411973513,7.8408804105611205
23,6.964377722750545,-1.5178107483970926,6.4152104543454,-1.200732987213101,-3.824081373583905,-3.1185992449766395,4.515109448355052,13.30213702557177,9.76878132263687,-1.1508858054637798,5.054914682581295,9.947134849181387,3.4198997303782184,9.172642971681334
24,6.635371210811989,-1.9901231212689399,8.080237788512237,-0.40152833053969017,-3.5552719163445494,-2.379755962977476,7.0129417492319694,12.618343713336332,6.129447970463616,0.08951391125514696,5.568810321465171,10.924509134940319,3.0659119303342477,8.581911869551123
25,4.86995265642488,-1.877249853550983,8.07524313746962,0.6209028209140596,-2.419460593823714,-0.6768841062298331,8.053116321572814,8.461432211503018,0.5277348215664157,1.299230418618079,5.067013642563716,9.55726373965248,2.302554534107755,6.237598896639083
26,1.9499849348066143,-1.3756471800521497,6.169470938413821,1.4107285358771824,-0.7630996875049809,1.5461133700306668,7.205751533662407,2.240788150248028,-4.769854874139479,2.410105580007703,3.677003658635268,6.025006001755198,1.2392350428911607,2.653444698088309
27,-1.5503476094541566,-0.7637578746887937,2.6090159909181985,1.601492444742612,0.9551866567594403,3.600965941283672,4.501896546028645,-4.089080346469572,-7.6737689055968445,3.3150853696594575,1.6489167789136456,1.0197841259748206,-0.02022426226537657,-1.4122781337196857
28,-4.855104938168036,-0.27320381400727295,-1.8689760434531706,1.0708838733744026,2.300371710154026,4.769688516791407,0.4835374809633561,-8.670797330735592,-7.076834584378034,3.833491164209565,-0.6748373185425903,-4.367724027975595,-1.3433594518071372,-5.103785905942217
29,-7.153386896235442,0.002037271691564396,-6.1806589345395935,-0.0016697307278779232,2.9774851221507435,4.553128030586935,-3.8949421044353,-10.322933096947201,-3.283152040059583,3.7391811844793237,-2.893142143394466,-8.88051600595018,-2.5373466293373936,-7.639492543452058
30,-7.809507027466124,0.12224622470514661,-9.174496408634473,-1.1995177610444359,2.8955935203034393,2.8679028556218755,-7.500858396124056,-8.866898132660955,2.1052922882447835,2.850261717565506,-4.592886055485541,-11.40010716771485,-3.3521225373377286,-8.478236423549681
31,-6.558847779365995,0.24204820049907294,-9.96827690763703,-2.031778950044561,2.1660689404814777,0.11668229203281043,-9.334019301811825,-5.106210798142665,6.805633014358898,1.1448046103508174,-5.415732927262848,-11.247235266005255,-3.5340938806537396,-7.444822840782355
32,-3.6235570021479067,0.5055924618495574,-8.23718708899549,-2.1313691399639536,1.0441075585373385,-2.904703414656264,-8.824543075923666,-0.484278191311464,8.744918687097666,-1.1527774715210533,-5.139856261705664,-8.39086674160425,-2.9190742788996697,-4.7819035979182445
33,0.3024205631809727,0.9480613169564384,-4.351912300419547,-1.409396195977888,-0.16089408775165986,-5.244750564943118,-6.024222139386216,3.4453789365706653,6.888643367737559,-3.5655326179711664,-3.756362448141465,-3.494371355360124,-1.5280085715035732,-1.1074842590460154
34,4.212584803697692,1.4518053113110625,0.6913172683630546,-0.10290205827699218,-1.1744107023589865,-6.106770933262693,-1.624601931834567,5.545508736297257,1.6898672141630757,-5.460415478757208,-1.5103017860323573,2.230046536250396,0.38151737309910216,2.7210702963717384
35,7.057465477013508,1.7812105512916359,5.5399537061519215,1.3062845657893858,-1.818772462730821,-5.129166351271804,3.2146946810935457,5.438572979566547,-5.020488334692305,-6.22845713398269,1.1212205421739756,7.330779204786748,2.3443397491984386,5.809799900195957
36,8.049003773886128,1.6851603214401227,8.876836665846792,2.2734631323395074,-2.03463561672318,-2.5351590329584472,7.185000422543063,3.56063602978999,-10.675290507203723,-5.49210146725752,3.524418339778977,10.508757725248616,3.8043510812961823,7.448889207889391
37,6.904679424961508,1.0245059036939121,9.812686888745803,2.405110426446083,-1.8640310051041322,0.9093258815637366,9.20407469549175,0.9254991915164199,-12.91877672328587,-3.2650977766938105,5.1020019993890555,10.979031376540183,4.288742260060532,7.292587701987756
38,3.9483857965895774,-0.1322656828857166,8.152828679811254,1.621643030287068,-1.4094422064630103,4.127089315166696,8.735221863353686,-1.2997104355140308,-10.515474946474198,-0.00034438398288554116,5.442952612394531,8.692110839906155,3.580722218882935,5.446675214005851
39,0.02711858361701081,-1.492426821034684,4.449920072771998,0.20270261322588576,-0.7887993832311024,6.08044829410288,5.950335040289046,-2.2450234390652954,-3.882103430637295,3.503229478709662,4.4540885206541025,4.344156129202801,1.8235504604281705,2.435724163693583
40,-3.7381597610771333,-2.6184136155982287,-0.17606610615545085,-1.3077393120748482,-0.10378585770405876,6.124664380431416,1.6824656441148855,-1.6502800750247404,4.965886394188751,6.314777910402166,2.404421213446214,-0.8310127881917146,-0.4926264947973918,-0.9433722845024674
41,-6.2925586167087735,-3.08069319970905,-4.392216421998186,-2.305303088976005,0.5697724251988264,4.23966706014062,-2.8221129073383215,0.06751384698985792,13.05361512075041,7.64260158511851,-0.1412696352389774,-5.426523822409397,-2.6693298167733865,-3.8410672715285723
42,-6.969679967381757,-2.62864329728693,-7.064881752730314,-2.363105276168482,1.1716898576218489,1.05268464898126,-6.278916832777961,2.007332971017624,17.461018130552795,7.075413676127259,-2.485919082399879,-8.271674001926208,-4.024255100718739,-5.584657236015966
43,-5.690327116479264,-1.3114831015728865,-7.594549862177149,-1.4119403088797768,1.6387329599658491,-2.364821776394976,-7.751941797048368,3.1585772156047622,16.361923555227936,4.71452760799115,-4.0112017630191765,-8.758926889734878,-4.125832546800248,-5.850546320257977
44,-2.9706057113217827,0.5045567057395135,-6.065841182388655,0.21091273193296795,1.892551569863048,-4.861983326660624,-6.930658820260432,2.8142103800399814,9.721030883874896,1.1529371991049036,-4.366321087491211,-6.988431991741617,-2.952068909721882,-4.72949467024534
45,0.26393493734859447,2.239879583245986,-3.1694080830992717,1.8706420848665004,1.846232534261852,-5.610049993584196,-4.209191576655061,0.8687954217811069,-0.6057905037845269,-2.6922960006208974,-3.569105214339573,-3.6895343830379654,-0.91046740177831,-2.6682910437145475
46,2.995178960423445,3.2968204863166224,0.06900181101918118,2.868324172029844,1.4325745010667907,-4.397465211276645,-0.5423231318447836,-2.108942147964112,-11.41959157448964,-5.8403278043695614,-1.9828777432850297,0.04817202315991497,1.2958090336625694,-0.3100418443331624
47,4.451631656545957,3.2792333219481495,2.651952484870013,2.7155834340946443,0.6456988691270112,-1.7090452700142296,2.8746583268839583,-5.057815529047232,-19.203415789333267,-7.517385257958055,-0.1765110039080401,3.1398432089411723,2.913357276806343,1.7129375754272171
48,4.352683489750679,2.154155761182544,3.9368662359467828,1.3464523561685335,-0.42186959250249567,1.444850628990842,4.997172627109392,-6.798220792991465,-21.286655132234987,-7.35660988009411,1.2819542822414975,4.8424446336341775,3.4091784464451713,2.9653614692202437
49,2.9734726721817477,0.2891281188242634,3.8135357163547625,-0.8199275540391995,-1.5675588545689665,3.892651207333746,5.264532338347171,-6.4680201900660546,-16.758604787757537,-5.4727020243409115,2.022241449108316,4.952778175381365,2.6664974376510955,3.3144530074367053
50,1.0093891763518832,-1.6587436418391974,2.677310734767915,-3.000568098596137,-2.507538253390891,4.730202081559419,3.7650097301944427,-3.866340462529095,-6.820451787400348,-2.40002442124235,1.9860850954255667,3.806448018083822,1.0294425817372292,2.923582173701074
51,-0.7084159291718602,-2.9710098898198893,1.2186215643796048,-4.320785503978196,-2.946933204771432,3.6574565036848337,1.1791009342031233,0.4193927288984077,5.550908221591385,1.0749819400070644,1.416574431915107,2.089243886880867,-0.8255977857666001,2.1428458420242724
52,-1.5400454822515728,-3.135243131753284,0.11682733953402892,-4.14455435023961,-2.6748751889626288,1.0970970680901597,-1.4774781588298405,5.15595437130648,16.526626509900947,4.128939122950346,0.7287746734811325,0.5391064926483788,-2.1487408556744954,1.3425270339018827
53,-1.2827902282771826,-2.052537325882142,-0.23969325640649236,-2.341873528559777,-1.6534890440679257,-1.9534060990817377,-3.220995125950306,8.83845301507252,22.64196935984718,6.100895420819548,0.3150948915537693,-0.34528693276482125,-2.410285122795352,0.7562393153920031
54,-0.24083920680851642,-0.10150896503143489,0.10250329563357667,0.6128882395021045,-0.06553172545299857,-4.287247397771248,-3.4488982913844533,10.178689002022303,21.91148150343765,6.627566564903899,0.36608847550430607,-0.47826601972196675,-1.5163244121001662,0.3967269804106681
55,0.911235624044903,1.9763099420182717,0.7095111361438964,3.7617907209203927,1.7055057895947499,-4.940461750474823,-2.1487447251927287,8.548297308177148,14.480574918446571,5.692384648369203,0.7827307586209578,-0.1787420669717256,0.14141545624211221,0.07898627031336895
56,1.422366927468068,3.3391139169662214,0.9787172741690902,5.97496641539016,3.167900944026942,-3.5648200983685796,0.10672925926178786,4.226994971115644,2.5995498239314916,3.592613823034244,1.2202315899167784,0.013440830379489241,1.828466910335249,-0.4578807117508104
57,0.8040114486698173,3.365887953394492,0.4387208609332746,6.351673887614306,3.865336807812693,-0.5808548552001188,2.3768973328846212,-1.634429801151916,-10.075646649868963,0.8466776850066375,1.2493983534092337,-0.3804147395598664,2.7557453203116946,-1.3808695947094571
58,-0.9210442648149753,1.9170290842946174,-0.9948360996253491,4.5690799984661075,3.527995779560452,2.951608425755274,3.7058874483729225,-7.336110293206,-19.63431433811638,-1.9295721217183393,0.5708218772759861,-1.5156067633321033,2.4057209581746033,-2.620421029340349
59,-3.1674097381970756,-0.570282510816623,-2.919872122693193,1.046808926568352,2.1788512825954753,5.705230106796259,3.4843492284527553,-11.14256157973176,-23.145708839796583,-4.151152361969032,-0.8092042116023986,-3.095956642665271,0.768668208372242,-3.825211075753965
60,-4.969483429831166,-3.2015247717693587,-4.558867933589097,-3.1455830730577903,0.1529516353971759,6.568831472526846,1.6890989135235246,-11.828549459155473,-19.581847936260527,-5.376324849291818,-2.521990969794657,-4.444673987266695,-1.6106967597698703,-4.450206686175192
61,-5.344113506473823,-4.930374598903308,-5.051338301377156,-6.621546137910407,-1.985622292720425,5.06835740684258,-1.0887981867838281,-9.082592756823045,-10.132502366186788,-5.388071300196272,-3.9355667843649385,-4.760903906570696,-3.8070522532245366,-3.960763564993764
62,-3.7053448733813537,-4.948659769745202,-3.822642716735037,-8.145709416355746,-3.6092766147893305,1.5694498410986701,-3.84231507777201,-3.6339775296566192,2.1878518508381735,-4.233274502858298,-4.38378451385747,-3.4711949889280636,-4.854980672030127,-2.083458802014317
63,-0.17232707383713786,-3.0195118151269282,-0.8845438933494312,-7.077163965866515,-4.224123556783775,-2.817878425648031,-5.506479106333631,2.945473210424025,13.512752491248483,-2.211440127868653,-3.44345302562034,-0.5383610650551562,-4.133884592375077,0.9957395555871313
64,4.3609879257089625,0.3764599774696464,3.0624004665822526,-3.6280963669417434,-3.6333358701841063,-6.605623323905519,-5.350257041867319,8.710132798242752,20.360359692897113,0.18949459070403837,-1.1505014804918994,3.405740129972122,-1.6500833232129866,4.578998277374259
65,8.446626710165583,4.151590792549019,6.788114700660562,1.1638944316491828,-2.0090643844768685,-8.440263393073534,-3.2612099445794436,11.936662727068635,20.73318101140221,2.402791015442115,1.9391560378635635,7.18022787654995,1.900755179323424,7.598401450706426
66,10.541621711436909,6.957268391562188,8.921435428805964,5.754127856975219,0.1554250278347316,-7.582177401140043,0.18299061218588286,11.660197429831522,14.725921310468456,3.9176205130584223,4.885201764615215,9.413202321472317,5.330862540425969,8.93099042004951
67,9.55997775042156,7.656050579374709,8.444041343157481,8.600963147607994,2.2009247031464865,-4.182339319681493,3.8880411639608132,7.978981509266275,4.44873719475228,4.407095490236989,6.662734367688614,9.028836139494603,7.361069390479331,7.795489981800854
68,5.325293739446064,5.755971769591695,5.114622720820044,8.69659415895455,3.5143953686529916,0.7435666890672842,6.6063004698601535,2.0274622226056374,-6.700981287369175,3.813743664144299,6.52780627045784,5.693492325248353,7.088572598465973,4.094561011375215
69,-1.2491392353201791,1.6457236034217209,-0.34201854649549585,5.933141857047287,3.726623514959366,5.638337907192908,7.365818721524882,-4.376728773774516,-15.170468509346849,2.3639477322074685,4.3168721587770955,0.048288146269032724,4.352146710976394,-1.4322600235115759
70,-8.343305497380705,-3.4689610947582725,-6.37416880573765,1.1697117147719847,2.827989486116331,8.91533384807572,5.815340849885591,-9.30115763284268,-18.407571320412423,0.5017705702923223,0.5628295209315785,-6.382610303828443,-0.1466938481587071,-7.3279033329543966
71,-13.746176273472987,-7.925678463241518,-11.052022810373588,-4.0333937854057575,1.162852070764364,9.485942974773401,2.362849321938906,-11.301051189442948,-15.65744028807738,-1.242190422402638,-3.6300510974551234,-11.6102654316152,-5.0263555120658605,-11.803773362326837
72,-15.555002910447064,-10.153434606765623,-12.693953439458165,-7.9311902681594955,-0.6947893899430021,7.124056649716816,-1.9436987728086133,-9.862656523887756,-8.142026922553029,-2.4085409276337293,-6.925043297634214,-13.809537018632966,-8.66391931818429,-13.29033760224089
73,-12.834013700937302,-9.225630172429728,-10.464085800233052,-9.18851847010137,-2.1403501737541726,2.5453503947685983,-5.755006336442087,-5.545798457080853,1.4233236362950055,-2.743775401203694,-8.198389802671747,-11.955566118202048,-9.747162496747602,-10.980301880617837
74,-6.005960609146775,-5.222971253569468,-4.729735604046882,-7.347463397086996,-2.7426853844628476,-2.8238057639076204,-7.863468490315241,0.2176346165534832,9.796152922980882,-2.2677692225615043,-6.938582856512952,-6.245827380151923,-7.749284301932816,-5.176861278415726
75,3.174651444583647,0.7318392451969868,2.963279584393517,-3.0017138210953296,-2.382360407501114,-7.308867714600605,-7.599572199353106,5.599681256857329,14.31482583077154,-1.251358600625491,-3.4547348483006206,1.8566454857407957,-3.154405108262118,2.6911000548810096
76,12.086227826874733,6.7970690980577055,10.315625320869785,2.3894561914782906,-1.2774564799156196,-9.526259430927244,-5.047700699873559,8.967648103058458,13.765856818694992,-0.11164701847463833,1.1899121533030677,10.002993559191891,2.6572422881511883,10.422759799796115
77,18.016472008001568,10.997922150812643,14.980484970308073,6.990141342768573,0.10950758220600908,-8.821579248741434,-1.0110141290700798,9.395640647532279,8.72067114953757,0.7387092727683362,5.509194047336464,15.661696030914412,7.83899776075612,15.680878602619707
78,19.01339784808375,11.884818482944922,15.327988946356925,9.214977686134015,1.2478321762149633,-5.465989194423537,3.2579607442119167,6.930667635909376,1.2436030800955429,1.0355589665130027,8.085053412329,16.92802777691772,10.685000922871824,16.719749909534272
79,14.537057937890506,9.04047633202065,11.013802571107503,8.278435220158743,1.7333851652935632,-0.552213322266871,6.46532730532782,2.532515117139185,-5.9047909037272355,0.750033030658286,8.052319298909293,13.173927033474156,10.210393423241607,12.972111626114872
80,5.691162949464217,3.256501085125693,3.1521251842102807,4.473969238178595,1.4315206852469735,4.369092740740055,7.683136278209941,-2.282595550647884,-10.271346482333758,0.0876347424598307,5.407021261143855,5.313005390999362,6.502766435960893,5.294320060880504
81,-5.057380194157781,-3.6916116975234243,-5.981381868356349,-0.9173030124003215,0.5174256788697472,7.788789679666436,6.62272287145377,-5.965830465397874,-10.558832954832726,-0.5993517665335041,1.0246156689219124,-4.424686375306241,0.7171325441702833,-4.228335029356722
82,-14.598705715285787,-9.606058434854877,-13.635724385577179,-6.060262446630923,-0.5991638722616593,8.710693256209654,3.6920369306287326,-7.445373403417209,-7.02347086581997,-0.9537042968973034,-3.6262883023795847,-13.152736944930211,-5.292365919872796,-12.873633872574459
83,-20.121800267024494,-12.582768358718505,-17.44550513339546,-9.193672169599465,-1.435707622738978,6.945754397131537,-0.16862927368494832,-6.450560017392715,-1.2956471669801988,-0.7568817762275718,-6.9815247578402175,-18.22028072349864,-9.584512335797777,-18.096760706200598
84,-19.981629641125174,-11.64291500179325,-16.187890514961243,-9.235255277940416,-1.624371523998048,3.1420516112856376,-3.804552392579483,-3.5482143804495103,4.290802042249925,-0.020752604476130542,-7.919667362028641,-18.04952508439808,-10.780214013158282,-18.31304245101669
85,-14.213211919945252,-7.065368181409418,-10.185118638843807,-6.153888564168432,-1.0552883210147697,-1.4485280392043618,-6.204879448728193,0.10853580251797386,7.600067031766836,1.0078059454363544,-6.152042987644853,-12.644273391825841,-8.525950240787262,-13.398236052494982
86,-4.524525664792772,-0.3043169505353984,-1.2156287503553684,-0.979663849481172,0.07801547102286502,-5.382413969849255,-6.784801742092835,3.2189615172780837,7.4890183824736205,1.9329949728611913,-2.3245585209948985,-3.599362112886781,-3.610335396660446,-4.741850741689827
87,6.232280341849044,6.483796532713367,8.041422211765846,4.551031110913012,1.3482938109392562,-7.478193630988165,-5.511594306385391,4.798919528509628,4.204838066148545,2.356839986162732,2.208088932278254,6.395668695029639,2.3080645863049245,5.16855166028794
88,14.94238199443776,11.146883857460834,14.84829198802001,8.590941102918048,2.253758398678593,-7.1688241532366055,-2.8543683953654835,4.50518084663017,-0.7524562360815447,2.033350677188661,5.85868440820293,14.398169170440262,7.2682306614389915,13.502437008448512
89,19.17908094518413,12.240320580369145,17.26198763410788,9.810232132081632,2.407688726871067,-4.648245446193131,0.40300931685273095,2.7099453501642756,-5.240909715543455,0.9727350860871574,7.366521417780469,18.124841218373078,9.672717628918198,17.94100782712886
90,17.920171433636398,9.490784778400515,14.720732727981748,7.840244792913181,1.6878786580889105,-0.7780505227381926,3.408320478471262,0.30890591115498556,-7.325177568172909,-0.5447809392206092,6.240243057928581,16.639147433644265,8.821142207010435,17.36054737595774
91,11.806713173146855,3.867192724642975,8.176837415621868,3.3819923956264413,0.2900825688604415,3.204255397466707,5.463685302021878,-1.6564747333153318,-6.041434497230165,-2.0538134959652163,2.9259567202738497,10.595805037843755,5.127444229080578,12.131641324304338
92,2.8746326346321154,-2.76050371938773,-0.2570809986778736,-2.052509665965553,-1.3348886292851911,6.075902317275423,6.165783926189733,-2.4155341697822648,-1.7904925909848803,-3.0597272756963894,-1.3597598000556204,1.974815117252867,-0.050531531636372966,3.9492895290281775
93,-6.136741399075157,-8.254061619824176,-8.018860502189058,-6.6696869974528346,-2.637865229882724,6.995380387262805,5.444948279969377,-1.7652611420614819,3.790364003906574,-3.211339617370243,-5.071601860437909,-6.592175060800709,-4.903681640544568,-4.7373688152435856
94,-12.6604742649544,-10.91372625587135,-12.91921938053681,-9.00589211346657,-3.1649037272930665,5.7371199004140365,3.5219764912076745,-0.13575364957131147,8.433203200161936,-2.428675532261189,-6.892202692921297,-12.668618774275005,-7.808482394732995,-11.499403937627335
95,-15.07251552840743,-10.020461096395895,-13.80103228700404,-8.40789661849703,-2.7176941346918624,2.732805943805815,0.8217958394624296,1.599255422961419,10.102057811163142,-0.9387097493651508,-6.202243563946597,-14.749578775772884,-7.8817895332959305,-14.651229695061947
96,-13.114896957489533,-6.03594876873239,-10.825749468899803,-5.2204351667416145,-1.4233919224351,-1.0815470597307963,-2.118853981265464,2.4932803729911446,7.794320091166905,0.795930049919825,-3.2943765671258247,-12.653531026177658,-5.2602877190888915,-13.695150006058903
97,-7.856297286273572,-0.40313696371672,-5.312068734883417,-0.6256834459591177,0.3100414730590233,-4.557533299582071,-4.730786727829666,1.935657924043455,1.9811414859670466,2.232098419411667,0.74472047371294,-7.461778018964541,-1.0127094211370826,-9.362700911035697
98,-1.2340382826278486,4.972662692589204,0.7923933857931779,3.7970566426502,1.935293890944625,-6.67413878732547,-6.48131923003388,-0.06286085549132965,-5.485526662120289,2.9312276381345077,4.438341674457577,-1.0558720919063702,3.2743733886896718,-3.2681012027850334
99,4.642108355971291,8.375884694625684,5.604296842143472,6.627548169896204,2.9520028523077824,-6.826646177136753,-6.946791427364622,-2.824755806954098,-11.980373653102317,2.708774400212649,6.459905232213831,4.563378437785399,6.080666584792526,2.6832180026772314
100,8.176238456673104,8.84050976639305,7.9148076093754,7.078157970729454,3.0714438480694377,-4.9862541086319565,-5.897362669965904,-5.229057695149164,-15.021019868288764,1.6943677164335182,6.111094448298966,7.928983339842921,6.492412022377176,6.916075207584826
101,8.73535778493598,6.43147485700287,7.512347446003651,5.223123654613577,2.303085023904991,-1.6922192436242267,-3.383872343518762,-6.129666625432329,-13.172198460562056,0.28073819879633405,3.564744129290757,8.513094571594099,4.505937198063554,8.62803507028505
102,6.730924580947723,2.1638376185021575,5.126867011297436,1.9148723695299716,0.9363436311805899,2.1139243084902355,0.2046401974163366,-4.817371397622624,-6.614697278841684,-1.0203642658785896,-0.21264511422691998,6.766925141686942,0.9917822026672227,7.921795970385497
103,3.33850483451615,-2.396496315308471,2.045042138556743,-1.5674439136521556,-0.5710208199546294,5.3602864570640145,4.153673865552528,-1.3507936069347015,2.831462421121226,-1.7632489898111636,-3.8257639773468584,3.8153883674878357,-2.6578707257586767,5.614799335772192
104,-0.013811236051297379,-5.698714132715261,-0.4384810452436369,-3.998803180735216,-1.754258818599069,7.144672074838704,7.535654033255987,3.3775695465196383,12.251918598337102,-1.7273693767995153,-5.965340803777981,0.9487725440540343,-5.061169053201885,2.8283342739136104
105,-2.1865920999473363,-6.7366238842770745,-1.518543925060505,-4.6402545932938315,-2.2941319188132923,6.980256206173199,9.419314747549864,7.881980895365382,18.57552114751502,-0.9928338029721681,-5.882955433625259,-0.8830860176233108,-5.358453747174626,0.5288748471082712
106,-2.7033333669131374,-5.3600555375969,-1.1416461223387797,-3.469433249116284,-2.1086358230382847,4.921709359826706,9.131972830978025,10.56183062027869,19.59135545064719,0.0949049726340564,-3.65340175495713,-1.384735625781246,-3.5164224688025985,-0.8027913978981086
107,-1.8365072117748824,-2.27051233583335,0.05296757242267228,-1.1368750908491458,-1.3567146488248203,1.5405034598794924,6.497228116083927,10.259239418020924,14.702238597398246,1.058235249848534,-0.1325471488517684,-0.9333288324649707,-0.31740868283288504,-1.261516160604736
108,-0.39852436058035184,1.2814650243192978,1.0726151208172006,1.3218223990637306,-0.3595454405355251,-2.2405597738545295,1.9617903694442222,6.701865530168252,5.159639952934885,1.4699741383906413,3.3686165123864757,-0.31736278686735425,2.9551581784992154,-1.3550618083168653
109,0.6592147690869495,3.9753902918464257,1.0434947145508378,2.9002488926867684,0.5263641458031407,-5.405667675366875,-3.4511626396207484,0.6692872757096445,-6.300643640316492,1.1187708917080648,5.569742423853992,-0.32013040473468585,5.012058153158771,-1.677334479749551
110,0.6704277666867932,4.897514885125955,-0.3787467412644247,3.0029150960581776,1.0355434942801611,-7.124662431045892,-8.373158889708737,-6.188403415727746,-16.30265923294481,0.09647949608908855,5.686618089837838,-1.3275423163094549,5.04670976088993,-2.5674113717877085
111,-0.46658535807132007,3.845153613956886,-2.826519529754038,1.6542281308844753,1.07467837875915,-6.9748569370915074,-11.454434263119044,-11.83366236488942,-21.877585826134336,-1.2258046550950652,3.707124401907051,-3.123659085456166,3.0349484233106456,-3.9038701369828908
112,-2.2578052160753805,1.3580202447090515,-5.3401925523730895,-0.5360254836298103,0.7335910665106009,-5.0454388705931335,-11.757700956019569,-14.475793533859022,-21.37509064325881,-2.3266994957976426,0.38103584799987295,-4.957543778737343,-0.2625763815629216,-5.123816202984292
113,-3.8336775895053803,-1.5213999203284958,-6.745020475955782,-2.6284456010296933,0.22857082619506588,-1.897568351380561,-9.058755273199166,-13.151137174570865,-14.950946951805477,-2.724256155489971,-3.0664549391262677,-5.854091298785787,-3.591955864102437,-5.4607802469716
114,-4.3255725966766665,-3.658637304210948,-6.138175171065142,-3.727396329489682,-0.1950075996089529,1.6053043480411702,-3.9522142610384603,-8.05744562292233,-4.487388944509086,-2.1594181451917187,-5.387071269763785,-5.042688320835131,-5.678977356499105,-4.303282546494843
115,-3.244996677494302,-4.251724647500432,-3.2941081988614003,-3.328168278059396,-0.3610721866955641,4.545174777318819,2.2820668244552293,-0.528755525179648,7.011203978124102,-0.7067076752645689,-5.759509655459468,-2.328956211994685,-5.705301561070269,-1.5229499698241848
116,-0.714068602866423,-3.1138555611116985,1.174764720296019,-1.5085526790132597,-0.22534430309501352,6.201828651371856,8.021319922580945,7.346655699864779,16.339938075046827,1.2302835006157768,-4.0743525306726305,1.745131631122194,-3.611263016120633,2.371223960674093
117,2.5441086588347126,-0.7172437872715042,5.973647263568222,1.1026406780590363,0.11871779518455969,6.236998146860019,11.752722468873753,13.346963390400383,21.034698046909448,3.0412975885060285,-0.9556006935679722,6.026744024097049,-0.11578511987413904,6.330090981655354
118,5.452609349164941,2.0072393180933785,9.549326146220382,3.5627620160930356,0.4884246570244141,4.760452323706924,12.501398554741266,15.781156384145971,20.045150407796697,4.110642488807741,2.480876729832379,9.12702241682234,3.549625743508809,9.092053670889827
119,6.971502764951738,4.030448301611317,10.632204476462132,4.965272935531828,0.6923695048445189,2.265875166103557,10.104246315105371,13.98924715935697,13.952112028078725,4.029090125704843,5.036456585524289,9.911520895786754,6.090340104667126,9.627246595564348
120,6.484368326339975,4.6063606756622635,8.699323838974992,4.7708738057379545,0.6099631737972562,-0.535576636933363,5.2477170619552975,8.524891222853183,4.694933066243132,2.742566233142924,5.853801959054698,7.92522974808499,6.613715874184982,7.5332965495059785
121,4.035372402100616,3.5341811323539343,4.187738025459605,2.9993679726163607,0.23950151443175555,-2.927017293618956,-0.73925520350598,0.9696331031014925,-5.073097270858389,0.5841284451276354,4.703725272109702,3.592114722502523,4.940265800554234,3.229648618441793
122,0.32917506571049077,1.2111186286658944,-1.6227077967936392,0.21676680956381203,-0.3019874090447901,-4.376806605986518,-6.271236316179406,-6.555432023410501,-12.78026566982112,-1.8244443807403563,2.0385632693647007,-1.889591452417554,1.6521572088975607,-2.131477418934137
123,-3.50495935150903,-1.5333165928083017,-7.018745601146894,-2.671156138251638,-0.8247396926988161,-4.655513861872725,-9.95276639308568,-12.022315790833053,-16.63645364852719,-3.7697256471110743,-1.1959018244962873,-6.924173164347143,-2.1304797827949473,-7.015674115725109
124,-6.29685459827827,-3.7504662437435976,-10.411973416278856,-4.7382767818020755,-1.138651198542561,-3.85431991158575,-10.952620807782967,-14.07547554852208,-16.044040536614947,-4.675902898552634,-3.910871247945727,-10.03619674454239,-5.155482551820412,-9.999491477251583
125,-7.22705204363654,-4.712151142803994,-10.851050362292712,-5.352877656553115,-1.123833416072269,-2.3136091044366585,-9.20012421885779,-12.384688384153279,-11.632265969691668,-4.288303424403609,-5.254295559740557,-10.347930032908039,-6.474147459597553,-10.233521781701885
126,-6.087637174405604,-4.152971196556643,-8.312178948011706,-4.377355479166635,-0.7733131441073737,-0.49650135591055944,-5.355811736007717,-7.676310046336056,-4.9481598866376855,-2.749395036040434,-4.884295248460002,-7.851481020366821,-5.749620216448439,-7.713020873533941
127,-3.325445690041379,-2.334290252239457,-3.674346760507525,-2.1890805427669044,-0.19356308669711997,1.1471979820859501,-0.578308400664633,-1.4520007243872874,2.066911586304915,-0.5433975730296927,-3.047251035722677,-3.3864723859932666,-3.335333193612473,-3.26363972313298
