,AF3,F7,F3,FC5,T7,P7,O1,O2,P8,T8,FC6,F4,F8,AF4
0,-1.3040516010413439,-0.5103683424281376,-1.2184466702117223,-0.19338915930496337,0.1405781682129855,0.3641837694416128,-0.45752654544735377,-0.42609651622714456,-0.0625215881835993,-0.15166568630521868,-0.5670221126698457,-1.3558921480668276,-0.9709580807022935,-1.2355387509015834
1,-3.2857555449859497,-1.5617251825088738,-3.5672028149276382,-0.26966434678095896,0.9381724111128258,3.5007352171991464,1.1164298989973918,1.1786660962510558,3.064018678104671,0.8418900889561309,-2.0061122110064322,-3.457821741646949,-2.592010117971625,-3.1157629206961595
2,-4.390321098746198,-2.021400998030259,-4.988773140468372,-0.16685261018234546,1.5476716518919584,5.56007875281665,2.5153912086986994,2.5675534264448574,5.396700737412737,1.9850361185282053,-2.6681589352340804,-4.630483332830201,-3.252600882558289,-4.097447542901577
3,-4.279566583806904,-1.6704372354296388,-5.115220482374933,0.1455062913966817,1.8375254105493621,5.899755236277195,3.458668465400906,3.4056624203986576,6.306790588517605,3.206886844784206,-2.2257267110539787,-4.548575670419564,-2.585192096193367,-3.842103744984755
4,-2.9960850648714437,-0.6118489943537847,-3.9726877067524864,0.5851178240292558,1.7412246281921475,4.420119007295034,3.6941642399898558,3.442328032922179,5.55472396448986,4.2479260519068065,-0.7775548823240355,-3.2750021483558482,-0.7388548240214236,-2.4077585929050214
5,-0.9406727471437054,0.7672872383004588,-1.9525026473034595,0.9822972903136035,1.2735045440202335,1.5912108083600272,3.0690691410326565,2.5889864586510085,3.359596211549461,4.720412893605252,1.181669829678601,-1.2243998744780313,1.6660929166476284,-0.22520759512877303
6,1.2714918258149857,1.946780298872955,0.339394113978485,1.1482424341854063,0.530287891064236,-1.7023292403544141,1.6112062787406582,0.9770356472958321,0.33767919713895433,4.256312538076631,2.941475784391368,0.9902115424201897,3.7643204238933907,2.0498428031603755
7,3.0204400357156582,2.4772212557376365,2.2937306907796087,0.9583705626489071,-0.3294118946189327,-4.445945539331525,-0.41769893747404346,-1.0342203400468521,-2.674064206804855,2.685614196525793,3.83808315731522,2.767562260020133,4.767247748849686,3.7541265261080956
8,3.8789702920813105,2.15569273291498,3.488815314983956,0.41516335218592293,-1.1173919996081687,-5.815697434690828,-2.5364361680535117,-2.9203438532156816,-4.858913934486219,0.16868997051845594,3.500869402251376,3.706345670122447,4.25891486569747,4.4262841346710236
9,3.7283537266459468,1.1036129346625148,3.7925785282815494,-0.3378149651353631,-1.6591973927141377,-5.430993177993843,-4.14580705281473,-4.123356537094582,-5.6548052722081374,-2.781628141363988,1.9910704755928608,3.705092183136657,2.354593284363645,3.9371696747443594
10,2.756763773290291,-0.2836539666164397,3.3465484655407,-1.0596418136947445,-1.835833690776692,-3.4602137236841743,-4.701569387272966,-4.2215153670008885,-4.911867243953159,-5.41288271264572,-0.21794289914828888,2.944916997035198,-0.33706251941450105,2.5015822770926417
11,1.3515060294478147,-1.4944638797071248,2.4517584070331293,-1.4986558856772563,-1.6131205391775971,-0.5496617582952973,-3.907587112433766,-3.083856780302519,-2.9250965111925744,-6.952976446072846,-2.409803290445923,1.7737302299615854,-2.9332941223860773,0.5767563418462526
12,-0.06402095541404208,-2.1021570042709126,1.4150932949031885,-1.4887869828077371,-1.050099730105762,2.3956431002546035,-1.8580654439674933,-0.9507303953101767,-0.3321884032340564,-6.865010425182544,-3.8793143840957085,0.5482517702672641,-4.594889891806921,-1.3068178279181464
13,-1.1800995112106145,-1.9292448518651903,0.42665874629936046,-1.0171942062697985,-0.28345325927723797,4.5037786828290525,0.9351456149201626,1.600840310072644,2.091230350121031,-5.04595986167127,-4.177088045360403,-0.4968757718097363,-4.823042843974404,-2.7159591066147786
14,-1.8795293349011308,-1.109311107014094,-0.47997565752350885,-0.2351477551734876,0.5081878155287043,5.204012197364945,3.6593505691202872,3.81112999959208,3.673739514500432,-1.8935117147513896,-3.2559997170851616,-1.3001729280464143,-3.625517740086527,-3.426119553368082
15,-2.221680275837241,-0.023018767877090684,-1.3736361551576377,0.5939237598452378,1.1500879565850493,4.386313141895658,5.439501560474174,4.971119395784414,4.04984839209345,1.7900451848329548,-1.4696867777220406,-1.9303906323003526,-1.4930265880596425,-3.441190655457286
16,-2.3499676912660203,0.8644602243886729,-2.311365983308472,1.190381329240732,1.514306740172416,2.4063195712531837,5.626781407622721,4.661155631455853,3.2563895242383687,5.030371989676554,0.5704369197570108,-2.478931320366695,0.8006033971911412,-2.9282178863573494
17,-2.3734787129335837,1.197546804764749,-3.2272616059218637,1.3616607422337945,1.5475217043995675,-0.05770649719934088,4.038787987477798,2.910872778582609,1.6935994506242122,6.974333830975898,2.2213001461711968,-2.9468034029290258,2.4942833357278573,-2.10664766152786
18,-2.2830055879003432,0.8762979815308815,-3.8878109698977115,1.0727980325973867,1.2765275080899474,-2.241192293354495,1.0608765204548178,0.21733092974204613,-0.033308039587121856,7.145849252657573,3.0309611657439492,-3.188244008937821,3.11642294944661,-1.1463854310220682
19,-1.9445383059863806,0.09452076781880209,-3.9480810415392944,0.45660533952552984,0.7914097794799092,-3.5401272021055226,-2.4390813537135636,-2.5953692880843113,-1.3352221274076355,5.579148407598502,2.8769636084041257,-2.9475267747435683,2.6375291775061593,-0.11989212956466598
20,-1.1767650731741575,-0.7458101529669977,-3.0963624120311173,-0.24047748525278756,0.21354996331861834,-3.6867316181170797,-5.366707970907647,-4.635831454008474,-1.8443348479646848,2.7875940966118864,1.974716527989385,-1.981789627170423,1.44434272468906,0.9746161799579781
21,0.12111734738094107,-1.2088540810724784,-1.2304697835247211,-0.7554626728804258,-0.3398421714353171,-2.8006494874066425,-6.750250305107918,-5.240216534167086,-1.530856564541067,-0.4162124357013199,0.7614927179466588,-0.21955136847219262,0.15244490955329884,2.1366814835771195
22,1.8516344337239368,-1.0161241667683263,1.4135357948353335,-0.9104579913933578,-0.7827373624055816,-1.3076899759050815,-6.068002067163768,-4.201086280287671,-0.6906729640502925,-3.1827641105358055,-0.29163293335591367,2.1190026900153955,-0.6623458736175197,3.2781184988766916
23,3.672755010544987,-0.17502025703849822,4.248814853588455,-0.6787736264062754,-1.0710915237344312,0.236027829479884,-3.4412285660491837,-1.8480294119490883,0.18959617229841258,-4.878809147472841,-0.8629101985531769,4.506331189787979,-0.703010327391233,4.179241885114777
24,5.058548337333252,1.0102494932734882,6.468705624687551,-0.18967183199453505,-1.1966720666958524,1.3463757168020414,0.3783685844166223,1.05290645345349,0.6385050002284137,-5.2480405990838594,-0.8871522736791869,6.225149902035426,-0.06429935107997031,4.520600592999085
25,5.458804520718277,2.0527972916064137,7.291686529656143,0.32942935031534837,-1.1700843722932608,1.7671684097951665,4.229795091753813,3.5511993491272262,0.39826375421675897,-4.433684131956705,-0.5495110673222727,6.594018282780149,0.8239942029220343,3.9903178234701717
26,4.506008778963137,2.4784204884166363,6.240880643293334,0.6493554970887768,-1.003261994079764,1.5285594741355792,6.905078665140647,4.831404617222455,-0.4608049085647645,-2.869334171062409,-0.1751025684601856,5.226488616844059,1.3972214995133285,2.4305447503388775
27,2.192159208258919,2.0241685379899184,3.3560184152951353,0.6347137928234552,-0.7011841253493147,0.8954690707217118,7.536323824479219,4.490668157201769,-1.5561741248466578,-1.0908110268963958,-0.06546371008309719,2.225899767525188,1.214660697174808,-0.03727666149276966
28,-1.0586845426602585,0.7590439359113317,-0.7488144504461925,0.29948991124567464,-0.26764598682360324,0.23461202766151074,5.880657489716367,2.6770503904787404,-2.337482222815535,0.45436858200668107,-0.35293071777359025,-1.7684719560061535,0.16827345443920388,-2.968602912746652
29,-4.463161457449946,-0.9244326237300516,-5.018593172300605,-0.20015874031942854,0.2774524581999825,-0.14335611376466487,2.4081867049993195,0.038581211701360155,-2.3085408797287736,1.5299142003650115,-0.9349410200313168,-5.720010221417468,-1.4466545123299461,-5.668012755259504
30,-7.0862912666318625,-2.448086724565209,-8.251956508082136,-0.633170696842138,0.8784889222485646,-0.1048150248601586,-1.838088317990401,-2.501388967761274,-1.2445658666687485,2.128966810523679,-1.5159891794062283,-8.48791769435407,-3.0307534077135783,-7.369380629415513
31,-8.122828916602575,-3.2638178084029508,-9.467220762639837,-0.7934303599358271,1.4343242455743883,0.26633407637479084,-5.566984724384688,-4.065720150559148,0.6798779319836126,2.3955139104332823,-1.7395742884099683,-9.184836960764118,-3.9122604485508385,-7.472296489984914
32,-7.160090227796462,-3.06364770535397,-8.219835702110505,-0.5908586511641247,1.8081443393974481,0.7189283853291893,-7.6445687883025535,-4.129992164932876,2.907551232177426,2.4957929229700686,-1.354444998337684,-7.478596387500342,-3.619592884938576,-5.755760405825773
33,-4.331370867564424,-1.901412429313363,-4.762799853682579,-0.09519415344379091,1.8595821992730368,0.950721802849876,-7.449841862676352,-2.7060171209293062,4.664284193160454,2.5038486507582616,-0.3442497046155054,-3.7301823301914063,-2.085763595183402,-2.49098595549388
34,-0.3032526284782545,-0.17711200285360473,0.008301257023145528,0.48743171138477065,1.4922108996198393,0.742109409843985,-5.066275746334168,-0.33651765242402226,5.22334419606497,2.3550626206269447,1.0364177429374901,1.087517759592518,0.2984217661470372,1.594658378326856
35,3.9045263322068346,1.5115851353990017,4.812360626855309,0.8976880008441209,0.7011651862975857,0.05499578946871238,-1.2482238180246386,2.0988517978348162,4.178765401062823,1.888437038008546,2.339085727489351,5.671046137972503,2.8065348422846754,5.500925045023979
36,7.211058330810953,2.5939208138535834,8.360734633149336,0.9334233593085576,-0.3979675309354276,-0.9400485978589396,2.8254484180891706,3.6990614358651546,1.6291465039192607,0.9568890919248523,3.0849601806228546,8.778551819715817,4.629786791460838,8.23224753321223
37,8.784585662513145,2.739620428970676,9.734712323926598,0.5419976207026105,-1.5746462326156765,-1.9172113711508758,5.929006893080236,3.867634670242606,-1.8006254188716784,-0.44763483898104933,2.952106024266507,9.60378356339053,5.1661051534481945,9.082587558085184
38,8.272246320948778,1.9782025770305123,8.64247423382626,-0.14523825705067014,-2.5291199229056267,-2.508844797234602,7.175038620025387,2.5324071078327037,-5.119270895231917,-2.1169364745243575,1.9117754097880766,8.008355589050291,4.23595347152782,7.836544763778716
39,5.879165229754564,0.6775186501367355,5.47771327624637,-0.854142248865104,-2.9705871887484325,-2.437745458413177,6.282204395600992,0.17862003624778938,-7.267675221940066,-3.6420891808907436,0.25744837074682364,4.537952699751732,2.144218934058389,4.823452347887676
40,2.278969592937689,-0.6096416083219587,1.1695231269002573,-1.2722352892163447,-2.7069451850685717,-1.6219737510141925,3.6407639345649314,-2.319732532289833,-7.462682830187063,-4.528216166001498,-1.4888505575790278,0.22329182448231416,-0.43341421926473034,0.8106379283555936
41,-1.6058863440131619,-1.3699318474146456,-3.118257928445007,-1.1773554119886351,-1.717913381945002,-0.2165191588900164,0.15927686543101618,-4.0132867410215,-5.472431345361203,-4.3717688000446016,-2.7603792227172095,-3.759663247665928,-2.694608850684682,-3.2248322218460914
42,-4.87530992830093,-1.3356413956289466,-6.334153492872118,-0.539342603257476,-0.184981950374684,1.422069981794733,-3.050961218067253,-4.225195503117413,-1.727650096580639,-3.033339129968047,-3.150976905839579,-6.4502560046771436,-3.9917234805518125,-6.368862103232132
43,-6.884897523266171,-0.5904343024239156,-7.820209822049561,0.44853715399561334,1.5371804931351976,2.8367965498036054,-5.043963655156213,-2.8084092078820153,2.775183287083827,-0.7348758488515176,-2.563457063314272,-7.363171151241763,-4.045283395262629,-8.000960456463362
44,-7.373099556808248,0.46814764171714796,-7.445094448786875,1.4261175002690605,3.0054934164690548,3.6053287943735404,-5.334675468644285,-0.21690906618300024,6.755054736979214,1.965290364881064,-1.2435658118090704,-6.568795551063202,-3.0130960233463844,-7.91706634476498
45,-6.4571900642417,1.2955344379355997,-5.56313622687754,1.9945242154976879,3.8083535082711797,3.4675926904197496,-4.025286199742268,2.6398806350693573,9.026972804145208,4.321817481489376,0.31444689855480507,-4.583423856371366,-1.3956241979126405,-6.320583525413732
46,-4.521179026317978,1.4307630946943992,-2.83399371566628,1.8704108161515436,3.6863382394925535,2.4074480084790277,-1.7264240652265583,4.712932686900047,8.863215001969994,5.630983769573928,1.5551015387721363,-2.127630295882299,0.1788268266087077,-3.703803656515996
47,-2.053641237149071,0.6989520198101871,0.0188939911483365,1.007610865936691,2.616540780039544,0.6644751142217753,0.6902193574007813,5.19056780484171,6.22197528897067,5.461474891087934,2.0701083705543124,0.1456136181667202,1.2011309133803427,-0.6753077669659996
48,0.497308418499221,-0.6968387594120559,2.421062401484189,-0.36325366296989514,0.832520417363795,-1.3271548333219854,2.4134432594747905,3.8024327740935497,1.772350285106629,3.8062060038585805,1.7476745172779653,1.8490145691962603,1.4633942967412805,2.2016364735374623
49,2.8027173843176727,-2.2347609732721128,4.062813115556399,-1.7978658708002144,-1.229371408994158,-3.0546639691477484,2.9710397731899567,0.9390352417230359,-3.291057984276085,1.0999599026385989,0.8051548698695744,2.9186902720729697,1.107702266073526,4.510527035390442
50,4.652209361873442,-3.266094469340629,4.894938596379405,-2.786457147055238,-3.0440113619601044,-4.064313361294067,2.3678516402313683,-2.4614418262862845,-7.585964891626908,-1.9059947542083528,-0.30707557500597593,3.5264150295370076,0.528166434461355,6.006313465426219
51,5.899351568777165,-3.2689724320614375,5.030884126499188,-2.936295377855547,-4.1396735326195415,-4.0824144240048295,1.0405568979913657,-5.225341462503601,-9.930584443669332,-4.371464188789805,-1.092172915920638,3.9014767707477023,0.1719983946654458,6.581236178181101
52,6.401878915960604,-2.066734650422497,4.616392325986062,-2.1219954244429027,-4.227093986052784,-3.087266723811176,-0.34496605209885634,-6.349308076463808,-9.669364035968893,-5.621515966777056,-1.209772721156634,4.152296767300023,0.32527646726872256,6.2116736794873955
53,6.004665621521575,0.07541015366564807,3.73415850824852,-0.5462385775034839,-3.277978112615128,-1.314105392620222,-1.1706102849856392,-5.358570809212188,-6.8469700688842545,-5.344251132826175,-0.6146303543403876,4.174170937330841,0.974207434764694,4.92664321628493
54,4.588235106811116,2.5173305073124306,2.388042961814479,1.3153856997942266,-1.5308678540393266,0.8062655394652932,-1.1094778403285352,-2.4904699591023927,-2.1887826779437787,-3.6705988384837704,0.42458844461960765,3.688931664750831,1.8011823414342976,2.8191607366083478
55,2.1676701950769264,4.455058382066234,0.569569116813433,2.869467810923187,0.5758510624314983,2.7571690710833106,-0.24415057817001903,1.364980901083683,3.098657604152119,-1.1160688137652397,1.4345799738355174,2.4019582616979496,2.3193630847383546,0.09181308032355104
56,-1.0066001707512824,5.20149352942067,-1.6328850868523992,3.6062514536942563,2.5227397036327277,4.064597622080518,0.9815169999033665,4.9517194191125995,7.647368848717076,1.589685147705683,1.9319643345745274,0.20687307436106916,2.0919412122581167,-2.897926437087731
57,-4.407339264933479,4.434603786746778,-3.946061054137482,3.275518156695466,3.8447972216861706,4.411969488187031,1.9536856956818711,7.066137132764557,10.281405227261546,3.7253457694187833,1.6258668751306624,-2.658349270482652,0.9455421669973272,-5.636066854062893
58,-7.2936877421733755,2.3215977012856004,-5.903905190066366,1.9731786174385402,4.245810370683252,3.7137422053719162,2.145209600419397,6.965129129355239,10.31483343019978,4.780349282672007,0.5470821004009988,-5.58631035024631,-0.9134749151988975,-7.524104692624569
59,-8.884230563407359,-0.5274719900577254,-6.9457181027260635,0.10717518919714505,3.6624089710278325,2.1320977205014,1.3365330664405946,4.623594590781267,7.722973862702905,4.577594416654818,-0.9495022395407366,-7.7386326157488154,-2.9347545044586587,-8.02309171936999
60,-8.596305283562057,-3.2607737886389976,-6.598407076725657,-1.7443912071506755,2.2651801802077056,0.035288847545755356,-0.284733261690149,0.7522345666053596,3.147954261230324,3.2873252218693003,-2.312950404172556,-8.313356657454673,-4.406864452276675,-6.831494829753476
61,-6.270809997592538,-5.068161710122083,-4.678149996244263,-3.0305145634073822,0.40262123062157207,-2.090322966309865,-2.183115748053238,-3.4315427329772055,-2.261509557193337,1.3399206903706606,-3.006811572672087,-6.849194933426655,-4.722523332171236,-4.032938105385246
62,-2.2936982426004904,-5.445609965845813,-1.4281172735563545,-3.4079514818931864,-1.4918443044938208,-3.7529462319282016,-3.6696803580434474,-6.602363580760128,-7.137992272533411,-0.7241018594071623,-2.720672032725655,-3.450250752579132,-3.62494919388342,-0.14814825780013863
63,2.4472653735911614,-4.347942654667032,2.4759122199097408,-2.841116941026644,-3.00292017501988,-4.567033710685699,-4.156797728618743,-7.760451208765985,-10.242011313376109,-2.41354985966099,-1.4993777796756442,1.1648015796240065,-1.3367362469513626,3.948692014806456
64,6.7768663848079775,-2.1800547468280307,6.074958462660704,-1.5889780938953193,-3.8215202093402563,-4.339683256948012,-3.3771830271655885,-6.554263356730741,-10.78169326671783,-3.406054977733969,0.2625368564722901,5.8257246021078055,1.4856086207889605,7.242871661553808
65,9.561283133365922,0.3629661135233748,8.395356662420161,-0.09021796128122649,-3.80089348581242,-3.113636259662989,-1.4866954619150807,-3.3855948343737325,-8.62214502549113,-3.5978132533763607,1.9616807397256908,9.245426627400485,3.962704727761862,8.865169208129476
66,10.048067303174788,2.5420531510876225,8.751062217278728,1.2041651785459693,-2.974263223516254,-1.1580971584339999,0.9842721651766025,0.7343580489191215,-4.325331183552841,-3.080980771491991,3.009376310635899,10.419843272565819,5.295709933134071,8.360673415078885
67,8.102779289125628,3.8139684771143307,6.974860202782047,1.984219349501515,-1.5366186376294855,1.0905707639292272,3.309228094485884,4.524823345381338,0.9961114299296545,-2.0707877561584183,3.052343224339542,8.957093767145178,5.0510052442005655,5.846845037948721
68,4.258489033106979,3.9801697812444874,3.49322515755488,2.1633147332387206,0.20100434297931424,3.1257354897700926,4.806052234332765,6.853165060229545,5.976261343906059,-0.8180209768575452,2.1050160388301857,5.219638597155706,3.31922903856667,1.9988955531678712
69,-0.4429235321538901,3.199980104038378,-0.7875705080449036,1.8643565932158643,1.8743449002345989,4.484161876135261,5.052902135016729,7.089383964001769,9.36415118744072,0.458859175436445,0.5417778280511996,0.22580834768776273,0.6872743905934975,-2.142277921613294
70,-4.766573980565112,1.877772610900931,-4.749807220957613,1.3258301101331282,3.135577624036378,4.851339483267969,4.0069824629993125,5.282053990937963,10.358323080725699,1.6021353099882043,-1.048241644160468,-4.65961410477554,-1.968322174810501,-5.48179251536983
71,-7.651679397669305,0.48092173412230965,-7.397612888626661,0.7759830732282929,3.7200817890595443,4.134339033496149,1.9931059098368193,2.1048326101320733,8.81039515379909,2.504617621533085,-2.087519335963736,-8.14254949158748,-3.7909656045390996,-7.199880700826364
72,-8.507618619140104,-0.6334087123279021,-8.143119064249207,0.33385279987315236,3.500482746503593,2.484688804011899,-0.42261205556841264,-1.3975306614619414,5.238961773389456,3.0795789349082003,-2.2296657251258205,-9.384613826219644,-4.242381840033187,-6.9876498505746545
73,-7.344524578835365,-1.3161193677678702,-6.95204590434661,-0.0198092256221877,2.517807772619173,0.26501914034734875,-2.6200322169613255,-4.167990859166151,0.6537626717265144,3.2373476751479404,-1.4870019277735522,-8.229509685565437,-3.280600646727492,-5.110733203481904
74,-4.705576170255054,-1.6199668192321721,-4.307651280604761,-0.393097552303412,0.9806920861642594,-2.033344240211638,-4.104251681466155,-5.474315099730932,-3.7507485223009036,2.889513637028549,-0.2173765725699504,-5.202538861377483,-1.3547007576308334,-2.283474338803792
75,-1.4396334093698355,-1.7074471220128402,-1.017538188589529,-0.8840700938528051,-0.7721858366411966,-3.902474336376201,-4.619634732901918,-5.112639689935264,-6.933901518126279,1.985551109601898,1.023251435702449,-1.2957157757986035,0.7770815292240468,0.5957328310599116
76,1.5931652939240295,-1.7264949286993867,2.058702309642716,-1.4853851870984145,-2.3433714236887955,-4.932753457917531,-4.17274057399295,-3.41851991774626,-8.274831591435692,0.5672996721484371,1.7035776917850836,2.3758141658924536,2.3337785382398333,2.74870567292615
77,3.773827776720888,-1.717296064263249,4.261463475086703,-2.0445053168261156,-3.3685734402391567,-4.9031855645142,-2.974860599059821,-1.097046154029831,-7.69051052685661,-1.1868294802412698,1.527456720412053,4.92121701118979,2.7939833281329753,3.751512072281461
78,4.851887783494353,-1.594192504060645,5.280091767167066,-2.3058620425138097,-3.6076007976621596,-3.826390998475818,-1.3417817592783072,1.0542882223335457,-5.583378259799046,-2.957120620557742,0.5504515254192275,5.908342811366631,2.070823456178931,3.6196876051427873
79,4.920735774902439,-1.2082669288027894,5.16279713995259,-2.022270308327396,-3.00918307438088,-1.9395470608375474,0.40384421641721574,2.4242646150785516,-2.653954474705084,-4.333652602218831,-0.8416367568102319,5.417785626685939,0.5204023798948949,2.726230161238309
80,4.276160156712032,-0.45657600322937414,4.207483900496805,-1.0879144572645894,-1.728923042543885,0.35377537870394443,1.9941094833359343,2.7701888005753506,0.3443793396256934,-4.917521191354226,-2.082314920337879,3.9200302484514045,-1.2112875046925626,1.5988767326442237
81,3.2362614688634497,0.619006923697194,2.7961430257865523,0.36946560649623533,-0.09166892351581978,2.5745301094555586,3.231946292350344,2.247989449827398,2.8196822660817356,-4.444088703122651,-2.6430397077512953,2.0428536128642034,-2.438715075069703,0.6869655192751677
82,2.0077700788765487,1.7966861123446984,1.2486016179830672,1.9864966978784675,1.493909114442797,4.2694341932555275,3.9760103082725693,1.2938261824541435,4.457474967043271,-2.8868784615641294,-2.236732477425404,0.3292529007369881,-2.6879573580539957,0.1940276092941075
83,0.6535312554885181,2.7281440175114127,-0.24805004709047307,3.265289053101535,2.6452066137614016,5.100392138603752,4.1214749008298375,0.41480444896175495,5.215648642430189,-0.5025253328044111,-0.9295205531040561,-0.9220561593773557,-1.8576555642475903,0.0390018249179515
84,-0.8368601007482798,3.064483750054413,-1.6195354307264505,3.7463484172121855,3.1077842780734253,4.905561079959585,3.600807031616507,-0.024397102987626602,5.224797327632632,2.205856262886919,0.8794647940004189,-1.6849941407387992,-0.2376070359607929,-0.048565628087172096
85,-2.4226588467863994,2.6038830985969157,-2.8233624492812663,3.188114193196524,2.818862134835281,3.7237902310465842,2.412408599895922,0.06312294295693677,4.655076221763339,4.603242883280801,2.5999062484118403,-2.1137053650477458,1.6117974120579888,-0.3513622640950007
86,-3.9101578368083056,1.396666185831373,-3.7634284535497082,1.6799275445747206,1.9133228248753473,1.7822291776222,0.664380965770932,0.47634496540788573,3.617294263967912,6.085336990880314,3.65857055282736,-2.3892665472221513,3.066076381851208,-0.9906105568058652
87,-4.940199987848674,-0.2421471385134669,-4.255994557706128,-0.3624423294723677,0.6719694439851309,-0.5472901431151762,-1.393934437762608,0.8379085851427521,2.1430758210185066,6.242529144700376,3.6964299751636456,-2.585646456947122,3.6495659855312392,-1.8371955764146295
88,-5.089419894775438,-1.8260100265317902,-4.074667808269304,-2.32493125909564,-0.5693889885870587,-2.8144736777213364,-3.3810662415657555,0.7770514343526025,0.24718910546009706,4.976760003490732,2.684490943859144,-2.619210423283971,3.180395354812544,-2.5498551378685463
89,-4.053037894086596,-2.864851259886061,-3.06007789549476,-3.6038357285450484,-1.5191987965080498,-4.569705834794114,-4.847845360260883,0.10772168811272177,-1.9671045819682245,2.536688069852932,0.9213219501777162,-2.302683803152875,1.8050283966771647,-2.7255012510936587
90,-1.8314852603722354,-3.0440943165643337,-1.2434732392411127,-3.817952284711038,-2.0056520057225713,-5.445895975966373,-5.388618964900932,-1.0702490368241868,-4.222998820291949,-0.5390222024321675,-1.0796974356852045,-1.47341699033445,-0.07628570979986851,-2.096021899647002
91,1.170036733374398,-2.3433289605435457,1.0804747399900616,-2.943090307208071,-2.0062377220045318,-5.231784652261699,-4.767799785526,-2.3876466033013037,-6.063706839225354,-3.553723112134653,-2.7661140973573124,-0.1296173883874646,-1.953776113128097,-0.6832962048382214
92,4.192746195083915,-1.0450826329566865,3.3804686667184627,-1.316138313960501,-1.6264820423741986,-3.9240775116237683,-3.0177638507289313,-3.334743151705837,-6.949969954108037,-5.822955091425189,-3.718866988277852,1.4973039323833708,-3.364250247966743,1.1605750547796054
93,6.331469810432819,0.3728542469258789,5.023742822604686,0.49408657713912474,-1.0411143138697583,-1.7454500179811212,-0.4681059011443475,-3.454180041307352,-6.43916130989629,-6.837088846868792,-3.762464213805419,2.978612352592722,-4.006764308401222,2.853820335746142
94,6.836495827349183,1.4210570688654531,5.480586974103054,1.8998435722018827,-0.4231541914932199,0.881770108977804,2.313535290327709,-2.5253774176484676,-4.381504292078834,-6.375882133709014,-2.9826210850155834,3.828082859486536,-3.789782211329184,3.7930638575256492
95,5.4017487923410075,1.7857690853104724,4.524189100023983,2.508690054962562,0.1114971131713848,3.409148216246081,4.659308907297901,-0.67112513910566,-1.0511261303100046,-4.550210753541775,-1.6584869483591702,3.6929226734441714,-2.812088614987393,3.5887740057263704
96,2.3245873702506117,1.4445742487982023,2.3452490263259,2.2556102583855284,0.5248513501426083,5.274393605130125,5.9797529202733015,1.6545546905456525,2.854482010015713,-1.7667365669946964,-0.14707534264415525,2.515754823389833,-1.3028208549353648,2.2331461231767067
97,-1.5377265977064234,0.6629286645260396,-0.47260604002681805,1.4024733460410348,0.8393266060665114,6.030977649246023,5.929194913608537,3.7955857202043997,6.36791966792664,1.3701470107189642,1.2304479628250178,0.5944371242169277,0.4467189163629938,0.12932649573982635
98,-5.0170758981555315,-0.1279696093906793,-3.1199848970845068,0.40760892401020515,1.0944122821146283,5.464084059482202,4.506181938649007,5.097325720383857,8.521837905851813,4.192830547791281,2.260346585880363,-1.4945681630489591,2.13567672099614,-2.0357601126725813
99,-7.012602353539779,-0.5225524032390227,-4.819641607615546,-0.2791404647660857,1.300451256461102,3.6598729325579265,2.0571125179386804,5.116473939196929,8.650991591887196,6.111364774894901,2.8499869301584533,-3.088147963778364,3.4846857594195875,-3.531130724560073
100,-6.867720076146371,-0.3223328406912854,-5.085494719322493,-0.410193784656862,1.4131245571733924,1.0033893920452701,-0.8181021611773313,3.7681680787925718,6.622935314649507,6.733273649144132,2.995246799010205,-3.673827351403788,4.255358191005123,-3.845066019720563
101,-4.609244952956705,0.36954642405296717,-3.8884829808987007,-0.041673169898750216,1.3427843724169055,-1.901773283445354,-3.4289127975337905,1.3628276145944758,2.912457088392177,5.941250964656415,2.731365722505495,-3.080775053097104,4.273875277231324,-2.8725741574506283
102,-0.9568033029832838,1.1836214619445558,-1.6664708758018898,0.5006763635204926,0.9970343069894877,-4.376428142388172,-5.175948164420642,-1.4781919815454558,-1.5145414924803773,3.9155879525225283,2.098656022887689,-1.5481261640840696,3.467138952417267,-0.9557979974629338
103,2.9082737135162278,1.6394090396050505,0.8282333096500961,0.7779388240240384,0.33925520922069125,-5.835654372726491,-5.698792690908465,-4.00052232353962,-5.47704508182405,1.0969249246042665,1.1407831323658477,0.35923434227370543,1.9047236117485151,1.2380465326172052
104,5.737986749357241,1.360257505626568,2.7902199056421066,0.4517438415515922,-0.5633816739190309,-5.939337801999054,-4.9503331619550215,-5.532535802889224,-7.928225139180594,-1.9053010597932192,-0.06800890905365736,1.957863326559397,-0.1741389193132169,2.9552975771605006
105,6.639151921455938,0.25964578550314343,3.6370699150663275,-0.536052797066911,-1.5273684633168212,-4.680558262183452,-3.1831899755634274,-5.673678301754142,-8.264993061067667,-4.442778363447669,-1.3885611143188314,2.697874263157299,-2.3731851856796577,3.622129430418363
106,5.372681894869504,-1.381855185269639,3.20060759611267,-1.8980834780831148,-2.2885160247516243,-2.3859485896896944,-0.8608441574719093,-4.401012311603195,-6.497483322505912,-5.970977758345736,-2.6035140076546677,2.363832229408523,-4.205832310509512,3.0410729648957093
107,2.425244626098049,-2.989123015940464,1.7655842581731311,-3.0862832873604287,-2.5798108989753357,0.37242645138554414,1.4737232954865147,-2.066220113023521,-3.2255879382222763,-6.1730159824962465,-3.44471118684173,1.1478611430857313,-5.209454131147665,1.448673828795575
108,-1.1703468770379957,-3.895859039942406,-0.05491397288674387,-3.5013264436382054,-2.227253152976743,2.928363653409771,3.331505980500466,0.7113875255687315,0.5652069544666436,-5.034198895744145,-3.6615211189503913,-0.43213509299253816,-5.077849315167273,-0.5816953227639502
109,-4.199677812055604,-3.6059730400807197,-1.557654902743921,-2.7478397338195726,-1.2290277553987279,4.692854972502895,4.378487230242909,3.22068246462527,3.8168487459169076,-2.846193447913397,-3.108977326552885,-1.7364524856229682,-3.7684617621956717,-2.3509894370999684
110,-5.684900129425418,-2.012458335276124,-2.210483263062901,-0.8328888270811772,0.21453659491486096,5.297943924378941,4.484799135826803,4.850654818860027,5.715523062253783,-0.1365380430434784,-1.8212641772023441,-2.2504589103782844,-1.5430397192516887,-3.2795790453823495
111,-5.208767590020147,0.5159663315131655,-1.839730253367246,1.7781162064616944,1.7379136838094469,4.675542559676467,3.720590793730615,5.244591005301395,5.910975549994087,2.4608978218838344,-0.037045568928932994,-1.7795894961680403,1.0805318468274365,-3.098361765596068
112,-3.033940887428263,3.2236400966079777,-0.6769511009318782,4.282155631086669,2.908965034323305,3.054129496746704,2.3115158330092975,4.37689105341643,4.575117099390433,4.3618376310173215,1.8413809000160777,-0.5189299890416497,3.4580029868982636,-1.9223695397955183
113,0.01710854470230783,5.2099385860638625,0.7476808292176075,5.802332154398909,3.360886083561345,0.8803016412180834,0.5735850509936042,2.537353840881719,2.293966396119073,5.1728003772566185,3.349082292450614,1.0270693672427396,4.994031238336934,-0.18886057516844806
114,2.870297586190329,5.742597081539633,1.8205145949277062,5.70337046148502,2.914768253233802,-1.3077927644903111,-1.15393318521713,0.2344656176955764,-0.15752904239575757,4.779979238473688,4.090461103164096,2.2417078244631474,5.309603221239757,1.5095338596035834
115,4.5803899213677015,4.529791365767628,2.0841069137410986,3.8429146350643872,1.6500258423486962,-3.017696192218134,-2.565246048897828,-1.9496971789434931,-2.073795575188437,3.3630286883206297,3.8597422710693086,2.633202914423591,4.3491957669503165,2.6320059517796106
116,4.647259475691098,1.8490598533156317,1.4107176175001366,0.6612804351870812,-0.10474147834435296,-3.9143875252445253,-3.429718549156422,-3.5104091136302085,-3.0230899929857014,1.332615060802222,2.709233897608126,2.021506476326152,2.394070037451643,2.86375446160225
117,3.160501209171741,-1.519736476978661,0.04619438835453008,-2.9316185633681417,-1.8619606950425922,-3.881493131357719,-3.6191283074434453,-4.1373778422115235,-2.93805364265549,-0.7878856862983727,0.9408349955471526,0.6052359469704581,-0.022013581373338344,2.201084794816972
118,0.7310092289302824,-4.540164048669043,-1.4889238154775652,-5.840247651274444,-3.12016847398946,-3.023312883395949,-3.122398670392707,-3.7715407736802473,-2.076979640568351,-2.50143871865276,-0.9786509222032909,-1.1142125710590063,-2.267753911846936,0.9263490601613028
119,-1.754149778079629,-6.261079901272755,-2.600439214558033,-7.143144253091549,-3.5180518702436756,-1.6151811363524293,-2.0477004750992225,-2.5938445797065524,-0.8855527267210541,-3.4583653984380556,-2.552537482200942,-2.5202264238086602,-3.791805223199793,-0.5092507250290448
120,-3.4565091160942227,-6.135715196887526,-2.8458428487380085,-6.403517987198201,-2.9470871169858386,-0.021198977417280673,-0.6090438745175947,-0.9565973434905892,0.18126779563261547,-3.528380897664157,-3.396968120639512,-3.1080662734562043,-4.269340630415325,-1.6474887980042816
121,-3.8709862302405567,-4.2057049339701695,-2.0991059113531905,-3.82133686052683,-1.585241151158669,1.3969656881903172,0.9061154727357456,0.7188638661120643,0.8115920738293076,-2.8088963040133494,-3.3462700403934487,-2.6664673877660587,-3.6758284846966913,-2.1713966362330552
122,-2.9728856838301594,-1.0853308563600212,-0.5949709364853449,-0.17260979418620268,0.15982271197769896,2.3584772700533883,2.1884410447148084,2.049131869260399,0.9149557906262108,-1.5738205006433956,-2.488767367448695,-1.3480532303626382,-2.2703429871651233,-1.9919421216032829
123,-1.18524128030175,2.247597714098487,1.1605270755536923,3.443546723458152,1.7793635801133871,2.7137856026400855,2.970974502437217,2.773961349587572,0.6105736803626176,-0.1830213637226701,-1.1244657048288869,0.3938488239322738,-0.499261429966924,-1.250622324466093
124,0.8078178006848689,4.779240352807686,2.57635764420915,5.96213857132295,2.821404343374703,2.4605218452147377,3.0922995189592206,2.802210889072767,0.14321844414230214,1.0188590391830354,0.3380741659420237,1.974193596733693,1.1451913442091892,-0.2462873795823316
125,2.322381155636,5.789902248068768,3.1879556550615153,6.690549493064225,3.0259634578474257,1.7263531843245532,2.540632685648542,2.212656766603437,-0.2321943098107787,1.7860156317718086,1.509289292261876,2.885245660334507,2.265728294137671,0.6806424445514558
126,2.910805545110001,5.07304324431581,2.8156192276925958,5.513664597211474,2.3944840272660257,0.7265618823018315,1.462829721144454,1.215201403414899,-0.35059403009141865,2.0175928612148533,2.1284506124662173,2.868044559833255,2.658182824501473,1.2626414267664774
127,2.4903573086800903,2.972285205319944,1.6146320093389386,2.901232262566042,1.1735333544656572,-0.29208540281142026,0.13106410776127592,0.08642058680982771,-0.186685634330008,1.7592345468348598,2.1226404577894327,1.9864192718820908,2.3421236912625503,1.3800074312878985
