,AF3,F7,F3,FC5,T7,P7,O1,O2,P8,T8,FC6,F4,F8,AF4
0,0.3185843482818539,0.39494173658196774,0.39223072167766815,0.3477610921482823,0.10614105952401592,-0.38361422161122116,-0.01044042778691286,0.27252661582445986,0.20111244248854931,0.24387721611004992,0.2705389444141712,0.4908285501099792,0.47499488477772983,0.5916705184246546
1,-0.9586513080292429,-1.1504761743100709,-0.8576706787772909,-1.7541118182982527,-0.470118874850541,2.101728892045104,-0.8869452210353782,-4.264320338703263,-5.712797453370634,-4.587462134142708,-2.770626728774794,-1.7199453802137468,-2.5673905241589305,-0.24343092038639602
2,-1.592987300902035,-2.1546522106364976,-1.5326573399889944,-3.0431111408096174,-0.7308277984754346,3.801252636890781,-1.4730643873235034,-7.845735875755624,-10.980445435323372,-8.330222213806083,-4.794553898400319,-3.0173262204947218,-4.54683064867464,-0.6939084477045318
3,-1.1568758446644694,-2.196793176729909,-1.2376621697504806,-2.9698758506055984,-0.4675760298411401,4.139219185548459,-1.5347809292652659,-9.616819871086443,-14.808969890956664,-10.070531045403001,-5.057901877974447,-2.753020149713648,-4.693369657712337,-0.418175051156675
4,0.31701043273067553,-1.2093767954978023,0.011047220815775851,-1.5012251203034686,0.30509608284720446,2.9995726164560153,-1.0014353545437995,-9.11366089880704,-16.372208806510702,-9.374351440651798,-3.419956982131136,-0.9029582694954238,-2.8976329003826042,0.5914755245364344
5,2.323782427096914,0.48832202919024664,1.7741069493475896,0.8585097465314839,1.342465332062631,0.7643064871543748,0.002478919510421424,-6.395494895889791,-15.00900835948973,-6.4070676543831295,-0.39891104900156343,1.9010071170159724,0.23930293486775311,1.9819931443147893
6,4.059844586451827,2.2917108659688887,3.3417747695232753,3.240477489145266,2.250446515182777,-1.8131063707154464,1.1848294332451257,-2.0665590767356874,-10.512127958788584,-1.9067016083069428,2.9944646365882464,4.586105602556476,3.6049527191576227,3.1582178437644375
7,4.721780768211751,3.5156667893994213,3.9980475161050464,4.71923458263098,2.6269030484910214,-3.8576651462885683,2.167471442722204,2.8356019040776355,-3.382095793350415,2.9922200434748016,5.591927683160891,6.026842268871277,5.957976372257716,3.5077593838812513
8,3.8222106537972236,3.634881062216,3.3005591278151702,4.647856279614071,2.213595870446495,-4.663647537842594,2.6001801005446072,7.077095589386404,5.0968669266740765,7.047375977771828,6.460468698126441,5.468480898305746,6.364270753954963,2.650945019522985
9,1.4050141895417976,2.478097716684102,1.2724509512534155,2.901744563999666,1.0042269194881779,-3.9300149153341195,2.2738407229200295,9.542716380989633,13.050953670512675,9.23799434725805,5.221122534472848,2.832365530139777,4.536018225584811,0.621632799707553
10,-1.9238647050406081,0.3080595562158938,-1.5679456924470085,-0.05639945243061462,-0.7313482662853479,-1.8623963122535139,1.1978149185880127,9.548456533202776,18.47055265224321,9.044240538989053,2.1863302973588015,-1.210925723191006,0.954277868195391,-2.0938938693144684
11,-5.168755655050242,-2.244047479250133,-4.356552295529061,-3.3159835438872878,-2.517872209924711,0.8921167332097056,-0.3849806315884405,7.0576775419030415,19.80020465745063,6.59297891568919,-1.7313641616831785,-5.433731745947846,-3.2713481475656683,-4.6837299751609764
12,-7.265432275610644,-4.37234941111534,-6.164685969419473,-5.816544436009286,-3.818712788431593,3.4556057313733235,-2.0542131436841498,2.7240993419245565,16.46627735299481,2.6204973589009586,-5.310061295098581,-8.44817287686482,-6.762402687785119,-6.267145780466855
13,-7.442202557555017,-5.357062574854672,-6.316212706544454,-6.7030745603205215,-4.20613096182152,5.0054371074978015,-3.3267885785433324,-2.2684379594322106,9.142737560795902,-1.7435057519921633,-7.412846498017577,-9.173883132437167,-8.330940659726666,-6.196997845629449
14,-5.4956409919936,-4.806834688184194,-4.630396416801878,-5.6171295303380955,-3.50161924616686,5.041193267569843,-3.7982387036940506,-6.535524225317569,-0.36562699694515993,-5.309491847158448,-7.355607417176971,-7.216070488306034,-7.383288509072262,-4.303288599619912
15,-1.8835553752331693,-2.801115625972243,-1.5045230230856996,-2.8242728606138203,-1.8401181267736009,3.5447596115340647,-3.26888382431161,-8.897576723043551,-9.610999288303733,-7.177548078271606,-5.127661169329112,-3.022689791221092,-4.130462887055663,-0.9896794313580289
16,2.400027209816363,0.11757284844226036,2.1949111659664675,0.8652143998577029,0.3627942745794043,0.9820666583648949,-1.8153534652857752,-8.735144820472534,-16.21430583373184,-6.992572518819598,-1.3940397956562558,2.235593198500066,0.4675792913924963,2.857677510440528
17,6.128604116275433,3.1027355575582587,5.398091607581317,4.354794997443434,2.5299703141410865,-1.8520390411165777,0.2169155402076084,-6.177349406227978,-18.56800353926283,-5.023549138929218,2.7192535883891544,7.024901026038812,5.006727393282698,6.126831743022243
18,8.22574335719877,5.265396357158958,7.167097316571607,6.61156817762847,4.089938547464302,-4.092479508287702,2.301336669085388,-2.0573744362412265,-16.294973805893115,-2.0427422890462017,5.984737861737771,9.928824891050189,8.09132065829886,7.823395338364932
19,8.100387520054703,5.9542187081627285,6.989728092213074,6.990690554280582,4.640102286650171,-5.079574991169458,3.874697694276252,2.3547291579927805,-10.312682717580556,0.9521118939963547,7.4593511313537695,10.092344472852451,8.783856589065525,7.390325695291969
20,5.825670838405752,4.963049499411085,4.936070500322439,5.42851181061375,4.056678917664898,-4.561219429269466,4.497240224599756,5.756087105584069,-2.490444452097033,3.0760529615269214,6.771914216753973,7.484902061449578,6.902817927710966,4.898549964986605
21,2.1051841999487406,2.597493682928271,1.6286897327421923,2.4450349267147264,2.5204971939596668,-2.7577144424462046,3.9811133614442618,7.218545843105224,4.971419625234949,3.8387811572434574,4.221766981315931,2.9000471856446697,3.071555533692352,1.042524708791794
22,-1.9585227729826418,-0.42203651882809456,-1.9604748558647829,-1.0388010543793094,0.4547573494183554,-0.27262988584574,2.44840379381416,6.464733210224348,10.220945449233126,3.2744126175123505,0.6614915655888666,-2.3034798185110916,-1.4948114556118142,-3.062921804892326
23,-5.214021554408841,-3.1895964534746413,-4.81704147263016,-4.002744324909969,-1.602476784615483,2.115429702761827,0.3003163675454178,3.923164259686421,12.264204624051544,1.878704559330896,-2.792514241411442,-6.630629809036391,-5.39018579308816,-6.223239170453289
24,-6.813843408870462,-4.9004148035877435,-6.193535793781487,-5.645176615211668,-3.15021186261508,3.7070964940280122,-1.8945759206870207,0.5495999648800501,11.150370409971956,0.3832285696823536,-5.1228902701089,-8.907808389926894,-7.470573944598063,-7.534824637885318
25,-6.456775045363399,-5.101277678288902,-5.82217076603078,-5.614182853344701,-3.8555441093567984,4.097209496393909,-3.5607397328939565,-2.51768364564861,7.801386066238464,-0.5451969459972741,-5.7275781849793095,-8.623498451087405,-7.209371240511103,-6.666315787990577
26,-4.446047179638667,-3.8232632298344678,-3.966984889272838,-4.0822668693809625,-3.6278751417482917,3.2820504794697927,-4.277599975331041,-4.345525287235267,3.5819391958455395,-0.5654657360610917,-4.588182634850004,-6.048435784870462,-4.840621506744714,-3.958293344838012
27,-1.5525687667109433,-1.5550744451111898,-1.3060508258681667,-1.6503543215496745,-2.6198837148901957,1.6296664373402983,-3.8951269685530123,-4.502054583893682,-0.21232693002881706,0.2143488165189542,-2.2407813698784027,-2.106826577953882,-1.24937933516604,-0.3074306207656686
28,1.2633798364611692,0.9314214955809212,1.3097153081374155,0.8763526808479444,-1.1615653844665488,-0.26857933939157336,-2.5691406429528376,-3.1634830091811263,-2.7596207826760755,1.2960164663059655,0.43366127858598363,1.9486299651218584,2.346343432808181,3.1281953160624
29,3.17410958860397,2.842764011309387,3.1363218460807336,2.7586264661486024,0.3474133024207744,-1.8082101839140239,-0.7067462557033951,-1.003583970942947,-3.8802547732260306,2.008083275385163,2.5227196678902275,4.944263612340415,4.809291128811601,5.306173984931226
30,3.7417527104064465,3.6237210444247516,3.7615795048622704,3.547852984981681,1.5520366691989351,-2.5690853299686958,1.1603026630540734,1.084331038217802,-3.9402519434885264,1.7959107046496843,3.3908881093270633,6.140602222458984,5.451096768362939,5.634356016103638
31,3.0283554095833267,3.1286824705248306,3.2044531340700484,3.1950522878202823,2.2294659912705037,-2.434488017361715,2.5346718753519357,2.3257769799247874,-3.5643695523229755,0.47177240906270324,2.879088193777119,5.424200600604591,4.233619286599496,4.151454689431031
32,1.5291923141426125,1.6495025374181065,1.863774684373121,2.0181527105398804,2.327681484005494,-1.5971787596797586,3.0959226149853256,2.3397040695931777,-3.2966999037924314,-1.6736295258101224,1.3314768438494948,3.2845520045580745,1.7427873546204287,1.4936393291691223
33,-0.039257351545299,-0.20549697628891156,0.3432513823379961,0.5511195723611293,1.950073047855879,-0.4588979018734371,2.7834655552105576,1.2535532348078418,-3.3519509294445045,-3.9451670819326825,-0.5535339990275047,0.5981963068513227,-1.0464936909165659,-1.3401459307873693
34,-1.0167129787870453,-1.7358995787366893,-0.7796379877582832,-0.6633101149718063,1.2976287449834407,0.5336328135825438,1.7966071156951289,-0.3753415415205738,-3.5496681975604276,-5.4801609055315295,-1.990763848327919,-1.6952442627945181,-3.1255467512958264,-3.342284567360342
35,-1.0421537205169646,-2.397300504259568,-1.1574880922614805,-1.261347185922757,0.591931328421581,1.0537005356004672,0.5148831251050578,-1.7946172523349002,-3.441614075788422,-5.564056106417163,-2.397644759421318,-2.909555889788904,-3.8010247496287475,-3.846927595275362
36,-0.17784756567819776,-1.9873419627475575,-0.7797993018717652,-1.163409144798265,0.005386104890052759,1.0016602135250154,-0.6331607078346515,-2.3555896395198013,-2.5636919558771614,-3.9103154171484364,-1.6036898675047744,-2.815415284356063,-2.9189294449938092,-2.755186226273249
37,1.1265292504363817,-0.7072134875407972,0.049761046079694025,-0.5677623032337288,-0.3802672611643219,0.5193437570680375,-1.3092014244194468,-1.7639196371849073,-0.6982815707422516,-0.8013095046720354,0.09175946321054215,-1.670669526285668,-0.8922664735001328,-0.5575250979325851
38,2.2136801202733665,0.9197163487110637,0.8512462761417138,0.155368955027885,-0.577606279500414,-0.08763560265023461,-1.3677384326725934,-0.19187592396813585,1.9647148255609022,2.964359332836229,2.031211377769791,-0.08037394788456474,1.4687880127061628,1.8529664992279844
39,2.476195790738377,2.241126495973438,1.1669472965571108,0.6232825968705894,-0.6632605471522361,-0.48580837003080884,-0.8905743960690262,1.7851731468340601,4.834297341606333,6.304698646867786,3.4387107263401604,1.2522811137043957,3.257706118915543,3.5093449709411613
40,1.599080663224308,2.712143635225988,0.7464392324393714,0.5925997873625845,-0.7286516869351305,-0.45442141050507734,-0.1445500748426136,3.4011626999057536,7.090537636130521,8.191121650591104,3.7023288849957483,1.7896138827733559,3.794825065876857,3.7247698034749943
41,-0.2996903504965757,2.0926728010443476,-0.3489765541697136,0.049204189445014875,-0.8318408295106865,0.022632673759673372,0.5210810563864587,3.981463033134239,7.957712316462811,7.977329635300057,2.6004299086350184,1.3444935157984863,2.8610832882211685,2.3461172989097188
42,-2.6821112737946837,0.5379598190138429,-1.7593795060786037,-0.792488031279894,-0.9686458935035377,0.7474245496990638,0.8021221608976942,3.1930782137747196,6.978404623557582,5.611723440261268,0.3929888593839511,0.12711844440380562,0.7653357939553047,-0.18284434621064868
43,-4.7552807480731865,-1.448187111361302,-2.9515599700638555,-1.5761229568564545,-1.0731615506519128,1.3840345247663475,0.5489496309495007,1.1750897525038575,4.191779243147503,1.6648858085081042,-2.2538234175152936,-1.3540867860705026,-1.7720421614399229,-2.9717348842573688
44,-5.7351693304399385,-3.1812831663768795,-3.41175995737882,-1.9412664621629625,-1.0466315041612921,1.5915766254273496,-0.17809150060269355,-1.494718230812045,0.15636979390190545,-2.8343254221898184,-4.484342044541936,-2.49365687987623,-3.8734775653367843,-4.995145972033599
45,-5.121189033918507,-4.0282365994096,-2.837728240455973,-1.6617598312946926,-0.8031416027908509,1.1649924471044535,-1.1254497636046281,-3.9838534567602752,-4.1874902971636905,-6.698527108708589,-5.537953811040523,-2.8155101261600013,-4.80565054344538,-5.456497434614895
46,-2.8887260963116033,-3.625510062054174,-1.2624402796064267,-0.7357804946212295,-0.31437063651057495,0.13126028792077332,-1.9296906141014776,-5.475930549939825,-7.768763605092567,-8.92077939524675,-5.005396196183037,-2.143389588371757,-4.224772841833939,-4.076488644071207
47,0.467413988657837,-2.010300012913545,0.9346374036456444,0.6029175220613799,0.36423141557068783,-1.2360821522466554,-2.2402705470055526,-5.437342133612912,-9.671979219648655,-8.948689355690124,-2.9707553548257195,-0.6581688445605619,-2.285241978666871,-1.204581255763034
48,4.057630820587704,0.3792263093355515,3.134583469443904,1.9555690584349434,1.09699615640567,-2.4929955249375144,-1.842042307870836,-3.7929615478652368,-9.37667705182398,-6.816130059706116,0.007957103513088837,1.172598951086719,0.41980640782763734,2.286390246316282
49,6.854585241185842,2.8353533080665003,4.670245116617291,2.8864529632930696,1.701897140326934,-3.1689660866327363,-0.7378788727680631,-0.9563868906710421,-6.889158206474796,-3.104332162926806,3.0724470772317067,2.7622845404307026,3.0600951601407975,5.286891924720442
50,8.003687309412806,4.601626885088409,5.03926590129356,3.0658289118883313,2.004335151337466,-2.932142868382148,0.8356685587023095,2.2915078792159265,-2.7406647860166076,1.242145351916031,5.333647467423021,3.607243678034253,4.839855382694215,6.820260845375294
51,7.0899487201881,5.1120231931461735,4.069191298171917,2.3811946012550016,1.8930541370107485,-1.7197541679609902,2.4659823008638875,5.034365070366969,2.1382146088859018,5.178970401456674,6.147970586546947,3.4520982470806323,5.247567891298304,6.3685830753697275
52,4.277043416215811,4.171937133871837,1.980615971428482,0.9811891314021173,1.3592023529088937,0.2126796102025311,3.6790913924792847,6.48921537604071,6.6307104155283,7.824620705951394,5.310756575261507,2.3636345980602007,4.203605023080466,4.044222751844408
53,0.27393503187408635,2.0234930666757003,-0.6724628782348475,-0.7618752663894328,0.5050189454791724,2.3449174762589307,4.077978421297058,6.23156846807076,9.685080818814367,8.653201978155591,3.1067177295614807,0.6932718708802592,2.063389836269341,0.5503556317175784
54,-3.86220652691397,-0.7252516955836396,-3.1663166949261394,-2.359486568153091,-0.48119746062871593,4.037137547670016,3.463794867330674,4.312831455363722,10.552389831465378,7.579048434610654,0.20564357895492724,-1.0525410472819492,-0.51653835296621,-3.053346809235447
55,-7.027718465268292,-3.284570860995275,-4.823313322722543,-3.35166912566027,-1.3759091928445382,4.724980966707585,1.9041522859217785,1.240535627214482,8.964705877478627,4.930484691075581,-2.5575619777260683,-2.384330830073808,-2.7977590940500554,-5.697699734633319
56,-8.387953864350024,-4.922715751778549,-5.211978001689308,-3.4450779143002377,-1.9806290924937848,4.104498373068181,-0.27212920218482084,-2.167836047834022,5.217103024466384,1.3388200516261803,-4.44330152679405,-2.9830419910697112,-4.188230903763748,-6.644934790550157
57,-7.612185735560427,-5.186030520214462,-4.269228481580606,-2.602638783435545,-2.1727536117164554,2.24706292237146,-2.553431507023517,-5.01220642217295,0.13029895876317893,-2.4172826791540394,-5.022994681447154,-2.7843948056441414,-4.405749576197738,-5.709891177968126
58,-4.958887900204297,-4.031447746656947,-2.3082944966662238,-1.0574516215343506,-1.9319713657272881,-0.3964469393919951,-4.375824088955776,-6.553535779258111,-5.110221753613008,-5.5729219850572145,-4.283482863369617,-1.9708733099630062,-3.5296633027814712,-3.2917525035256907
59,-1.1885458827223865,-1.8313823352435763,0.08738361825988734,0.7537093051930348,-1.336179257750499,-3.109715951339026,-5.270001915519235,-6.4077404994930305,-9.217395984799774,-7.515183328493215,-2.593351901326771,-0.8816348827828073,-1.9345780432322703,-0.2133625134062903
60,2.6663634441795736,0.7485633514670486,2.2479713429369563,2.317897195822591,-0.531282378229864,-5.113634122018591,-4.984680347932721,-4.640135167097362,-11.118190011848796,-7.883059978664679,-0.5512979028239137,0.12148966521900391,-0.13950557776039943,2.569130431887836
61,5.602085978863411,2.9587913222215683,3.6188455884070434,3.196673028712715,0.31263832002103803,-5.798328302116633,-3.553304614872883,-1.7387017477790963,-10.247533573171957,-6.622827849239833,1.2254164768338676,0.7809664913950574,1.368904794329768,4.281827761737896
62,6.923410202431987,4.194771181422603,3.916314202125803,3.1549011476734328,1.0433968627348038,-4.9134504942682655,-1.2868780185494946,1.5233464064379467,-6.737411667367771,-3.996188857406552,2.297896907074336,1.018570361711856,2.277497135951953,4.565619670502001
63,6.4203070059010106,4.173816297256,3.1907676395035383,2.2288709232469506,1.5546251845624013,-2.6558956794649604,1.303921964500829,4.297018986541481,-1.4328612499672404,-0.5388633077479751,2.5231276849800994,0.9352357729384927,2.5093502999408086,3.5518545604693923
64,4.393659803298509,3.0054082040897927,1.7822773066746196,0.7130584273175137,1.794405653386335,0.3756546330183184,3.6352358593071483,5.882688690453846,4.29260997407059,3.0309214072536834,2.0586832419885464,0.7415409234585659,2.1975733755648195,1.766158005227837
65,1.5305992592666828,1.1360617719893262,0.18916185004513295,-0.9305488457945111,1.7576482303679763,3.348844355418539,5.190839904314013,5.911490773903669,8.89134107427605,5.947798000819698,1.2626276268193573,0.6501885092336233,1.5924888517936728,-0.09328177424251481
66,-1.3238878428377945,-0.8095011727169779,-1.1026162416668492,-2.212974014397704,1.4708968820710187,5.438929857752082,5.640820080197825,4.4356167757529255,11.07633721069552,7.560208188108718,0.5329601776117401,0.7748703276260435,0.9459807696007525,-1.415181402013833
67,-3.4230521141474264,-2.2360797588469037,-1.771115360270183,-2.7656464820424786,0.9792116834811577,6.069842361468498,4.909615114756815,1.9043944393005765,10.210126567634099,7.485291734310209,0.14966006218085995,1.0759871202781186,0.41974065853339193,-1.8771548838771137
68,-4.322377715553185,-2.7653841818506564,-1.7427340412468248,-2.449537424445844,0.34104126817147595,5.081013901676812,3.1801987135694834,-0.9664965996367035,6.521998346088287,5.717849819770767,0.17743103490662754,1.3746466483518935,0.0490591683237538,-1.5226384500801455
69,-3.973519521169251,-2.3426249837652104,-1.1863232602691482,-1.3928295101214294,-0.3693250681299147,2.769233189846596,0.838766624762605,-3.396443609237127,1.0717938482266434,2.656569089130227,0.46144596318716874,1.429464706782439,-0.23197607318595986,-0.6958532824903522
70,-2.6892025191746227,-1.2306522416355659,-0.4261566078231547,0.05371093979821924,-1.0578065422835783,-0.20559784102538686,-1.6210743161999321,-4.756159393145773,-4.545259016503207,-0.9723649240055687,0.7120532762018196,1.04602831981345,-0.5235298734157006,0.12842749411668886
71,-1.0024451851222822,0.10121512425122338,0.19018133081556396,1.4287664962033597,-1.6132950738524823,-3.0192291580318873,-3.707900376882054,-4.738413992035357,-8.673155845557522,-4.286185024704069,0.6412960489011874,0.1756308176489982,-0.8861363678245505,0.5471586264770456
72,0.5249958925453899,1.151252385771438,0.4199424244066302,2.3041912131627917,-1.9227760570260057,-4.923183396549444,-5.029743269388408,-3.435163303253733,-10.105204722827384,-6.472117407967959,0.0961869721773082,-1.0370103038529486,-1.2942835525697247,0.38377807345718296
73,1.4790142922491771,1.5602307521737415,0.20511157820512782,2.415448056408906,-1.8982270426445274,-5.452714717254724,-5.360452248899232,-1.2993067027523415,-8.465940342308471,-7.008037133079024,-0.8631345164294825,-2.278966864345533,-1.63721003201866,-0.25995708944162754
74,1.6999902686790453,1.2275187038407989,-0.3204036251152367,1.7389075056027141,-1.5076439589263009,-4.542485533323387,-4.667435309232294,0.9975006125435847,-4.336069141357922,-5.81064987799805,-1.9700154504699026,-3.162186704191143,-1.7647434542829923,-1.0667601669682425
75,1.2941096567710861,0.3316368434986507,-0.8936769355347938,0.493710944504079,-0.7979805082401915,-2.5213451427741593,-3.1031391472571177,2.769026064574967,0.9280303132733304,-3.261659626046755,-2.8399512996943646,-3.3537005356045824,-1.5563230125523102,-1.6477403267832271
76,0.5573386975693425,-0.7469313326062766,-1.228799998721834,-0.9300898936762673,0.10177478791522641,0.004136538268898372,-0.9688057840585624,3.519956853083438,5.628575877226502,-0.09787889076455963,-3.1082564389327216,-2.697289918633218,-0.9819599388734783,-1.7049201473409281
77,-0.1520937444629892,-1.5692937341628093,-1.1258729890341286,-2.092844654420155,1.0032651874172307,2.3354277208912015,1.3395325371344498,3.0910440146492104,8.276449586052369,2.8055698013902193,-2.5663878105707187,-1.2824975466862898,-0.12825872434906477,-1.1472854265201118
78,-0.5443788752387607,-1.7957297727860086,-0.5445765525358541,-2.637757385085837,1.7036905615566587,3.8784728000678617,3.394768891447558,1.6997166622505846,8.076787964275242,4.693581034642096,-1.2479845944931682,0.565509321728841,0.8216671159724988,-0.11863081076932423
79,-0.4888216666514579,-1.3030882093530667,0.3809982854186262,-2.394600330215354,2.040385373712768,4.294770123113769,4.806606489736971,-0.13674497813296907,5.187418584975077,5.1495848731797,0.5655115364948373,2.3743187322101384,1.6456484412049597,1.0664469001335952
80,-0.04018444293281814,-0.2243667306631837,1.3877039223845404,-1.425410502335389,1.9374690543545083,3.5698223672193317,5.288634530888041,-1.7723691435162197,0.6607374044174873,4.204080468496702,2.421160193040413,3.662791172897059,2.15321513910857,2.045628511903944
81,0.5994950512441898,1.0990931350415043,2.1699060477396346,-0.0015619620473150818,1.4285161240208826,1.9888816353861998,4.717263161954501,-2.64493375091211,-3.9149743168417372,2.298648826610011,3.8264268213020234,4.084400764492148,2.2413373000066423,2.538124733279427
82,1.1630810961595681,2.23304163358679,2.4763080252641068,1.4779033760611322,0.6469573136672159,0.03629727878676224,3.1712021475264156,-2.4622819776767275,-6.956535804461402,0.1193595463275228,4.393006588201781,3.528863592683114,1.9150626981917964,2.4302302433961636
83,1.4130281555825484,2.7928148402623054,2.1856537490335457,2.6006962300978214,-0.21295080913729492,-1.7470540633045974,0.9376552913260359,-1.3015448540347094,-7.426928693541158,-1.6420259577665244,3.947295439773067,2.1503436497177124,1.2693926852659558,1.7902249044819198
84,1.2178095374939608,2.566073357302793,1.3398045886713128,3.0549949197014814,-0.9515823874818486,-2.9074293745472803,-1.5262433212837527,0.4134513602172344,-5.191381480803387,-2.5160376485946228,2.575749319635624,0.3157231840018486,0.4455548853246886,0.817210083943285
85,0.5894049460667978,1.5781026170400896,0.12819052954514834,2.7114642856357274,-1.417556219932834,-3.187134465159271,-3.6792621700326413,2.052604793640574,-1.0641134457506989,-2.3941239813739386,0.596048575348814,-1.5071936337620266,-0.4156706781630098,-0.24534294633174236
86,-0.3242964837123832,0.08229434205469835,-1.1671022285810728,1.6533184811967991,-1.5427816346832077,-2.5757174364158377,-5.017428421179674,2.994486179053795,3.4738456679220393,-1.53190518691703,-1.5317954779632037,-2.8833623057133697,-1.2027898208196108,-1.1903921075637678
87,-1.2847137391290722,-1.5174641705468659,-2.2462153985773763,0.1493826414116536,-1.3496771896912345,-1.2965481455193195,-5.204083933509808,2.8455513630244744,6.791628136403902,-0.4203608363132589,-3.32435588042202,-3.5236190293809577,-1.8356961391033022,-1.8904497576820014
88,-2.029189158203157,-2.7857246207713464,-2.8643615198334746,-1.4197403169004057,-0.9315094687069075,0.26296620163978907,-4.1721446824211705,1.5885764675810525,7.682761357641838,0.4233283013199649,-4.389359389332594,-3.34521204672414,-2.2479390953163048,-2.29351233198412
89,-2.3402589138711885,-3.3787709650475417,-2.8849138666616407,-2.661128440218791,-0.4156918686099505,1.6578267900091384,-2.1632807767758417,-0.39418692536069166,5.795952482209803,0.6639978520371673,-4.508242499488773,-2.468050677592232,-2.367779874043498,-2.3870032381818502
90,-2.101480413734677,-3.136990363666069,-2.3033950631152864,-3.2684904098959335,0.07575952484781076,2.502351464730028,0.3170591960049117,-2.4370997589786803,1.7685328188919318,0.27527554574995255,-3.6723433874464866,-1.1570799271246983,-2.118069437035607,-2.1599344673442373
91,-1.3290297814399292,-2.1227037805599367,-1.2417795930614395,-3.0962927233430078,0.45573600828849137,2.5700799377664136,2.625489803571774,-3.8126134273597807,-2.9891222602618868,-0.46399898093179165,-2.0723939790869124,0.26319346776862496,-1.4446978096046548,-1.5916981376550063
92,-0.17384898382604863,-0.5968250974862502,0.0811860948444396,-2.1920572390616853,0.6844058816502399,1.853001358266326,4.156977691680049,-3.9855127273575826,-6.787054430264205,-1.1015510343865993,-0.05093294217986702,1.4919183755509984,-0.3658106595257242,-0.6784698689460018
93,1.1061936811183761,1.055437653073587,1.3951925559289766,-0.780475190800976,0.7647000108918577,0.5648832493662455,4.520877258899713,-2.8119379287300332,-8.255721451098822,-1.2182286212104039,1.9686820310595459,2.310200157120281,0.9822829907122184,0.5160075477599162
94,2.2005045641417453,2.4273680108471107,2.430644557766385,0.7954684689148012,0.7270030421759562,-0.9142405104929546,3.6608943190992287,-0.6102379873455016,-6.840046494567867,-0.6246388189791325,3.563561614162059,2.6060493873449624,2.3327416803834797,1.8170833789138165
95,2.818068162334313,3.1942510788134744,2.970493136404195,2.1610932831758904,0.6114039812850581,-2.1410085695379184,1.8768542754381117,1.92743005864224,-3.0091124881460134,0.5350685695656674,4.39191145398403,2.3714778997091583,3.330791000501632,2.9379848309438743
96,2.7642078460235346,3.1917395030453055,2.8945101930726014,3.0025471229252862,0.4543283129841426,-2.7342008511242826,-0.2642721428939244,3.9587555190452437,1.898172988554633,1.819910566123456,4.2629332655395356,1.6848580595921332,3.630893284083482,3.5396201630498947
97,2.0033569407128384,2.4509071051612437,2.2084967359130756,3.1420130794931165,0.28248250301416306,-2.489070877521785,-2.1042671012764984,4.77710890560452,6.141926591722933,2.6610111397902627,3.1848259965826395,0.6906617182813926,3.0217192910253767,3.3418023288527654
98,0.6879199278006541,1.1830803761302828,1.0508481097668456,2.5766450239968,0.11300989958250608,-1.4464654968179722,-3.101948820099322,4.061434196872839,8.201375432629074,2.5996220206362746,1.3784113893898327,-0.418710149356748,1.5329872466179042,2.247642974718614
99,-0.8620365406734859,-0.2801788340578427,-0.3290924568322913,1.4716603675379436,-0.043536026639502505,0.10750431495557927,-3.0056389218407347,2.0010826511353357,7.325742275378392,1.4992374829874795,-0.7542732657526776,-1.4227907414837087,-0.5238288617209617,0.4277887809727585
100,-2.231720792638569,-1.5757551507566596,-1.621229840139511,0.1103885512710405,-0.18063711129598828,1.7166226573064536,-1.93103569205939,-0.7524330245909031,3.816469889153908,-0.35822858122844864,-2.7094699049522064,-2.102360048444114,-2.6104755452098596,-1.6815009460093147
101,-3.0238679894572225,-2.4030780982718634,-2.5258300857934226,-1.183885488757941,-0.29494406572879756,2.886844056422427,-0.31619543785335946,-3.2952651155120645,-1.0656617539043212,-2.3407435061632835,-3.9990293354413895,-2.2824159718571155,-4.108355793368178,-3.483132930591805
102,-2.98062187620313,-2.5988658337956956,-2.8295913104644,-2.1314564005186654,-0.3861165986885772,3.2379343747293405,1.2329812577313868,-4.773946163382942,-5.541960965333233,-3.684174462342314,-4.280043160902589,-1.8832394988951182,-4.515365462852188,-4.402564259182729
103,-2.0762554095465338,-2.172604379479798,-2.465574753085535,-2.561231856182836,-0.4553834921936963,2.6272021624639006,2.1548959031170964,-4.677951588300888,-7.953216692794259,-3.7842064918011777,-3.4603917703092066,-0.9631763645825347,-3.6270033935468584,-4.08952512165039
104,-0.5455462362094913,-1.2934351208015824,-1.5371195704204252,-2.4400039620378013,-0.5017612001385644,1.2036978978646582,2.128864683311602,-3.020359600770011,-7.366852586526376,-2.451814650737671,-1.7437246437656244,0.26846368568319995,-1.6337430778274795,-2.56275627394208
105,1.1698990602392403,-0.23296070479225867,-0.29456133024650444,-1.8609332332213742,-0.5171588033774172,-0.6283286262549557,1.1871413803327304,-0.3420275404071203,-3.9338296808508963,-0.02887664574934398,0.40897879815975896,1.4849687134207326,0.9090336008541864,-0.23672225012554
106,2.548227819119132,0.7183447057678708,0.9321795469830696,-0.9997320855694268,-0.4837225669127779,-2.328740078336621,-0.29790666872412724,2.4648636258234142,1.1393295501776848,2.691754649040457,2.3992919431193016,2.323595268288654,3.2389932084348003,2.1905499147329373
107,3.1505900264990734,1.3352025391220648,1.8269305071726125,-0.056830236094619284,-0.3771092446636046,-3.3874725589574872,-1.7480089961484673,4.455397489385678,6.00238476918339,4.725380565958674,3.6625240234907914,2.4959390802868358,4.626294630246462,3.9577600222498472
108,2.768001048901284,1.5160161512202919,2.178039546226074,0.7937391863786208,-0.1771778408356546,-3.4840535604730314,-2.587940687254765,4.951299575482179,8.817717878764036,5.247710328926631,3.839067333293565,1.892036819183137,4.615410128241236,4.495047117166711
109,1.4999606793758773,1.298317761929705,1.9372478472271586,1.433585810133763,0.11646235935294985,-2.58837893585192,-2.455445176930743,3.771895951285702,8.43036605568497,3.9135580220704442,2.889943638814359,0.6384458612481652,3.1849548812995834,3.6226326649829463
110,-0.2664829385206444,0.828541513740728,1.2270830812872116,1.8032325774118965,0.4705901713789531,-0.9693369721295799,-1.3372649561973835,1.2974781703912475,4.810478494485328,1.0207315936820645,1.1154268693176372,-0.9179705907276122,0.7667116965889783,1.6199991190544663
111,-1.9749251851644418,0.2993883923278595,0.29455194799374657,1.8868587143848268,0.8143505647442199,0.8914620226758516,0.4179860623210717,-1.6566172813741715,-0.8968876015976367,-2.550683226993514,-0.9337730838347637,-2.3040851085324268,-1.886948783634406,-0.8623677191999793
112,-3.0780752815141983,-0.1209581534985142,-0.5724560619602543,1.6928650393829374,1.050965336574356,2.451857408130299,2.2159673171958434,-4.112102076512883,-6.742401528650107,-5.61357409817869,-2.6271624157640954,-3.066781464579258,-3.9448224875512494,-3.019764692391448
113,-3.216902983509766,-0.34177617915924136,-1.1368572983189442,1.2438199405720416,1.0851644768263813,3.2766035472794273,3.4218041421364154,-5.25335420851825,-10.641062832731862,-7.074237544982945,-3.4526175753306556,-2.923930149291289,-4.766518666179994,-4.162912255624599
114,-2.339228371503894,-0.3671857184658112,-1.280978303620763,0.5814645227968009,0.8589127211253392,3.1655464073949604,3.582516736804203,-4.69663436228147,-11.107055905328089,-6.3195243104551055,-3.1770439531187002,-1.867147144215991,-4.108602807078785,-3.945859792578002
115,-0.7169601620221021,-0.27511870011731315,-1.0304064341339387,-0.21843299792287457,0.3823696611028547,2.202696232739146,2.58849526941246,-2.613427843921594,-7.794992415899488,-3.4522403249329034,-1.9163086404953695,-0.1777265658243818,-2.1981196268380985,-2.4734506095798574
116,1.1436235439950861,-0.17033170671069808,-0.5285168702635534,-1.034784614526215,-0.25383637303267154,0.7142346471299832,0.7172406051316652,0.331058384808938,-1.652206235997774,0.7133427719512772,-0.09167328408212881,1.6534616626073857,0.34924042750467094,-0.25392045761783316
117,2.667141569294964,-0.13331380477872062,0.025045127110128497,-1.7077990690868163,-0.8937913013633537,-0.845785047893293,-1.4559162939377868,3.2005264163875515,5.377814476627557,4.900812448015409,1.7115432240020367,3.077524481763074,2.735551876155853,1.9821897417948677
118,3.3931855951053667,-0.1867622278674856,0.44695957814554893,-2.0704090371209256,-1.357911720105823,-2.0406059422196807,-3.248758528650156,5.094367537344085,11.002288658888217,7.7843645029418616,2.9344930364400112,3.660444872526448,4.239415474004559,3.529580457657175
119,3.117732389357121,-0.2920899869267039,0.6275150600652568,-1.9986809267469665,-1.4991711101045169,-2.5782536228922153,-4.098326143914317,5.435594893226314,13.353056939029363,8.425247200905797,3.2204161993726803,3.2195761914058614,4.439785166649456,3.935029101522461
120,1.9472520737807837,-0.3745967932814495,0.5547465328186768,-1.4633982725428103,-1.2548124107309537,-2.3827033044792314,-3.7445572589855094,4.146166235471933,11.618667836603683,6.583009695405646,2.5182897154375734,1.878904578785794,3.333197661641896,3.1284556053536803
121,0.2522488284269934,-0.3636725516334806,0.30182847078728303,-0.5599653136258848,-0.6740712552879897,-1.5921815688033922,-2.309912853483738,1.6561899297378222,6.315874863134918,2.7959093240270385,1.0839189958558981,0.02660140459887179,1.312085494615571,1.4209075478620021
122,-1.459039612760124,-0.22890139690122957,-0.01215265535738732,0.5009891068002301,0.09019308540298682,-0.4934430364651475,-0.2507319898496848,-1.2498311095332848,-0.8905043071775036,-1.7952419606050012,-0.6164162836586468,-1.80854665986485,-0.9801848776848197,-0.6199488838966415
123,-2.701447975651347,0.003878429481483899,-0.2699679240870447,1.445736031058445,0.825399637122695,0.5796582618916116,1.7993251428638588,-3.69313564946972,-7.751526615393312,-5.817616501701891,-2.062767269842086,-3.119334089497584,-2.862537775572548,-2.3660852351273416
124,-3.1552573451066,0.2626283625850386,-0.3945101577604371,2.0182292194509475,1.3249492496774924,1.3474304510510036,3.237381145435709,-4.978243212097791,-12.181376327646666,-8.10428963875356,-2.844522096402686,-3.5682318188006117,-3.824745123826366,-3.3272903073646414
125,-2.7475813855577025,0.45953720463845504,-0.3662143473490608,2.0622275943881347,1.453486499805397,1.6548813478066868,3.6795413503343806,-4.797543706914066,-12.92828373061245,-8.052941937795069,-2.77747676498378,-3.076440635760063,-3.666142326722056,-3.2878524438052907
126,-1.6533130192798156,0.5275638867351821,-0.21794065495958032,1.5745270167343601,1.1890574900636453,1.4953511724413333,3.0679434962728935,-3.3013016086875346,-9.94357847620981,-5.790035843472028,-1.9418776335727845,-1.8306880957436464,-2.5276740424074733,-2.3450893607970733
127,-0.22305380355502225,0.4470534308387929,-0.01394765234552175,0.708348006224979,0.6275094286668278,0.988118359678445,1.6661284936627818,-1.0191032662951867,-4.336150447325074,-2.094833518833572,-0.6363602685708731,-0.2118205834488762,-0.8177894937642315,-0.8485996764255592
