,AF3,F7,F3,FC5,T7,P7,O1,O2,P8,T8,FC6,F4,F8,AF4
0,0.1203634845822251,0.36363031738843427,0.04792944186887939,0.0975559464427307,-0.001902470964171352,0.23566019255338805,0.1548179328356925,-0.06834351164838443,-0.42099126802747283,-0.6379172540938861,-0.19893753661337016,-0.15347526313062568,-0.12101553298157194,-0.04155396975910862
1,-4.916587597399654,-2.557617428034265,-4.077996788301118,-2.2645337347687784,-1.891412845176014,0.4740949013634504,-2.1410848373477465,-0.9034842361609515,-0.3115495447561933,-0.4435989992605039,-2.179241545571832,-2.9511445109550056,-1.9317967329022696,-1.786138150263727
2,-8.690449534159404,-4.8380728694612,-7.192750096826938,-4.084272116261722,-3.3033235160281125,0.4941719984730575,-3.9316901948396423,-1.476636201771876,-0.17509748815950563,-0.07588165449501207,-3.5276000268546093,-4.913873927012164,-3.0930070432485057,-3.110675140164907
3,-10.250171651477615,-5.929871320231256,-8.538515918164807,-4.924921585276,-3.887305229240315,0.23830823235000767,-4.773297235701078,-1.5975419712361725,-0.0782271892860438,0.443682692026,-3.8480783943926675,-5.488917834505753,-3.2300686228921465,-3.6846166875879836
4,-9.236295535879721,-5.58548116990361,-7.81275032039454,-4.586693185332098,-3.5074552589468344,-0.2157139075213978,-4.451150914254507,-1.2148214104191026,-0.053162574031554964,1.010734555163507,-3.0571017195163668,-4.536553498073969,-2.3180800036344227,-3.3497881578414685
5,-5.973143377008802,-3.918547525937374,-5.241915343535383,-3.157598699498171,-2.2744426636854977,-0.6800168908181831,-3.0412273529041944,-0.43724492802377646,-0.08942620020013035,1.4584526061879868,-1.4075005807424852,-2.3694309977847308,-0.6895671520952149,-2.1710983647628774
6,-1.3698431900846209,-1.3705352874370411,-1.5136337263195634,-0.992936933145494,-0.5120304519792576,-0.934154101756267,-0.8991047110213821,0.4962984988256171,-0.14255552307574876,1.612636346454225,0.5940026038695865,0.3494221368309694,1.0835396010602958,-0.43436283484064464
7,3.3405374104650405,1.4077370474633073,2.4131741508657747,1.3727634579117047,1.3315146581774384,-0.823060797311054,1.426342580153576,1.2905394194920925,-0.15468692762459627,1.3624251468166635,2.3485951482812655,2.8168166775848187,2.3925629289504644,1.416041501139176
8,6.947090433665678,3.72745119602912,5.566498907039984,3.359927436014863,2.801705555344097,-0.3335917953957633,3.335742162406841,1.6887556022780712,-0.07881248595190378,0.7178626617908808,3.3531487405930944,4.339297874289014,2.8071566722347123,2.890018924686655
9,8.591250894659336,5.039597624777534,7.2153638834373215,4.490190711342302,3.5531691646258854,0.3846676018464527,4.341566016180758,1.558108867501324,0.10117105521475925,-0.17267932424193988,3.352530470508415,4.541590539542363,2.22525103697582,3.587539772164236
10,7.98593775199873,5.071539881128056,7.049698631814413,4.506696015379146,3.43166472621372,1.0664010957467773,4.2039524703839275,0.9363054317511236,0.3599547167613517,-1.0584339443993864,2.4076457580645294,3.467111740516954,0.9033018953540178,3.317873557748485
11,5.46329588157013,3.8866228705012307,5.238511364484167,3.4365932449854713,2.5030687940419307,1.4295638143392457,2.998466823777717,0.022282608352297444,0.6321046670051189,-1.6676560561622475,0.8595041152155326,1.540971105394271,-0.6442303220693606,2.1628715450036404
12,1.8434330446378528,1.8528857998354973,2.35518127868725,1.5790313243835206,1.0250816151649518,1.2885191409861547,1.0927257738820828,-0.8878903878060871,0.8250332291967274,-1.8065121765888563,-0.794901516926882,-0.5876853636832664,-1.8389964276173032,0.45931574242534484
13,-1.8292739712853903,-0.46775471078569786,-0.8025867121595767,-0.5779382745363797,-0.6270687704082858,0.6363161421568146,-0.9635773964044876,-1.4995974762275806,0.8420037254577951,-1.4369762254411347,-2.069644461711116,-2.267183034940706,-2.2542594224754824,-1.2992407796525272
14,-4.597231097833143,-2.476894848082814,-3.441296259293339,-2.488603207216777,-2.058524578323691,-0.3380945490895084,-2.602768271801237,-1.6195057074091712,0.6119344873913913,-0.6999763332081669,-2.641565231583346,-3.052125988707597,-1.771205901849861,-2.612757813217538
15,-5.852181411321234,-3.698862510346335,-4.980713743858985,-3.6928097213253857,-2.949909711743729,-1.3074179226081557,-3.4064896028800784,-1.2217016017069802,0.12028697405656534,0.13055785889493107,-2.436262429845608,-2.829971411484526,-0.6174333826995467,-3.1288083534225133
16,-5.473216286103976,-3.8981572442245533,-5.185373132451451,-3.932025087138053,-3.1267147660160277,-1.9194147457522077,-3.2233948007673394,-0.4560148250885721,-0.567729138138091,0.7498415632718227,-1.6236271405045797,-1.826723553688419,0.7266252385994567,-2.748707181473079
17,-3.8073377761737084,-3.1248797896298353,-4.1874483442368735,-3.207321806007388,-2.5889615274855715,-1.92543052649207,-2.200411428164127,0.4055606488564561,-1.302211314222525,0.9433517171128699,-0.5316835357244416,-0.4965721896663658,1.717332932891637,-1.6492904843082543
18,-1.511284853410351,-1.6793648225133408,-2.4047103521380757,-1.7653221578130975,-1.4983534076034322,-1.2766521912092568,-0.7194413749190179,1.0661431057321953,-1.870638605583993,0.6787156331380041,0.48371470423933594,0.6592229507949403,1.9606079084287966,-0.21331088729028455
19,0.6838545681802458,-0.01038204309233985,-0.3884834880356447,-0.018793649035115868,-0.13027467385219033,-0.15160037638280754,0.7371260183414682,1.31032895058266,-2.0489538167190107,0.12813135890267205,1.1623037320107579,1.2757339004713613,1.3656841280208778,1.106038214851607
20,2.203494760086206,1.4205545057028341,1.3455875615483672,1.5731862005571389,1.1951963247653477,1.0971244252080787,1.7454122442014532,1.0808619597625568,-1.672989514079904,-0.39384416000158984,1.4112698673367436,1.2436595015327625,0.18016171261760008,1.9375271410033765
21,2.7821037671779387,2.268114010221571,2.4513644576931863,2.6300844105193253,2.1864933509980595,2.0596419002570765,2.069917218072876,0.49689637899850014,-0.7106240589366065,-0.5589891487240163,1.3038744264383255,0.7241657527286716,-1.1076917598350027,2.1069790066317946
22,2.4957397353103437,2.3886682830101487,2.814957368472135,2.944536855193412,2.6423904115054584,2.4087012493996722,1.7222517832895528,-0.19375709938746888,0.6913599164558972,-0.1736339715349958,1.0132850902295518,0.059006956326242616,-1.9620082115695643,1.6756988251924776
23,1.6767923439231311,1.8603946129347297,2.53750726913247,2.5219888426510537,2.490688774318236,2.013448636885408,0.9326180479035884,-0.7113904561755893,2.209601150703347,0.7130734067416825,0.7152718079390807,-0.3851126634350264,-2.013078906391167,0.8923236411792373
24,0.7532654331856783,0.9365946043178232,1.856138290271139,1.5579807304686126,1.7973326051889846,0.9866816316645031,0.04870502315018608,-0.8541384655296835,3.4075619761302316,1.7903054119875101,0.5039625085934442,-0.37505502000528557,-1.2084737840354998,0.08086237727741528
25,0.07752803399359054,-0.048898466640407895,1.0392641417735222,0.36447351615326246,0.7454429663155131,-0.351345578964307,-0.5985952212107453,-0.5786823947247385,3.852463641126296,2.5749909451676674,0.35697188885281,0.0901006521895386,0.1583218838957624,-0.4889224905786109
26,-0.19245257674341618,-0.7917550984274249,0.29607506309907383,-0.7290484528174891,-0.41042734656949753,-1.5799518655876381,-0.8131590506392691,-0.019720431298560596,3.2571530241366187,2.587409053874003,0.16357219400502324,0.7789848010339184,1.5548349183213126,-0.6975701425481436
27,-0.12080543079681272,-1.1073134321445037,-0.27073565830328233,-1.468307470391833,-1.4045285277683148,-2.3183037763230354,-0.593616350641956,0.561448623812025,1.603212285987103,1.5541964432268491,-0.19837623703058502,1.3263671237965622,2.412993566513085,-0.6023079580665636
28,0.07124184098501614,-0.9740902663605806,-0.6599764747444752,-1.7338389306646744,-2.0211009235980986,-2.34998765652383,-0.11625476320790759,0.8816789623715379,-0.8007203766593486,-0.43769654329237156,-0.7728774166818981,1.391185275987823,2.3521747419513903,-0.38688171881710365
29,0.12925946852029413,-0.520667925368246,-0.9268398843450139,-1.553161696528353,-2.142444151610927,-1.6892430027150855,0.3492629651516097,0.7548543253178551,-3.3577981119629396,-2.902952398273887,-1.4666756036974251,0.8111889997814231,1.3362612286602282,-0.2595574039822984
30,-0.10617604545320145,0.03478715033975778,-1.124131357925454,-1.067524493705216,-1.7725610208235618,-0.5677139252723031,0.5566892296834268,0.17812289088178304,-5.323727092231613,-5.0667308670547575,-2.052515466150374,-0.30878793190514864,-0.2973886468507794,-0.34526683889710846
31,-0.6204166032020049,0.46810272805914876,-1.258800236816079,-0.4695970062185411,-1.0308404581436408,0.6508585839843078,0.3863265109925838,-0.6510667876665395,-6.019938521748933,-6.100120470201198,-2.24162312722543,-1.6134664425313718,-1.9517373553740616,-0.6199658837724501
32,-1.226307425782671,0.625716988278197,-1.283155349784077,0.0639039554179878,-0.11772362320081046,1.5955659906806756,-0.1056030411730185,-1.3986528309293436,-5.05976666228152,-5.412465119117938,-1.8025610215319434,-2.6171655634107864,-2.9874914859862547,-0.9170950150151058
33,-1.6440970235877062,0.46927065357948994,-1.1230247710297092,0.42193444641217337,0.7384997103686249,2.0080310545985856,-0.7101775075392739,-1.71881898847496,-2.5140007508947866,-2.901391877152762,-0.6810319517441592,-2.885109369560941,-2.9648714233125837,-1.0048316475635226
34,-1.6253050494631491,0.07646557748478255,-0.727824095947873,0.5774702788381134,1.339736828429934,1.816275840563764,-1.151975043533333,-1.3950127190667165,1.048685862039588,0.935320421168312,0.9307122825905472,-2.2082645718574074,-1.8192665411524647,-0.7015105774409858
35,-1.0683878697182252,-0.397216279625778,-0.11728483357503332,0.5735871479651002,1.5658327382516464,1.140770240809846,-1.203936627832618,-0.44250010848727195,4.677844585581167,5.083513639239465,2.6118162837704064,-0.7036962668396339,0.09718670982866424,0.021526836527866976
36,-0.07749432606839218,-0.7783059756485708,0.5993457845716583,0.4880067646319135,1.3998625121220776,0.23607523241145453,-0.785137264562359,0.8711417611120661,7.2963042263722055,8.286209395567656,3.824436731244655,1.201750345590805,2.1276894820672823,0.9972290880403875
37,1.061277150053579,-0.9338133081543104,1.244049069534524,0.39309176952867003,0.9251265478655156,-0.6060497370184411,-0.0020777000683052183,2.1024279079458843,8.02673820055222,9.433052854920753,4.089108086380562,2.903925298545157,3.5394608611051335,1.9041180696841622
38,1.9783263112121137,-0.8092382033753529,1.625691837949416,0.3273673238288818,0.29581635501324727,-1.154802080907409,0.8840311514806212,2.7835524310603246,6.489357817114385,7.943083134664805,3.1656904297531057,3.825755130543747,3.787976962512219,2.3805285276988544
39,2.355763707839794,-0.4370550611984824,1.6098476233436845,0.28773157592615867,-0.3095333300719916,-1.3055802093450903,1.552558492621688,2.596800117059736,2.9683550822772906,4.008502228821756,1.1730031473409015,3.621086056206941,2.7209519124716968,2.169105603928148
40,2.046673226069655,0.08183995340130848,1.1747257489821255,0.24196876281486035,-0.7382106246325221,-1.0934730664944126,1.7451297071577545,1.5069727186806128,-1.6216220841812348,-1.396584017472557,-1.403978308951155,2.3038469928879337,0.6464899123198311,1.2337181460913553
41,1.1321139784023466,0.6128831003905559,0.4294312036925036,0.1530515512334691,-0.9029540120176182,-0.6569543828472783,1.3667169871820948,-0.20125956710808007,-5.9762289437229175,-6.765126785214078,-3.8341499834258324,0.25424986804450517,-1.7619821732822118,-0.20095228254730385
42,-0.10572312928671505,1.0253957096710462,-0.4149888169945941,0.003044866072497309,-0.8003691429101945,-0.1717035912423642,0.5266724250124755,-2.001401910947908,-8.786537582354791,-10.499406001210932,-5.357454785747114,-1.9022115790049707,-3.692729717588478,-1.7082330880507528
43,-1.2829730983635685,1.2223655659687456,-1.1128124074668428,-0.19388637665800437,-0.503941642185737,0.21693801595439044,-0.4968700568357567,-3.296567658705312,-9.15118838595065,-11.411551732755651,-5.431821080834328,-3.5012951409605293,-4.475621964536854,-2.7996523793532084
44,-2.0473200820094655,1.1575246117582725,-1.4651277004333385,-0.3941308554325999,-0.1350001849368916,0.4375362544792968,-1.356401113637794,-3.626166879928808,-6.880482896214448,-9.1191461662399,-3.9269615556864945,-4.059688713457905,-3.816382844519877,-3.096882550362908
45,-2.1945793995947085,0.84004317924946,-1.3856037701310744,-0.5407097961769932,0.17862330134112778,0.4993664492609884,-1.7609519305944947,-2.8338709624002,-2.5854165816003243,-4.199555715346837,-1.1952925689734895,-3.4312102918365333,-1.9024430279653564,-2.471751391349661
46,-1.7267885083123302,0.3298593699238389,-0.9264662822298687,-0.585231390042753,0.34312447828971315,0.46575211506034503,-1.5811495898865322,-1.134179679422093,2.4882638410124636,1.9582544507703201,2.0112700797202367,-1.8464352884641808,0.6569831991863958,-1.1008569239947799
47,-0.834396757799387,-0.27348836706026103,-0.25574578544189774,-0.5064739697852658,0.325986692925127,0.41019294091615455,-0.8941996800812938,0.9499181709819441,6.836329405601473,7.566396311142299,4.758748009161178,0.17512142062316616,3.03551682390491,0.587813510876514
48,0.18503221357190364,-0.8472630578101878,0.40477034989268473,-0.3185145575471785,0.161973376444721,0.3765332080576394,0.047358614088828105,2.7592230143404914,9.165043448524385,10.98740470635049,6.216701606760265,2.0060550045709005,4.46735314328045,2.058963698988939
49,1.0361537658939028,-1.2669213386399103,0.8571230463104038,-0.06601236722272343,-0.06323886707114917,0.3602687471217226,0.9104025364825409,3.720999430316146,8.800149148453338,11.243618794113454,5.920895757308127,3.1196577850707947,4.501921291422572,2.853635267395467
50,1.5202624531587072,-1.4313172678335548,0.9916796365066481,0.19067464883453156,-0.24570398489458084,0.31731886549444416,1.4032037239174826,3.5431950771171694,5.899732275264394,8.320110745522266,3.927046566614993,3.253407175736444,3.1487788562007957,2.746293761301943
51,1.5818340612151023,-1.2878489111656615,0.8160253266130435,0.3944086039761961,-0.30090496100514313,0.1941153607197724,1.378944623407363,2.310896241655866,1.3986543181420097,3.16141757499516,0.8036164641405438,2.4738403503743522,0.865562354004965,1.8187127578983433
52,1.2964072336293937,-0.8509151621004498,0.43999528000632376,0.5073124324831925,-0.19386278380718036,-0.036165312880392285,0.8830019577787199,0.45089440902443884,-3.2979888385200886,-2.636596605813034,-2.5367095847330634,1.1264608527702518,-1.603339527253758,0.42440616622836125
53,0.8134751143123156,-0.20636079800591217,0.025236129990641985,0.5187927134554715,0.04822649580526071,-0.3486040699036247,0.1280387412633512,-1.4218997298704261,-6.7702263238136,-7.337514627552182,-5.114932318766952,-0.30464025587010635,-3.479060208763033,-0.9426801377399355
54,0.2845585772210269,0.502756638460364,-0.27967669343254015,0.4437428142841852,0.34472422893640314,-0.6650359822447416,-0.5918388067272773,-2.7197412115118023,-8.035189661308564,-9.60933471769849,-6.185433085466382,-1.3726522631135554,-4.203990643585153,-1.8267615559009915
55,-0.19107017295538223,1.1081907175868475,-0.39341695547028976,0.3127106617156124,0.5884176220044317,-0.8781837751297252,-1.0142023109857903,-3.0809182112577322,-6.845691150516891,-8.926076368498197,-5.46258251391596,-1.8155087921332171,-3.6150755130143017,-1.9708428115654304
56,-0.5823359696901723,1.4590281161492173,-0.32568894831631723,0.15848272792964274,0.6814467262865767,-0.8925690607086235,-1.0056229007728932,-2.4814254557651907,-3.7390100544313003,-5.698964357013186,-3.202881218053027,-1.625063685111104,-1.9794827547500806,-1.401319063974679
57,-0.90308995140114,1.4628537881827461,-0.16340251848692317,0.004538374827209862,0.5685552762682385,-0.6658258807750753,-0.6069002357429042,-1.2220067916575323,0.17429498028595364,-1.1022618469939436,-0.11775474931814711,-1.0190194421810401,0.1141461031586119,-0.4068522470846642
58,-1.1673438338376199,1.1130539366054901,-0.02655277087438204,-0.140069870393175,0.2571676270648956,-0.2330346961841598,-0.010121507340041382,0.2002856882264102,3.603123742831998,3.3393463460302706,2.8536455916033816,-0.33265351156587486,1.9666231266663179,0.5791748286778722
59,-1.3500106689546858,0.49348597410871,-0.012248946768380266,-0.27739623967987337,-0.18173616803365633,0.2972426983717075,0.5225322567632029,1.284620856782975,5.511537285132249,6.258019612594743,4.838032859380584,0.12456223499315265,3.006103906935017,1.1480324342629444
60,-1.3763793137714215,-0.24146111229587194,-0.1492188444057579,-0.4103007054001902,-0.6319510856847168,0.7756127477478549,0.7662300855213702,1.7093925761922715,5.447723670535057,6.874291175174899,5.294318312925722,0.19186159680613754,2.9715006439563405,1.0735281646760708
61,-1.1488604074829452,-0.9060272722782621,-0.3807050824461948,-0.5299302200331953,-0.9640052297607846,1.061991656933108,0.6252001138058326,1.4378194069335217,3.657605168136629,5.213837388980902,4.169333222023087,-0.08594211649518647,1.9816845642531973,0.3996146912789229
62,-0.6007848204927664,-1.330677269599452,-0.5829019560906316,-0.6075948387997737,-1.0716141570566673,1.0745040104023111,0.1725783378831576,0.7092752492094059,0.9524708141874496,2.0474326359706447,1.896389567211399,-0.4869768235965427,0.47194800582644925,-0.5751072492790128
63,0.2473179231935867,-1.405487180586792,-0.6129748384385855,-0.5969849384874235,-0.9027032675350446,0.8181560507675896,-0.3780915011484324,-0.07628955501575126,-1.6131505863852398,-1.412946298448193,-0.7588759546536785,-0.7132067054750179,-0.9748923882868372,-1.4109672979428307
64,1.2570747702815748,-1.108480702466857,-0.36983220975853504,-0.4491835302341665,-0.47684698854735597,0.3817650200950808,-0.7599394067212639,-0.53285016404004,-3.132302960714305,-3.948684749017234,-2.9524202264838433,-0.5238490385678518,-1.8405495602354585,-1.697812784334144
65,2.1864658632603153,-0.5124375511306039,0.15426627030600257,-0.13742328085700198,0.11546911624565467,-0.09597508528599633,-0.7655146591404514,-0.4519392202331496,-3.163636179736386,-4.747778395393479,-4.031991717691553,0.15039137577641265,-1.8518900383583645,-1.2201976294001113
66,2.7504433183674517,0.2310178447635103,0.8510076690447196,0.3170790306618644,0.7320105332709312,-0.4780532011165037,-0.34103180996886034,0.10937180765620183,-1.8655421904401446,-3.6588046682733766,-3.7369074588218867,1.156983111508708,-1.068848068582038,-0.05570382919295498
67,2.7105236970927002,0.9264281958234047,1.5133495982007739,0.8301596178982626,1.2123815969924154,-0.6779082117943105,0.3767739273804157,0.8512084154540853,0.09558432817089231,-1.2074449211758418,-2.2651834583978467,2.1568406288738733,0.14813348688480182,1.4322104978283732
68,1.963165554607924,1.3813735682160133,1.8915240992013698,1.2614385057355282,1.418594497864002,-0.6860665900910194,1.0996654921989968,1.3563233034922466,1.8225359160208892,1.6192814004507068,-0.18963500190869317,2.7361907310651286,1.2770792140672111,2.7085896537438785
69,0.5951750022473956,1.4556046198295522,1.7736071604427441,1.4473347355888748,1.2730919091094455,-0.5643330830679252,1.492787934266962,1.2699687830799749,2.543506659581896,3.738040805651472,1.746384523447958,2.558176104094015,1.8297938217217626,3.2521421459021465
70,-1.1156938360399191,1.1016535922594874,1.0670587373283245,1.254960148909895,0.7844527567602447,-0.41056953803910634,1.3091387147324958,0.4637009258712159,1.9144158494553707,4.353706654187418,2.8842303560695584,1.5017619387923111,1.5348770456576752,2.748299642881473
71,-2.7593235574181443,0.38632920397413506,-0.14566209084116144,0.6410433783744625,0.05294635414751135,-0.3093879314755128,0.5032273590923656,-0.8832097010372311,0.1559967146929657,3.2320457404488137,2.8707420072383942,-0.2626195365217407,0.44441678029922604,1.221878453217927
72,-3.8966762665536385,-0.515206514637046,-1.5998134014075278,-0.30646928577517973,-0.7477629197510839,-0.29027240735972704,-0.7224771732855614,-2.3216682231258057,-2.0246155434895594,0.7713487633648454,1.7709411150004177,-2.2923311327919724,-1.073705806065767,-0.9409114787276796
73,-4.179826960141952,-1.355917033357031,-2.8997275499428663,-1.3652442734271448,-1.410639962351214,-0.31201911584223524,-1.9629229927794762,-3.282649635396367,-3.6995976402399484,-2.14600343593699,0.035351676169866016,-3.9880562113025047,-2.457222022874021,-3.095256084517724
74,-3.4549705615220563,-1.8791224770815649,-3.6217842912298743,-2.224565539418915,-1.7486123726228935,-0.2817020819812878,-2.7395553645925115,-3.2887705142696917,-4.077127905825619,-4.466686652336712,-1.6661349701577028,-4.7746014494107225,-3.144999579818026,-4.536937409174183
75,-1.818933751168956,-1.8926659860974147,-3.4439466237479266,-2.574099925673771,-1.6477747101950606,-0.10173463449435759,-2.672671772273004,-2.1511818311490956,-2.818749444978023,-5.3348680811366345,-2.6860649571957866,-4.291922313998172,-2.7808127646269294,-4.734901603503478
76,0.3883036725829761,-1.334284246393648,-2.263932358785462,-2.2108667719913893,-1.1051635231606691,0.2740832137480943,-1.6367881170579546,-0.07645759597322525,-0.199208060279456,-4.3899216302456585,-2.63238614118086,-2.533826288592252,-1.3548249013707174,-3.5196454458685857
77,2.6561277650303774,-0.30610783560686483,-0.2657453019850786,-1.1280917487875484,-0.23839174662287393,0.8000037371178284,0.16029955184634637,2.3631299231989855,2.955162966825524,-1.8930415160174232,-1.510281784077955,0.1155596934827899,0.7686585685931994,-1.1614168210289255
78,4.425014049424565,0.937476101000632,2.094813652586346,0.4498115109920109,0.7385228345552415,1.3332216376785704,2.211148161130299,4.395424380226293,5.535450723082113,1.3588583341387186,0.2781715727416137,2.967460430428482,2.951433289470921,1.6930704542830974
79,5.228193059710425,2.051097736207455,4.192450799506308,2.1072613609896806,1.5689528772174248,1.6711728317369872,3.8533542549698474,5.300391839162233,6.537648573372409,4.3014457200866385,2.07751289729962,5.217458521199284,4.480599490208223,4.209967869643033
80,4.817238221741569,2.69487901470104,5.4011026217794464,3.3487974887674645,2.023280647145147,1.621511804672695,4.483425759245079,4.6644138036308,5.434251793471068,5.961564258841685,3.215127535592601,6.183905108713728,4.802819217016502,5.625243777320988
81,3.2375201077399653,2.6384103020134773,5.282968870713239,3.7513099408468737,1.9645450546643044,1.0810648817003712,3.770059654908599,2.547171538198211,2.3962473556788995,5.784102001866778,3.2456042293245733,5.522292870081089,3.7156157800366976,5.486585123773929
82,0.8304878830253632,1.8390899636164597,3.7396394644352577,3.108678252717494,1.3903456407805397,0.09427379458064972,1.7922619466999756,-0.5027850986446011,-1.7203250322385455,3.8164775252687826,2.1147335978996833,3.3458636092496223,1.4499891565845826,3.8008748060487902
83,-1.8420806378900372,0.4675476055646298,1.073333851679284,1.5182436681969091,0.4376522520032957,-1.1334668449002336,-0.9509383288367599,-3.598044844759449,-5.6292557166631125,0.6891391559624785,0.18313941578043708,0.2098245321394526,-1.3861800417418122,1.0380374816624034
84,-4.13555546886038,-1.1311831572288162,-2.0693330471115727,-0.625260977319818,-0.6518957583624141,-2.277970469688559,-3.671237618347948,-5.785187855543024,-8.031770645065427,-2.5995070754014544,-1.8995982710727566,-3.0408746897406234,-3.9880601333401677,-2.010941466003221
85,-5.48698124023078,-2.5312648987722293,-4.862758823832118,-2.7329613853896144,-1.5966628911363465,-2.985444411622741,-5.526767255161663,-6.353215975911978,-8.058090820739976,-5.018476124678827,-3.424804805818454,-5.515940254862703,-5.599609435764352,-4.476102713309248
86,-5.562254573624561,-3.346624200519443,-6.532639491729771,-4.1936991244122375,-2.151057214792081,-2.9830646473101945,-5.889633211693357,-5.074385759641149,-5.58077279929535,-5.84417749321744,-3.874919284082443,-6.5410617883375295,-5.745308710813899,-5.672471121724084
87,-4.344412701665142,-3.3414956291722095,-6.583108451425317,-4.561089579061295,-2.171097947103004,-2.1758317005914836,-4.5579357827891265,-2.293654179903778,-1.2871511943918215,-4.889297197818505,-3.10322128425076,-5.8543204893533,-4.373006959411561,-5.301509565965766
88,-2.1371753421838227,-2.497231985186938,-4.950177912723685,-3.6951699647833167,-1.6512254459060443,-0.6964290838075882,-1.8399307702026504,1.1679683499333948,3.521673411173864,-2.545171843472193,-1.3787830406950277,-3.6764321605911867,-1.8633944750542348,-3.5277147384184024
89,0.5177521469695037,-1.016106245990813,-2.0315922496385954,-1.811565480312965,-0.72304508218193,1.1121160686001352,1.5219368353261045,4.268360548024372,7.344168186293463,0.3717695744062995,0.717366064946953,-0.6346434446082339,1.0934180231395996,-0.910232071441559
90,2.985566649254583,0.7369221636575728,1.4190275796245528,0.5789537200338629,0.3820031737386439,2.780653900796949,4.567286415707789,6.075316370208372,8.96824537789596,2.9108039915733364,2.5038679384604237,2.4324475886058243,3.7101285120388194,1.7829824821251077
91,4.703080239086059,2.3346160118543753,4.503255362687857,2.8216107096197405,1.3940853876013415,3.8431549848479327,6.407837631846255,6.064303988000486,7.8729207023618955,4.310161723733295,3.438512313693637,4.724366613323125,5.332072463818995,3.8141607846484717
92,5.316014301222473,3.3989025014387573,6.4304200049201405,4.3109529030488245,2.0728413859993244,3.9735261556304584,6.499412966526372,4.283686931134338,4.404637299980379,4.239834424707546,3.2973167486205526,5.702845900166312,5.611660954292742,4.689747573070905
93,4.75184261663313,3.691677749953971,6.735241650337846,4.664950039663904,2.263840615287422,3.0882101958997232,4.808949520082122,1.3323812962896469,-0.3334192703077376,2.8830994892247497,2.2301141843602856,5.222979741653342,4.5775004334257865,4.284067381285653
94,3.2127933163670828,3.162673658011084,5.396155489182574,3.826350619609985,1.930620140653023,1.3815503887594465,1.8232266187268205,-1.8418090745570945,-4.843209831404551,0.8357864799231559,0.67805873550563,3.537948857776129,2.586762342080492,2.840902361309941
95,1.0989777310557383,1.9471393320846841,2.8223854618838553,2.0632619733290163,1.1570281283179937,-0.7195210393166301,-1.6026757680828374,-4.254552369324635,-7.723352075982445,-1.1321545233518473,-0.8087701378814397,1.186980148133679,0.18874977075560725,0.8631724157609852
96,-1.1082424454859567,0.3210666734813558,-0.28047893570303434,-0.12544442930406619,0.12249721807363184,-2.670397199743751,-4.507415787307513,-5.202784280587312,-8.12448604796446,-2.360859916429533,-1.7790617302922278,-1.1869562995474798,-2.0462297647027503,-1.0637115894915308
97,-2.9643505189265285,-1.3683857138687037,-3.1197864006266363,-2.164411580927773,-0.9413287200167401,-3.960458456545073,-6.1112799260096,-4.482247251710379,-6.015597659746128,-2.5261504875692533,-2.0324938319707773,-3.02514910592497,-3.6740451895529604,-2.4520267814096313
98,-4.148644090699519,-2.7771366949847747,-5.033315652948331,-3.5641420553225576,-1.8015546515974403,-4.2566117160075585,-6.038792022382132,-2.4345921059871958,-2.1738483805241233,-1.728092948184088,-1.6614414398236423,-3.98792190266709,-4.458224980956079,-3.0380430131971754
99,-4.503607990574965,-3.6271537823029294,-5.650726296657669,-4.042023814098139,-2.2718339368809244,-3.4956804189570603,-4.408563047872123,0.1873615697960548,2.094383925086713,-0.4177300212533065,-0.9736545232076274,-4.002576927339685,-4.373936010047407,-2.821247202351445
100,-4.029462288347687,-3.7498958013995667,-4.957552644472781,-3.571049650231524,-2.24855441640157,-1.8980520470508158,-1.7681802642075277,2.4860562235561448,5.401873127402425,0.8021523293086336,-0.3354875369293584,-3.224967207353838,-3.5528226331922825,-2.0162102650679206
101,-2.8510773969075482,-3.109184163871244,-3.2544710400712784,-2.3519966926711744,-1.7301361831848254,0.10068457270397929,1.0969401459148698,3.7239368255982472,6.742602438121134,1.42126061190446,-0.005585670938063835,-1.9446799136741666,-2.2055227405104736,-0.9461869383176407
102,-1.1787137634258618,-1.8062046677496926,-1.0376656909539808,-0.7296724812224855,-0.8173641511566359,1.977940702748396,3.412351817169017,3.562641864979845,5.810117219768278,1.2167160254521032,-0.029736691413782955,-0.4782630853040784,-0.5591115450249711,0.07661325497516479
103,0.7224406573869901,-0.06884610317497741,1.153037302999066,0.9119637236604257,0.3046072165358229,3.27183503604666,4.637978996759888,2.157980648935344,3.0677797207208384,0.3266724845478786,-0.23931189000402125,0.9096183613644772,1.169251293553818,0.8410738508148734
104,2.5519044028108198,1.7754250769329478,2.868983552665297,2.2412996471019464,1.3998195231405204,3.7032907698541027,4.597335106040008,0.08349299580727673,-0.4450847291620587,-0.8207650177840884,-0.35050138026031286,2.0369240053494817,2.765098002663991,1.2717046459688879
105,3.992868270787285,3.346132945526242,3.8355891267072706,3.0352704606914536,2.2261367702323214,3.237502553204864,3.4806805714981395,-1.8851901698411269,-3.495073676230491,-1.6908122006137694,-0.11820645834989031,2.7919014127247372,3.9987594516751273,1.4063741476465497
106,4.745273986038864,4.276959832836072,3.9724511052398346,3.1962787454709964,2.584689811770046,2.0709317906774314,1.7355065443062874,-3.0463074422272016,-5.085403588608029,-1.8629662398829319,0.5251553714533039,3.102034855260372,4.62672596176952,1.3379239955085016
107,4.581615600933378,4.29772479667404,3.3629622480375922,2.7408056663803912,2.3660514119014078,0.5544921468746844,-0.10544840771013096,-3.011339797560874,-4.783847612948379,-1.2026048788848096,1.4097927960092427,2.913882715896275,4.4323266940096655,1.1515487604773267
108,3.4191909509738845,3.3152970812918676,2.199150004878513,1.7766515210494735,1.5835077960984163,-0.9173328979117358,-1.5929430427979308,-1.8269699237311303,-2.838072883230995,0.08278916053725863,2.1783982081819397,2.202843556228047,3.303124681681063,0.8868011676721725
109,1.385777565163803,1.4690477550741579,0.7273291444009069,0.4815767013219327,0.3835856328235791,-2.014355120860828,-2.4709391596231716,0.057651251046776944,-0.0480092696277928,1.522832760331364,2.429653169125593,1.011048142125028,1.3172249997907546,0.5381881626878854
110,-1.1540186732399678,-0.8649418217929217,-0.7909856989742635,-0.9142346144264013,-0.9735603761563353,-2.5443320014931023,-2.7007976560282954,1.9607475524361704,2.5476294477669157,2.5661510308852007,1.8980122888314315,-0.5091628333298062,-1.2046962727546475,0.08856216779268156
111,-3.640185414633773,-3.1372366758599988,-2.103328739823218,-2.1491317252545734,-2.165400782253496,-2.4767346615905494,-2.4090793548771314,3.2107264694661115,4.05002110459174,2.793168824409022,0.5939298032185297,-2.0786723682205994,-3.7213510930620344,-0.4463700565896026
112,-5.4351014077289,-4.7525623726125845,-2.986409463221419,-2.9644102311315126,-2.8826530695816888,-1.9193270896803918,-1.7952678549475665,3.375518081176642,4.006174079739463,2.077435528802554,-1.1586743330940952,-3.327546662551128,-5.582757442419595,-0.9892005783153239
113,-5.996600713611045,-5.233763886549311,-3.273320892077942,-3.1558636064053673,-2.9126264330954754,-1.0644383725203515,-1.0445382369760565,2.4007231630126435,2.5376599009036354,0.6346466659645145,-2.8114733149760007,-3.887079675513248,-6.211847572690453,-1.4066071247138627
114,-5.057014850468513,-4.374938388108958,-2.8900512613238916,-2.6336444264091226,-2.2071985032818504,-0.1274124971415385,-0.2795947597087109,0.6140459451807867,0.25738488535588966,-1.0570618891300194,-3.780191455095349,-3.5134250928140336,-5.301186761539647,-1.5516789809798943
115,-2.745141388589392,-2.3310219036087734,-1.8907030302239671,-1.4698164789816324,-0.9123065539702658,0.7036683815139593,0.43835807574097774,-1.3985105154868887,-1.9818078625526372,-2.4325455763678008,-3.663414002248251,-2.1972025989238064,-2.9532675666622903,-1.3262359329929647
116,0.40254492798754227,0.39514529292219047,-0.4721201228294602,0.09076255954922781,0.6559741202476944,1.2970956883339544,1.0743237878357053,-2.995881256032403,-3.405022144245766,-3.0426641056949353,-2.407066565334532,-0.21021311747220897,0.29702400588073335,-0.7352865573305654
117,3.5626056984284746,3.0765373765493855,1.0498962391416737,1.6723709778857112,2.088487253041498,1.5857137916433066,1.5792696774209567,-3.6919713922619555,-3.5810062729271057,-2.708886204416967,-0.34766421728836017,1.941324060398436,3.602738312539303,0.09306418914843316
118,5.852645481506972,4.966690897317609,2.308017745568389,2.860933966378666,2.9950857447936197,1.5611527646320023,1.8728966355065975,-3.3025040938324675,-2.544656979763236,-1.574814332118124,1.8875700015387056,3.6535651907622655,6.042183401026634,0.9355320550867774
119,6.599651063561504,5.52432969190102,2.980946120633714,3.3234723779968993,3.1195511488163703,1.2625360672814323,1.8620954855047365,-1.985002638216475,-0.7443403876878038,-0.040915554312878556,3.5907700874493336,4.411880817847905,6.901394285550337,1.5426668790310385
120,5.56014548849354,4.584739851767557,2.8912721521995564,2.9158723599391743,2.420696228984075,0.7650759152374134,1.486881987957985,-0.16718237312067777,1.1518243251164835,1.387319459048757,4.217744290568465,3.96403558498111,5.907319194924281,1.7243041116990216
121,3.013419824059519,2.418447787921469,2.0681846038062632,1.7393662319916285,1.091164796740389,0.16933522471075285,0.7695122285405532,1.6038450584142792,2.5084890763125505,2.2775925123739964,3.576683786676571,2.4159139154115428,3.3286761116664745,1.418763219372595
122,-0.31100124082855923,-0.3463400808955364,0.7484661264349495,0.12105750456923026,-0.49550086348229927,-0.4112536269688638,-0.16123394551939946,2.8363368581455646,2.9385316273739717,2.4097272095416145,1.892087439462863,0.21093982399487543,-0.09569575633446631,0.7184690471027341
123,-3.4538434462246412,-2.9152085488285735,-0.689926529537301,-1.480151184927806,-1.8951830260949865,-0.8670373600138065,-1.0884414732900636,3.2351784081664734,2.4083924525808573,1.82907701949636,-0.27825660820075493,-2.0045475562528683,-3.381800816450034,-0.15881829937106373
124,-5.523941809313195,-4.571296579245455,-1.8425384805047031,-2.613572244797241,-2.7265677716455166,-1.112513330470519,-1.7668099132152253,2.769000912788697,1.2076913324959004,0.8032410943280223,-2.2406156072794765,-3.5860362700576522,-5.605544088146268,-0.9431504500709358
125,-5.974067422414258,-4.891468343530268,-2.403347793639186,-2.976220925185435,-2.7845578231446475,-1.1061201105139251,-2.0031520543226495,1.6506930025691615,-0.19045120672942037,-0.29293367901418427,-3.4030610299856905,-4.095630741675837,-6.18611926049821,-1.4031128604445053
126,-4.761878237128263,-3.864580081917731,-2.256978895842213,-2.5042524258062406,-2.096868378366678,-0.8626821502148955,-1.7262845558505777,0.24768169328044806,-1.3152424465511476,-1.115590056760894,-3.4673194147705493,-3.4363306877949396,-5.053629044863265,-1.4210845910125094
127,-2.3433074660736595,-1.8755281323419835,-1.5064895069720936,-1.3853226275116421,-0.9060945915466597,-0.4523704359076802,-1.0175686891004372,-1.0417244128271685,-1.857817299455414,-1.4616803727195224,-2.50876311523356,-1.8706700409185506,-2.6478417833018892,-1.0264987771484235
