,AF3,F7,F3,FC5,T7,P7,O1,O2,P8,T8,FC6,F4,F8,AF4
0,0.18229305229165027,0.11260228185974115,0.02668424984368295,-0.13709901884624157,-0.017126734069961187,0.1666666613788165,0.033778455793158024,-0.07753780084242408,-0.23375345691877258,0.05139972177465235,0.030434633005765068,0.24723448880466745,0.3155848616262005,0.16556183732428714
1,4.031203049886908,1.7417215694334858,3.861745340525774,2.0274293792313185,0.644653133719409,0.6740807957341046,1.5712643235479795,3.6444941383600717,2.7789902023914923,3.105149107356131,1.7301587069745097,5.193868730673642,0.1860105542918877,3.5093656596983864
2,6.367913927866665,2.617525101191354,6.455158357939373,3.4428574143592203,1.0140837368716735,1.1786026339944413,2.7846750989948306,6.167606925227065,4.494888807173942,4.794178994206394,2.5722923489953735,8.436503361300794,-0.36760712670070483,5.622528059880066
3,6.247106452632555,2.285297504366236,6.957681076470437,3.5871653478278036,0.922176692727892,1.695551221607676,3.454747847303245,6.626604076301993,4.00211218598408,4.226809064094994,2.007791909293366,8.85320978262138,-1.5366756248512121,5.699164847244349
4,3.6309179571804284,0.7822922122983887,5.2098532185647874,2.3947550276135874,0.374138089395579,2.1331950946582543,3.4593523962590123,4.845413596403678,1.2450704082537765,1.3980366272286096,0.06567049794094519,6.280732715256735,-3.15919340930165,3.6504664393636173
5,-0.591096507187139,-1.363315195185082,1.7863921265671574,0.27994903717134173,-0.44948798387043765,2.308517611917815,2.7925958599055534,1.3982607634363948,-2.916000305198184,-2.7778662671841055,-2.627732589177412,1.5644658392162678,-4.732470121760358,0.13838062782555355
6,-4.919524264015598,-3.325734474961383,-2.2030192857672386,-2.0097168241301597,-1.2539459413182659,2.025219545998544,1.5703632868188133,-2.5813855466317834,-6.979067940943514,-6.778076672504034,-5.058669467813377,-3.736689069354041,-5.580040238233063,-3.6535478045091176
7,-7.782713359319252,-4.29407442081626,-5.484494581569768,-3.657158641402555,-1.7323888057493677,1.1804125099556602,0.018566052470746736,-5.779024851060083,-9.31986755699985,-9.015531620945586,-6.192426883472488,-7.882562253993908,-5.1143500704269185,-6.428278103147749
8,-8.098822653444834,-3.7858367008100404,-7.034615467278033,-4.06256616036912,-1.6737619090153457,-0.14952141187407805,-1.5596822053958506,-7.136459801510373,-8.781039159923953,-8.422631898746523,-5.365342397532892,-9.533526812070406,-3.0967320111530845,-7.217557956583762
9,-5.661028237675514,-1.843105997572035,-6.40109187606673,-3.0529302596853567,-1.0395088164333401,-1.687602221214635,-2.837979266388917,-6.201200328384616,-5.125812097013121,-4.865448293511815,-2.560020351979527,-8.182955369494884,0.20733001581630361,-5.705778707450498
10,-1.2117277983583266,0.9625398848429436,-3.8281320227060536,-0.9425306205336377,0.016964989237251094,-3.0177374239232875,-3.534684952565604,-3.271910933310568,0.8079594212526223,0.7609896758755126,1.539033321701986,-4.299634546167029,4.044864733485865,-2.3286052004104567
11,3.8149228020783825,3.719117786828003,-0.15412131737755438,1.5743710781809368,1.1946225239507469,-3.7129464797169094,-3.480745857442425,0.7061842933997038,7.319259121040298,6.7940009617538015,5.735685178917914,0.856074623126744,7.370576813642893,1.8795170417568825
12,7.785298655870239,5.488863936378603,3.474651011814424,3.6592937884438395,2.13810584967781,-3.485397912937548,-2.668749419652297,4.457544198471217,12.363159574616095,11.33472278988241,8.698587917505392,5.666542482934834,9.16248761398322,5.628964326571077
13,9.417272924885864,5.6350924648925895,5.973072934322099,4.611479352434882,2.5492236853623833,-2.302003501345436,-1.2664798293327404,6.795802352876356,14.21308889978752,12.870330728905463,9.398575559248023,8.68570479969035,8.75486731122154,7.788784754808507
14,8.199310287405696,4.045217780613436,6.647261715258721,4.100184661703356,2.280415596693589,-0.42012840814872965,0.4134966671803586,7.006047956943312,12.047759783552083,10.777483758813386,7.459815214654775,9.084053963592936,6.075794644937685,7.733446241040271
15,4.539856507841883,1.1729375309642867,5.384105957229607,2.270850551776394,1.3806820151730521,1.6735096301138037,1.9842532675353184,5.0651766969654775,6.263674541320965,5.539330448388964,3.305864360915348,6.870642690108906,1.7062881033753092,5.515436618912083
16,-0.39273529487321857,-2.112034119394608,2.6504771535011717,-0.3069371110853062,0.08062868509257626,3.4027988990790234,3.078456945433675,1.6324012448437457,-1.5989726514499563,-1.3937969660932077,-1.9497944104412819,2.836016682129009,-3.2637547613199436,1.8198761221570152
17,-5.072675051407741,-4.810992751907149,-0.6840666209619288,-2.828353025139694,-1.2768159814475686,4.275217602002821,3.4411563846856548,-2.1804834838463316,-9.302918331877091,-8.050902693558504,-6.834510370202506,-1.7446789554789108,-7.540797940887556,-2.2703785149151017
18,-8.116434071617261,-6.119135585294093,-3.6331974226305874,-4.513542462965988,-2.3365662514994634,4.031167861274806,2.9957433947650425,-5.17776301207491,-14.595263903558504,-12.54552885490351,-9.96210977553694,-5.534685767522922,-9.999542161101788,-5.613683203218752
19,-8.710219153420292,-5.675233284118393,-5.3924403501174085,-4.852792698258664,-2.8305847598672584,2.7222333305737574,1.8642802414541477,-6.463553404902341,-15.906554628111016,-13.643701585514222,-10.451074846031416,-7.540407951255437,-10.005958784571162,-7.342297529581035
20,-6.830118661337748,-3.6587782735183967,-5.5590953381874595,-3.7587056464361237,-2.6466770510227335,0.6957405091401039,0.33601520009489033,-5.716232346095765,-12.842138728815604,-11.116953633828537,-8.184085696174327,-7.373121267593968,-7.592919784750899,-7.090242724361962
21,-3.197135737779277,-0.7105507078971527,-4.214533477619694,-1.5807496555019032,-1.8490673428135282,-1.5063641720881598,-1.2075693181513854,-3.2690020131920106,-6.3067577227441936,-5.777827728148497,-3.831002633127035,-5.3008637919016435,-3.4379971693611546,-5.0583908718617145
22,0.9995991296612581,2.2874393871284653,-1.8573883111176612,1.0163505294564932,-0.6492235850936141,-3.300656431905654,-2.390817911508226,0.022293812024706903,1.7777154348676523,0.8000810797588106,1.3660087455527032,-2.0973005132417066,1.3443800939225572,-1.9126383911258047
23,4.504996378222911,4.49285778853556,0.7778323209326004,3.2658359501705734,0.6595310090407547,-4.220886807052234,-2.938688197787171,3.0737927089782286,9.069505391380455,6.776719291365495,5.972058923371308,1.24259305522469,5.527891708154529,1.4398169500379856
24,6.386974863133039,5.351180373391533,2.9517295131031482,4.532896783382063,1.7810708255139538,-4.038074876154005,-2.7433695113724967,4.930088953805015,13.52617093903672,10.592560963164493,8.782159627229476,3.817044224968797,8.11546142026698,4.120579657132564
25,6.289763511613248,4.735797105744558,4.128192362065888,4.496415209639683,2.4858990776025935,-2.8127891654250914,-1.8861130903034415,5.06590500981292,14.015910342837735,11.3990224659555,9.15697677118933,5.0630022715545,8.595943726411091,5.515805450702
26,4.483790232532584,2.946281008836058,4.102349889004054,3.2264094607838487,2.6542957152880127,-0.871201094384977,-0.6100731716640271,3.538135320833233,10.62954330745138,9.249893698271565,7.174514388374367,4.868025381645022,7.046762476319297,5.415230994954908
27,1.7160454165002015,0.579420023033049,3.0208371032285264,1.1407401577658325,2.2871580358256645,1.2835649264565525,0.747087254271221,0.9446686051676044,4.602012958587428,5.012858437713799,3.56183408899157,3.5338122875551408,4.063117448785722,4.025894537757176
28,-1.071831760912554,-1.6738554501234169,1.3010361563104107,-1.137446324105749,1.4888761311306238,3.0993026203534373,1.8420531576505217,-1.7903788893337278,-2.1198980428271366,0.04855130991063148,-0.5599679802156403,1.6238526828727915,0.5471848497307573,1.8698124016918314
29,-3.055276147386511,-3.235458571976982,-0.5162322612484891,-2.9718597554734503,0.4331463113469088,4.110334686912751,2.4126872575347944,-3.730590816621943,-7.5140888887271835,-4.228193154691881,-4.029385203324116,-0.2422094576582713,-2.5701375960094595,-0.39405982930328703
30,-3.7672399346588032,-3.788294280917224,-1.931611133747616,-3.8944493704387506,-0.6761409485486242,4.050603550534018,2.340763009219876,-4.2364917937195035,-10.113244219963518,-6.763386149283311,-5.984062186205395,-1.5784211790567897,-4.587948433450468,-2.166575060098128
31,-3.199738109234463,-3.3291923846867304,-2.621698679218368,-3.7241297424437545,-1.6400515812981928,2.9203210215239586,1.6754522989008607,-3.1705744555892164,-9.427222511552161,-7.132246782982182,-6.085171690839512,-2.1526658908693976,-5.200436448343262,-3.0673520955981077
32,-1.7500061733109653,-2.124429535319959,-2.5090081721756143,-2.594022233786824,-2.2920998170718607,0.9916869635593732,0.6130101354456747,-0.9342125850405886,-6.031163497071893,-5.592487902064623,-4.567199484183413,-2.011793334510292,-4.528599285614017,-3.0151125767851212
33,-0.045241313208703955,-0.595512676557296,-1.754624919745935,-0.8876561169221209,-2.5186116541900727,-1.2495076609926685,-0.56033404063806,1.6725317628977068,-1.3063439915752888,-2.9252907763175613,-2.1108662064051273,-1.417836267209807,-3.02255797969438,-2.2138091605792245
34,1.2860597750603162,0.8204261464466748,-0.6831825745801265,0.8892750908365247,-2.273848191512568,-3.217050762181712,-1.5457469770428323,3.720621950618267,3.0652739404813905,-0.13162583431457703,0.4089558856508287,-0.7263708349149177,-1.2775173912073028,-1.056477700375847
35,1.819073333997452,1.7909793777464655,0.3325006289816529,2.259275818339391,-1.5901395999059598,-4.3701640866772635,-2.108010841664332,4.463107507750249,5.67517274177526,1.9090081076475518,2.2136208201552594,-0.25087212147547655,0.1707818118358741,0.01866999583932421
36,1.4524158178093043,2.158368231608786,0.990666893568704,2.901248312447751,-0.5802337888664083,-4.359235956080317,-2.130341513114312,3.587062266533801,5.838174381882144,2.706673453936594,2.856497123117052,-0.15607013905080097,1.0046619591170824,0.6734372618886729
37,0.41363371814910965,1.9482863311393503,1.148392121717299,2.72300862045567,0.5729616838946137,-3.133461350675135,-1.6344807225298965,1.3252518528827804,3.774401943441724,2.2761137624389844,2.3339887549766667,-0.4109243214869999,1.1910045916616216,0.7712961207972108
38,-0.8411404205206409,1.327014628104223,0.8531414583568273,1.8635338745024768,1.6430789497482703,-0.9764505804749454,-0.7633792116578695,-1.6090875680530234,0.4748336241678541,1.073201668184573,1.0447099529593213,-0.8122973326509947,0.9430566825258581,0.40544321904484465
39,-1.793956727557764,0.5293502106647346,0.3106249767852123,0.6312653845857982,2.4028086446963273,1.549120685174173,0.26516982314981397,-4.2451835242274765,-2.690073655267116,-0.2137282120179942,-0.3809487393734742,-1.0690709487399463,0.6003851201731063,-0.15305599172486153
40,-2.0424855495875196,-0.21639918574166322,-0.19911975492633924,-0.5982524607373152,2.675143684099985,3.742595766380988,1.2177408502100904,-5.666302177879772,-4.4750164039281355,-0.9384953926664112,-1.3184836261764699,-0.9185790544229875,0.47562318107234447,-0.5675539016017163
41,-1.433463982588445,-0.7450367812549992,-0.42927671942860235,-1.4932270294501242,2.380584136404552,4.959690504231281,1.8990951138156713,-5.312152043335163,-4.200956711532712,-0.7404125776133919,-1.3728311640860524,-0.23723760356204604,0.7248912832960022,-0.5691996925103083
42,-0.11376768064824876,-0.9815089100425312,-0.26117483404359443,-1.8534602846235815,1.5655973641950178,4.806312687240872,2.1867427253247413,-3.1756020567987084,-1.9832991719209734,0.3265448623513039,-0.5138788351207885,0.8920753203899873,1.2874641622019596,-0.06478227852506004
43,1.5136513981727726,-0.9381218047154445,0.24664798286611186,-1.6527672003789544,0.4010064020300618,3.2714554082241287,2.041246053390947,0.17155323947903575,1.3255326633535425,1.8204058846512328,0.9192179647366825,2.181525799282919,1.9138522429738138,0.8193786665499001
44,2.9141020512999365,-0.6900698657708025,0.8743416703109083,-1.0279658126500417,-0.8529303708869821,0.7518214902242267,1.4968142418407784,3.7369163615121486,4.452713264246025,3.081209718434223,2.3439969324803163,3.2138065956097233,2.269270303266714,1.7743299766534422
45,3.588348124058989,-0.3413651620618693,1.3191077741152208,-0.22199687337069468,-1.907814378662743,-2.0483102047031725,0.6428294608727747,6.405530760893977,6.1666072400445495,3.4826894407136617,3.1467255133660883,3.5726943393588635,2.0725516467126646,2.4149795784926242
46,3.2331978863318085,0.007176288189902257,1.3111550398590563,0.4987586018924124,-2.5191393542473772,-4.318647519058327,-0.39297315304864194,7.2879844616620035,5.721520726773205,2.6760399628779536,2.9076207008335535,2.9895871725064374,1.218134260861013,2.4201139065792936
47,1.8474549442924177,0.2798634386009026,0.7270206450228168,0.9267241714974703,-2.5492499155336334,-5.387057928900571,-1.4545246585762788,6.01029602921625,3.1315236093321643,0.7387913898152968,1.5616414650484305,1.4576860340896474,-0.16494335848012703,1.657030725858557
48,-0.2500467248565494,0.4350253646544566,-0.34210438034870255,0.9704108862013265,-2.00326995027328,-4.92948907217912,-2.363558005361877,2.8521601625967077,-0.8209779480465641,-1.8257417699707676,-0.5615707808362896,-0.7283694293633142,-1.7402262872325194,0.24598911865936698
49,-2.4989773755236704,0.4627043529686748,-1.5963473030688633,0.6711382438400528,-1.0274311231384345,-3.076049393236749,-2.9308368504922395,-1.3149916776407038,-4.844830394462608,-4.241389367632309,-2.8344079834702907,-3.0284491932790645,-3.0689516879107908,-1.4603275657637271
50,-4.253088389853218,0.37608087043490174,-2.6119321617781956,0.1769118620027681,0.13010364137629082,-0.37539346928101647,-2.9818263872872235,-5.2769231899403,-7.578624392914261,-5.714099910280981,-4.533689882039258,-4.799139851438203,-3.7560098220050704,-2.9780448387806904
51,-4.969421642515169,0.20226412417438827,-2.9808793156340925,-0.3153019105924768,1.1851296576641517,2.3741743823391253,-2.3997730227834113,-7.839856854210721,-8.05720285762703,-5.702073374553481,-5.080815715119016,-5.483037562566016,-3.5841116878885715,-3.8417285654628137
52,-4.375530308571378,-0.023542954048390886,-2.459898308142534,-0.6282446623230247,1.8916838661253221,4.373445394090649,-1.1782623881335565,-8.197331792497398,-6.045480640504248,-4.107477914890661,-4.237852518915536,-4.7871295997239285,-2.587330271902326,-3.7531361506897296
53,-2.5631260817234782,-0.2596231236005892,-1.0759527439690801,-0.6610097558654628,2.1042258855054614,5.0697401129682484,0.535251844598642,-6.186086542940015,-2.1246149754145134,-1.3223288449411394,-2.192302133814634,-2.791905346050768,-1.0374465704181852,-2.679870982990135
54,0.023236667738035587,-0.4574801336135489,0.8522916631118397,-0.41611419813410716,1.810932027608952,4.321763295457133,2.4281861126473645,-2.348948832513341,2.498638687652211,1.888594412409514,0.4984175422517487,0.047739329354568434,0.650863260758528,-0.8717012323435378
55,2.7028141355768875,-0.5641072318726603,2.790887172239503,0.00949816044228187,1.1297279722782476,2.4286832101831717,4.062150576907524,2.217987118526428,6.392541723516563,4.6281408724862185,3.0831794200891536,3.015272592107353,2.059488574759056,1.2099900008076852
56,4.748563016985066,-0.5306657911986444,4.145366569815733,0.4634553368274974,0.2692955271628948,0.01678096065358289,4.966473492835435,6.1891722267248905,8.37180385054347,6.148006540516317,4.85301691069409,5.32798716029804,2.8981628189008757,3.0256426498785705
57,5.594703435889941,-0.3282745547009201,4.4464993652861144,0.7913775231736189,-0.532953135904381,-2.174510863687991,4.769181580424533,8.405734692386368,7.877877814937222,6.075060525988727,5.356277530421981,6.357194233522076,3.079240817572285,4.110502880965463
58,4.999893526245995,0.03314739045614221,3.5072927072755906,0.8858677206309804,-1.077771077061441,-3.5322238164086937,3.32991904547077,8.22232091660461,5.140890326465515,4.508266160752055,4.522239898187167,5.806969930717528,2.711377405567466,4.199897857374048
59,3.116924099912092,0.4911796648420008,1.4990562793785291,0.7157967556903376,-1.2567768035774924,-3.7539452800904023,0.8299172096911165,5.698516027216039,1.0751217821772427,1.9592791461463908,2.6568893131374445,3.798422021103623,2.020921566939468,3.2914925272529025
60,0.4483141038871217,0.9316580927478617,-1.0805691838467206,0.32900610965507926,-1.076432638880241,-2.917552322213933,-2.2204665032102398,1.5774577953162119,-3.045967298883114,-0.8342557748257234,0.3207123137828657,0.8361174748751665,1.2392253487215918,1.6316589083372048
61,-2.297967296027451,1.2099266009808889,-3.540561251340071,-0.1688068107468095,-0.6473925358287261,-1.4199229474220962,-5.075361566377671,-2.93965432365284,-6.0146884215262535,-3.1504925761072844,-1.8613174049968804,-2.3307876244769496,0.5070842111651627,-0.3627034796428289
62,-4.408410022200082,1.1914172411685933,-5.191489396728146,-0.6489677123187747,-0.14350104537084135,0.18576069381254534,-6.935818969451635,-6.552216653469042,-7.065091433063416,-4.493462992032482,-3.38774140664445,-4.909885272769472,-0.16159755833697498,-2.218089522069058
63,-5.359581508910029,0.8016417067632343,-5.54424454678025,-0.995734457917585,0.25645370530208167,1.3908576203989025,-7.176951798179059,-8.242119640304788,-6.076825905658097,-4.703125147508458,-4.004107081274337,-6.27100818172283,-0.8425807643581842,-3.5195366220690487
64,-4.9528377472644145,0.06886944604894195,-4.4533991414494585,-1.132651834534761,0.4262256216827697,1.8975654112726623,-5.554251791088402,-7.564632421150372,-3.5517363009342047,-3.9399131615954444,-3.729238851933219,-6.10047827622649,-1.6108413895597944,-3.99845905434839
65,-3.352120001780334,-0.858789437151114,-2.163375618625254,-1.0341169269497248,0.33125987138699237,1.6950247848133495,-2.3213108584742552,-4.7644903891228445,-0.39087666049226777,-2.56749708257788,-2.790759884055582,-4.467260658763368,-2.4435958175293226,-3.5778159912867826
66,-1.0194635314329874,-1.7347294559514765,0.7549737152943761,-0.7228839948738948,0.03757362175040446,1.0256134824594745,1.7887750291020992,-0.6880497165496504,2.433726609016376,-0.9930962586319901,-1.50888586550449,-1.7909178328623239,-3.169363321074824,-2.3732993733153114
67,1.426702213888604,-2.2747523900388478,3.5577233595846187,-0.2584422308816464,-0.31235041399076,0.26272385693200834,5.727946354259983,3.4763515753864396,4.190762433646387,0.4666598071872313,-0.18111659626297272,1.2727352138348442,-3.4973434589778343,-0.6589173220542962
68,3.3846468114349335,-2.244081626097343,5.526558913567831,0.2776139127891195,-0.5492733198421933,-0.24802347564479188,8.407996513591234,6.548477869559859,4.581405281139332,1.6462929069948715,0.9887117623146561,3.9942604757151385,-3.125813883700429,1.191229661346666
69,4.422727322307343,-1.5447357292595727,6.157202656316937,0.7947419382140017,-0.5371032406833415,-0.32234768179158596,9.011823666413246,7.692287764630649,3.7613253893115144,2.508585251865214,1.8996433568149012,5.740583920954335,-1.8902328870236453,2.7743874402612283
70,4.372490348777648,-0.2726149356297661,5.287210500599439,1.2037657545435556,-0.224059652530173,0.0027394855063680324,7.249404685983998,6.642059130624497,2.2088295934963664,3.0671299722447305,2.5141363087788178,6.114942653280874,0.11201959119904618,3.7354077105900734
71,3.342524381246459,1.28074088267708,3.1315420362267252,1.4257551313366397,0.3316933152841245,0.5006143322107457,3.4766608881382095,3.758377792542386,0.5076529037054394,3.3056756042393274,2.804010171202092,5.039915752583099,2.4813782164045866,3.839487524403708
72,1.659029636468324,2.6911608547659,0.22042567932271478,1.4019008948851144,0.9714199968204664,0.8610831992788548,-1.3681337195363346,-0.09493468619756212,-0.8655619527906483,3.142728130501751,2.7187749932448906,2.770114739552835,4.592764483074145,3.0303252734284585
73,-0.24076945302100403,3.5178101629754943,-2.7401309994837963,1.1056279447618016,1.4792308192568489,0.8265125127535724,-6.00258520778361,-3.8107498553662555,-1.6732971358840347,2.464016780499934,2.1977504019109926,-0.16549577657588627,5.776518297934101,1.459433658736677
74,-1.926581803726277,3.4404140380849113,-5.046134860440676,0.5554239212031916,1.6480488127935973,0.3044905911936994,-9.151311760171927,-6.356688088089271,-1.9337019693534108,1.2089556718869583,1.2214826655604354,-3.0797228243434813,5.546875881487894,-0.5274369039708545
75,-3.0711544467644747,2.374787037390173,-6.165387768650245,-0.17608929385538244,1.349092837219207,-0.5856697747294652,-9.910629013255805,-7.060045364001128,-1.8357107388402873,-0.5330774260809925,-0.12571872751555582,-5.2796670034166,3.79631868367499,-2.454122282810083
76,-3.5036529782811296,0.5260388390709526,-5.858031634914946,-0.9628843252432003,0.5835820464854118,-1.5492898430327506,-8.01887826870852,-5.781860309509907,-1.6044793627959733,-2.4709919251695003,-1.620439686471555,-6.225815076678039,0.8793724394524686,-3.8222152325108976
77,-3.2161497950285836,-1.6446857005681323,-4.221717697241879,-1.6411171325012557,-0.5007794393795844,-2.2213101136515814,-3.948925852455983,-2.936665348078512,-1.381741584747619,-4.14392564553361,-2.921767447214355,-5.663855164220034,-2.455440070864634,-4.241503951508199
78,-2.3337722452570806,-3.537739866727614,-1.6555648467434976,-2.04078588173287,-1.636805590648904,-2.3010932456393522,1.209682292640104,0.641132906307488,-1.171162648527545,-5.041313303943904,-3.6555788467612107,-3.6972487134342527,-5.273830800886982,-3.5477873345369244
79,-1.0669064052310695,-4.586529716889962,1.243092380414191,-2.0287831353843684,-2.504336134213238,-1.6683303848675317,6.049144314965157,3.941420282459073,-0.8652692070832368,-4.775698602274913,-3.5380145288230778,-0.7781508969585769,-6.7410350719056416,-1.8700548040984262
80,0.33687550283288814,-4.4324836133551475,3.8207740613664263,-1.5526587376148921,-2.820114133786208,-0.4387196646941089,9.238181541847148,6.062050099932353,-0.33325678822428506,-3.245022966338914,-2.4930513509526895,2.388586171438464,-6.390367680730744,0.3809734264275716
81,1.6308417262410388,-3.04775071465648,5.514309143623756,-0.6707840859019262,-2.4262912717303102,1.0606730650856762,9.899242898593524,6.453238246480617,0.47658154565381833,-0.7176835233936687,-0.7150931129104796,5.011795012861441,-4.283334732793134,2.6092057419334225
82,2.5961819029379694,-0.763050846525285,5.96977973812575,0.4444572519803649,-1.35066404572203,2.3890860951780164,7.858462109644417,5.0575963469793,1.4702436113446165,2.2026280011141983,1.3561165811809535,6.4133299051301185,-1.0043765398439957,4.193503267150373
83,3.0637522079235997,1.813746326487969,5.111120143268379,1.5374907928081931,0.18248938652796365,3.1311247195633265,3.695579166338698,2.3112179708034084,2.410097683272233,4.7327261874457704,3.14984650668581,6.209613021775407,2.511266095888914,4.667641740333607
84,2.9365642659003433,3.96809271575108,3.1478711222578704,2.330904710893519,1.7991502473202754,3.031921673586259,-1.4206943646578518,-0.9902212501249531,2.987691373458617,6.141453301012278,4.135566127445903,4.424406392770854,5.26170074637309,3.864928739971931
85,2.2137045148184593,5.088288794595036,0.5240630468863432,2.6024182536141294,3.071077915139372,2.084200681524531,-6.064186248206857,-3.920167918234488,2.9385981162563746,5.981371652015453,3.994887055114403,1.4967358227132157,6.482312966815508,1.979680976645719
86,1.0084786775350545,4.8494845432667395,-2.179361332799652,2.254519033393177,3.6352669794424384,0.5382974127726179,-8.954118471371373,-5.679998530063425,2.1526163865342474,4.241213063830148,2.7343882739415033,-1.8247535577721279,5.871709248656289,-0.47826579309408285
87,-0.45188618289796734,3.3137626098183275,-4.368779815837949,1.3529508873494545,3.302763081085657,-1.1693271660163438,-9.313989819361764,-5.816535433256488,0.7342672426236311,1.3645848909560974,0.697576157132713,-4.677159165019808,3.6694347202542836,-2.8263761412113677
88,-1.856564015076865,0.9135385558457321,-5.564831714377707,0.11800526029433826,2.1227458515975353,-2.5475331820746767,-7.084752393212465,-4.339435404367904,-1.0115240586988892,-1.874619644604945,-1.5319781249137394,-6.316574855567922,0.5654085841767847,-4.408051299111399
89,-2.874250450347102,-1.6775024519944444,-5.507248134967114,-1.1327646293517015,0.379397403728629,-3.200977943423225,-2.9330820049697555,-1.7078535659413356,-2.664098928013379,-4.600850025101606,-3.306949284086398,-6.323342100653628,-2.5239815068338842,-4.786260209789334
90,-3.238060196779427,-3.7455896637650015,-4.2154479815332175,-2.0749870365356684,-1.4810605366388063,-2.9520987432382566,1.9455607275822913,1.3079394391216033,-3.8107368970917,-6.095221034757999,-4.1151852468151855,-4.718807451316761,-4.737065970668313,-3.871577981849013
91,-2.8282494665191007,-4.746761484506743,-1.9895664720879043,-2.4729532698377974,-2.9737135325283743,-1.895532303940759,6.171086047941399,3.849757380989096,-4.164625970856795,-6.000294663914483,-3.7365382430344067,-1.9575567944882837,-5.515136097601806,-1.9443085847615507
92,-1.7232702829434925,-4.459930943645573,0.6523883841934718,-2.2486994206322932,-3.712346930929946,-0.3670004672069533,8.570936983512219,5.2158518725268594,-3.637465781437875,-4.408146492179591,-2.3071163924893034,1.2041538529752767,-4.74355402017941,0.43572813474521327
93,-0.19560235203366305,-3.0370834528756334,3.091400540637093,-1.5012803905783052,-3.51891834421271,1.1640020433948364,8.508350812034339,5.057016223967777,-2.347327317893013,-1.8096159595098429,-0.27150516975211825,3.925315905533913,-2.750566034694074,2.6019261852615476
94,1.3543785709801361,-0.9388682842206962,4.754058153822622,-0.46974288120916624,-2.4712329800609543,2.2435174212886073,6.054003025644242,3.468885912555614,-0.5683794257385778,1.0707304114655083,1.759639308461414,5.5175044295137905,-0.17606301491101506,3.9801065635996546
95,2.511109930147475,1.2189960962081032,5.254153597578013,0.5470351451705228,-0.8744227896300185,2.576042608255355,1.9538199451000333,0.9547602598894349,1.350735144320986,3.4940856281372827,3.199141316094648,5.631474512546937,2.2381075598789044,4.2509514883348265
96,2.968830751138196,2.8557668555533815,4.492155885990412,1.285484784523292,0.8337735694114874,2.1142379810366663,-2.595444345067347,-1.7291393306014131,3.0668785320721588,4.909261297572359,3.658978545057058,4.338291552018748,3.8656558313836866,3.426420470705146
97,2.6269020620573524,3.590822432935597,2.6835770065661455,1.5947080597265817,2.2129673642363135,1.0659313202583205,-6.296046666630193,-3.799642640962711,4.296697001806251,5.078054579386542,3.0578239796140276,2.084124418373167,4.356050567371835,1.8209375570600757
98,1.6212209888376115,3.3346037251439378,0.3049701135418621,1.4707440632540416,2.9439754708532804,-0.18344895690336838,-8.122050963655234,-4.676555558065889,4.839311884437943,4.0967265019162875,1.6301148280135358,-0.4621187700244296,3.697635662006332,-0.06663798869693954
99,0.27867573745818713,2.2834317684478598,-2.0308728614565283,1.0388721851334637,2.9088038582484756,-1.2061895026413025,-7.606990904989323,-4.148301094646746,4.579047308978452,2.322756426451602,-0.16126832615628414,-2.6162425583283886,2.1783883109455013,-1.7162077017211903
100,-0.9911987747077965,0.8287695146466402,-3.737841197167026,0.4941089803610965,2.2049006614402122,-1.6787220872384923,-4.964336970452803,-2.4246652901907817,3.4877296489253604,0.24419644492427087,-1.7766012005425682,-3.874326791605269,0.27028074091542653,-2.73926892446631
101,-1.830211503781656,-0.582134984933624,-4.412379229949235,0.02445510469497883,1.094245211780951,-1.488678066639279,-1.0086694587397742,-0.06248416013404221,1.6406166282856873,-1.6599679695867788,-2.7649068963593217,-4.036999309029586,-1.5183533196053849,-2.9739524076812627
102,-2.044241953024471,-1.585296475814517,-3.937865350034602,-0.2539386010981158,-0.09113062084819679,-0.7657864340345404,3.0955511128412656,2.2111332505387247,-0.7557311804165159,-3.027205595723415,-2.8919442741111143,-3.22973390341975,-2.7762400990651956,-2.4983380992935675
103,-1.6554177498562588,-1.994955317596242,-2.507431204173094,-0.3269613545716295,-1.053108918243399,0.17345889397409314,6.180351488580774,3.7224250402488774,-3.3427808210181698,-3.66493954344742,-2.1938932938306133,-1.8224810048472646,-3.274723676054106,-1.5677196597786767
104,-0.876914291162807,-1.8297493445824067,-0.5591843662832575,-0.2699281292619467,-1.6068051554353047,0.946967117500916,7.4117654116403715,4.052242097508617,-5.6248331394746085,-3.551014983402996,-0.9454369554456763,-0.2844962568549911,-2.9921037714164886,-0.5063632160745991
105,-0.02236503164794937,-1.2707246105260805,1.3559346352201445,-0.2008018542046079,-1.7127773372568509,1.250155088723103,6.519290356323338,3.1538436414550834,-7.0415859337554325,-2.7983141151932305,0.4417721492918378,0.9716079671718877,-2.0834153527207837,0.4038634096516595
106,0.6141073285183698,-0.5742772084596505,2.7333243507022633,-0.22045099424452147,-1.4581649241047372,0.9690273201885052,3.8525519757891598,1.3531703463626485,-7.099557160264876,-1.6059160665333823,1.5538147221116,1.7042055884351683,-0.8156537716476356,0.9998730360273455
107,0.861361278631911,0.024668345687043094,3.2531696400347094,-0.36487655757040494,-1.0009856750579749,0.2218120162509233,0.2537846406408611,-0.7651349499332041,-5.534478032477485,-0.21396342529515133,2.0983598854880983,1.8825982371971255,0.507647964007561,1.2579834964165975
108,0.72034310633367,0.38516835555806345,2.85803938454355,-0.5882614626406766,-0.503032160375284,-0.6865409232127508,-3.2096439495754385,-2.5470791166252633,-2.4522448143629014,1.1311638319348611,1.9805084068845777,1.6491243261258104,1.6128799512849505,1.2609156444662808
109,0.34343211909366567,0.4872621342073483,1.7495320868760103,-0.782606491325634,-0.07739374478693849,-1.380766211712641,-5.567604136540428,-3.4726052660544466,1.61169448974335,2.204077297864522,1.3114908880605227,1.2279250658875367,2.3028033209835677,1.1328026295996931
110,-0.0435946692575855,0.41105799236658197,0.3095444016262034,-0.8249699913940893,0.23273795117407045,-1.559757764426167,-6.225610082131,-3.308864152307222,5.7585438495065455,2.826114404209114,0.3536746892142338,0.8213332834478466,2.4803389286655277,0.9730395908158155
111,-0.2426401317823187,0.28288456085489905,-1.0253958244656127,-0.6326522500769456,0.44206563803847754,-1.1150103698941387,-5.117304999287976,-2.1674401902109675,8.924172333341193,2.892403683759075,-0.5750767949800342,0.5347511704792218,2.1523850483215208,0.8162079608031008
112,-0.16553551733940564,0.2134078630282724,-1.8955191935382976,-0.20398406759640958,0.5897727866222922,-0.17770921878745052,-2.6907605069454013,-0.4515966099475507,10.167275011888828,2.3961667452283466,-1.2040287282158342,0.35554769676128,1.418051421454889,0.6314857985120014
113,0.1349093824623911,0.25228845246090637,-2.114711767543366,0.3715969937162363,0.7036646144891564,0.9247054562925019,0.25880499017599307,1.2848589826682697,8.965642983677158,1.4404448528709464,-1.386500852983877,0.18783501523270604,0.44510334471338897,0.3571441160654698
114,0.49524586046853813,0.3746210885278543,-1.7064084083180675,0.9384151250303596,0.7791662535801651,1.7876139294386055,2.850192233993459,2.5181293084809293,5.422578953406216,0.22695952516120435,-1.1297190209288699,-0.07748573772699634,-0.5624446450513124,-0.048805510899662626
115,0.7178548704134214,0.5004943300186628,-0.8731313094802523,1.3252966960931127,0.7815701145606005,2.079949375445982,4.3851367374373575,2.914947318693061,0.30334865826395085,-0.982224207572721,-0.5733462854774882,-0.4908109055443354,-1.4023009260124448,-0.5665588474105367
116,0.660001534623383,0.5361966561428835,0.08449500830680996,1.403641736912018,0.6682631462965849,1.6698323334302942,4.5409923580646625,2.42290377249318,-5.129561482819658,-1.9243857257499584,0.07067467674105804,-1.0022410214411628,-1.9124515606581514,-1.1011925275947911
117,0.2979899312168624,0.41852826114941105,0.8691376632376399,1.1319951262658363,0.41850677954105103,0.677215456303014,3.43232197073721,1.2658006670728015,-9.448517572158659,-2.401536665139902,0.5932689390850949,-1.4684836573217748,-2.0033582686986677,-1.505532410065824
118,-0.2595927845158115,0.14435186742361011,1.275127232970368,0.5716564600006383,0.05542597720556883,-0.5669270468762162,1.5320382192107584,-0.14833633493002918,-11.467149047755607,-2.331227200153319,0.8525832369637705,-1.7056528157621962,-1.6762586005416904,-1.6312899328834085
119,-0.8138963963692287,-0.22517764575067303,1.2380798474754047,-0.1314660291382956,-0.35102161326528547,-1.6397952421914324,-0.511216460050263,-1.370714160872501,-10.596616082008723,-1.7657367463947151,0.8084595694747891,-1.566218948815034,-1.0219332136947983,-1.3885305143057445
120,-1.1547944296541206,-0.5857780396247545,0.8351417265933062,-0.7917387518931037,-0.702431673567869,-2.1794319153303423,-2.09170565374447,-2.0561944704167394,-7.036406066108599,-0.8729294909633588,0.5201463215982088,-1.008324110112404,-0.19873639117135722,-0.7895490874706322
121,-1.144143818587798,-0.8272189431651873,0.24200855638230667,-1.2397163699877525,-0.9044816829312688,-2.013478213052151,-2.827234521766207,-2.061481642601908,-1.7331139846333106,0.1146634249923762,0.11321530879743275,-0.1284726592506895,0.6055669407703256,0.04130957310901952
122,-0.7699871732212071,-0.872026160682724,-0.3343185848267033,-1.3706359283279943,-0.9003222182178773,-1.2163872731931316,-2.647010823255888,-1.4689445195155095,3.886203006261953,0.9652458844554516,-0.26930974970148364,0.8571229470664151,1.2185619025921823,0.8976730648927667
123,-0.1511345043435801,-0.7017936224804538,-0.7229205867356351,-1.1707200319303805,-0.6913616270057759,-0.07548336186412397,-1.7683716543260635,-0.5351731216931224,8.326488435459378,1.506517583567066,-0.5138337239321878,1.6773314130268477,1.5226295891086243,1.551854953431354
124,0.5080716022327394,-0.36261034575408024,-0.8355634073496014,-0.714791425795783,-0.337411407775846,1.0187119503336712,-0.5835476716315406,0.4112569283226948,10.45552592142403,1.6608948029732036,-0.5666738660851739,2.0941002267803563,1.478724860007349,1.8256103369054055
125,0.9935927801740493,0.051030166783542115,-0.6810037842169071,-0.13832083085868846,0.06338784958560792,1.7143388593766042,0.494020246593772,1.0835326433512176,9.819709692493667,1.4502051335720134,-0.4411447668717665,1.9819923635856147,1.1291099848589206,1.646499140515272
126,1.1580882117985796,0.4271332710116562,-0.34726249895797,0.4053445669148912,0.40665746514090195,1.818347612114198,1.1663114431587893,1.3226569774721508,6.749264073564819,0.9738650910466089,-0.2026916995845945,1.370859476196828,0.5801026169079884,1.0705859297277383
127,0.9692566485910712,0.6708066346961657,0.03781382114561017,0.788420494179553,0.6136898501675798,1.351905896780017,1.3261030114866148,1.130233445748164,2.2262357940809796,0.3721044104903533,0.05977060414515342,0.4368715860407874,-0.028679361934088154,0.26414341326614826
