,AF3,F7,F3,FC5,T7,P7,O1,O2,P8,T8,FC6,F4,F8,AF4
0,4210.769043,4229.743652,4212.820313,4232.307617,4206.153809,4256.922852,4266.666504,4231.282227,4201.025879,4229.743652,4247.179688,4240.0,4212.820313,4210.769043
1,4203.589844,4222.563965,4205.641113,4227.692383,4198.974121,4254.358887,4257.436035,4217.94873,4198.974121,4225.641113,4240.0,4228.205078,4206.153809,4203.589844
2,4194.358887,4214.358887,4201.025879,4217.94873,4197.94873,4251.794922,4255.384766,4211.282227,4197.94873,4220.512695,4222.563965,4221.025879,4197.436035,4196.410156
3,4187.692383,4204.102539,4194.358887,4209.230957,4195.384766,4254.871582,4255.384766,4210.256348,4196.410156,4213.846191,4205.641113,4211.282227,4193.846191,4186.666504
4,4191.282227,4206.153809,4198.461426,4213.846191,4195.384766,4265.641113,4255.897461,4214.871582,4197.94873,4215.897461,4210.256348,4208.717773,4196.922852,4184.615234
5,4196.410156,4214.358887,4203.077148,4214.358887,4196.922852,4264.615234,4257.436035,4218.974121,4198.974121,4218.974121,4217.436035,4210.256348,4198.461426,4186.666504
6,4201.538574,4214.871582,4204.102539,4212.307617,4197.436035,4257.94873,4264.615234,4226.666504,4199.487305,4222.05127,4220.512695,4215.897461,4204.102539,4194.358887
7,4209.743652,4218.461426,4212.307617,4221.538574,4202.563965,4265.641113,4275.897461,4243.077148,4202.05127,4232.820313,4228.205078,4232.307617,4214.871582,4211.282227
8,4214.358887,4225.128418,4220.0,4231.282227,4211.794922,4275.897461,4280.512695,4250.769043,4202.563965,4237.436035,4231.794922,4245.128418,4218.974121,4217.94873
9,4211.282227,4220.512695,4215.384766,4230.769043,4216.410156,4271.282227,4274.871582,4238.974121,4199.487305,4229.743652,4225.128418,4242.563965,4213.333496,4210.769043
10,4212.307617,4219.487305,4216.410156,4229.230957,4216.922852,4260.0,4269.743652,4229.230957,4201.025879,4227.692383,4227.692383,4243.589844,4214.358887,4210.769043
11,4218.461426,4230.256348,4223.077148,4231.282227,4216.922852,4249.230957,4267.692383,4231.282227,4203.077148,4232.820313,4240.512695,4250.256348,4220.512695,4218.974121
12,4217.436035,4231.794922,4218.461426,4230.769043,4215.384766,4232.820313,4264.102539,4230.256348,4207.179688,4231.282227,4244.615234,4252.820313,4221.538574,4223.077148
13,4219.487305,4231.282227,4214.358887,4232.307617,4214.358887,4226.666504,4266.666504,4232.307617,4212.820313,4234.358887,4247.179688,4255.897461,4224.102539,4229.743652
14,4217.94873,4228.717773,4215.897461,4229.743652,4210.256348,4232.307617,4269.230957,4236.410156,4215.384766,4241.025879,4249.230957,4257.436035,4224.102539,4230.769043
15,4206.666504,4216.922852,4210.256348,4217.94873,4202.05127,4230.769043,4263.589844,4232.307617,4215.384766,4235.897461,4245.128418,4248.717773,4219.487305,4220.512695
16,4198.974121,4214.871582,4205.641113,4211.794922,4197.94873,4231.794922,4262.05127,4230.256348,4217.94873,4230.256348,4245.128418,4239.487305,4217.436035,4215.897461
17,4200.0,4216.922852,4204.615234,4213.333496,4201.538574,4237.94873,4265.641113,4232.307617,4217.94873,4233.333496,4250.769043,4235.897461,4218.461426,4215.384766
18,4199.487305,4205.128418,4200.512695,4205.641113,4200.512695,4235.384766,4256.410156,4224.615234,4213.333496,4226.153809,4245.641113,4227.692383,4212.307617,4206.153809
19,4196.410156,4202.05127,4198.461426,4196.922852,4196.410156,4229.230957,4244.102539,4209.230957,4208.717773,4209.230957,4232.820313,4218.974121,4201.025879,4196.410156
20,4203.077148,4216.410156,4203.077148,4206.666504,4200.512695,4237.94873,4247.692383,4204.102539,4209.230957,4206.153809,4229.743652,4225.128418,4201.025879,4200.512695
21,4206.153809,4218.461426,4203.077148,4213.846191,4201.538574,4245.641113,4250.256348,4205.128418,4210.769043,4205.128418,4226.153809,4234.358887,4205.128418,4208.205078
22,4205.128418,4214.871582,4202.05127,4210.769043,4198.974121,4241.538574,4246.153809,4206.666504,4208.717773,4198.974121,4224.615234,4238.461426,4204.615234,4208.717773
23,4211.794922,4227.179688,4211.794922,4220.0,4206.153809,4247.692383,4252.820313,4217.94873,4208.205078,4206.153809,4237.436035,4246.666504,4208.717773,4212.820313
24,4221.025879,4236.410156,4218.461426,4232.820313,4215.384766,4257.94873,4260.512695,4231.282227,4213.846191,4220.512695,4249.230957,4251.282227,4217.94873,4222.563965
25,4227.179688,4237.94873,4218.461426,4233.333496,4216.410156,4254.358887,4262.05127,4235.897461,4219.487305,4226.666504,4250.256348,4249.743652,4220.0,4229.743652
26,4232.820313,4244.102539,4217.94873,4231.282227,4215.897461,4250.769043,4265.128418,4234.358887,4217.94873,4227.179688,4250.256348,4248.205078,4218.461426,4231.282227
27,4231.794922,4244.615234,4216.922852,4235.897461,4217.94873,4250.256348,4269.230957,4233.333496,4214.358887,4231.794922,4251.282227,4248.717773,4218.461426,4226.666504
28,4222.05127,4236.922852,4210.769043,4232.820313,4218.461426,4240.0,4265.128418,4233.846191,4213.333496,4232.307617,4250.256348,4250.256348,4217.94873,4222.05127
29,4216.410156,4229.230957,4207.179688,4222.563965,4210.256348,4231.794922,4255.897461,4229.743652,4216.922852,4224.615234,4250.256348,4251.794922,4217.436035,4218.461426
30,4213.333496,4221.538574,4203.077148,4215.897461,4201.538574,4239.487305,4248.205078,4220.512695,4215.384766,4217.94873,4244.102539,4246.153809,4211.794922,4215.384766
31,4206.666504,4215.897461,4197.94873,4210.769043,4201.538574,4249.230957,4248.717773,4216.410156,4214.871582,4216.410156,4232.820313,4237.94873,4203.077148,4210.769043
32,4203.589844,4216.410156,4196.410156,4206.666504,4205.641113,4249.230957,4245.128418,4216.410156,4215.897461,4217.94873,4231.282227,4233.333496,4202.05127,4205.128418
33,4197.436035,4208.717773,4194.871582,4200.0,4200.0,4246.153809,4234.358887,4205.128418,4213.333496,4210.256348,4229.230957,4227.692383,4201.025879,4199.487305
34,4190.256348,4201.025879,4191.282227,4196.410156,4195.384766,4253.846191,4234.358887,4196.410156,4215.384766,4205.128418,4225.128418,4224.102539,4198.461426,4198.974121
35,4190.769043,4202.05127,4190.769043,4196.410156,4198.974121,4268.205078,4241.538574,4204.102539,4221.538574,4207.692383,4227.179688,4229.743652,4198.974121,4200.0
36,4194.358887,4201.538574,4191.282227,4195.384766,4198.461426,4268.205078,4240.0,4211.794922,4219.487305,4204.615234,4228.205078,4232.307617,4201.538574,4199.487305
37,4199.487305,4208.205078,4197.94873,4202.563965,4200.512695,4262.563965,4244.615234,4216.410156,4222.563965,4210.769043,4236.922852,4236.922852,4210.769043,4210.769043
38,4204.615234,4216.922852,4199.487305,4209.230957,4203.077148,4266.666504,4249.230957,4220.512695,4233.846191,4225.641113,4252.307617,4244.102539,4220.512695,4222.05127
39,4200.0,4213.333496,4189.743652,4206.666504,4196.922852,4262.563965,4237.94873,4216.922852,4235.897461,4224.102539,4248.205078,4241.538574,4217.436035,4214.871582
40,4203.589844,4217.436035,4187.179688,4210.769043,4201.538574,4257.94873,4235.897461,4213.333496,4226.666504,4215.897461,4240.0,4241.025879,4214.358887,4210.769043
41,4216.410156,4232.820313,4195.384766,4222.05127,4217.436035,4274.871582,4248.717773,4217.436035,4223.589844,4220.512695,4251.794922,4248.205078,4220.0,4220.0
42,4214.358887,4229.230957,4200.512695,4221.538574,4218.461426,4284.615234,4254.358887,4213.333496,4224.615234,4215.897461,4251.282227,4250.769043,4218.461426,4223.077148
43,4208.205078,4220.512695,4201.538574,4215.897461,4217.436035,4267.179688,4251.282227,4209.743652,4221.538574,4205.128418,4233.333496,4249.230957,4211.794922,4218.974121
44,4207.692383,4225.641113,4202.563965,4220.512695,4226.153809,4262.05127,4252.820313,4216.410156,4218.974121,4210.769043,4230.256348,4252.307617,4206.666504,4218.461426
45,4208.205078,4224.615234,4198.461426,4222.05127,4223.589844,4274.871582,4258.974121,4220.0,4217.94873,4217.436035,4236.410156,4252.820313,4202.563965,4220.512695
46,4208.717773,4216.922852,4195.384766,4216.922852,4216.410156,4273.333496,4255.897461,4217.436035,4218.974121,4215.897461,4232.307617,4250.769043,4203.589844,4218.974121
47,4207.179688,4216.922852,4192.820313,4214.871582,4213.846191,4260.0,4247.692383,4215.897461,4214.871582,4215.384766,4226.666504,4245.128418,4203.077148,4217.436035
48,4204.615234,4216.410156,4193.333496,4213.846191,4205.128418,4256.410156,4245.641113,4214.871582,4210.256348,4217.94873,4230.769043,4243.077148,4202.563965,4220.0
49,4204.102539,4206.666504,4191.282227,4203.589844,4200.0,4260.512695,4245.128418,4208.717773,4206.666504,4213.333496,4231.282227,4241.025879,4199.487305,4214.871582
50,4197.94873,4196.410156,4182.05127,4188.717773,4195.384766,4260.512695,4234.871582,4195.897461,4201.538574,4202.563965,4221.025879,4230.769043,4190.256348,4200.512695
51,4193.846191,4195.897461,4178.461426,4186.666504,4184.615234,4251.282227,4225.128418,4186.153809,4196.410156,4194.358887,4216.410156,4224.102539,4187.692383,4197.94873
52,4207.692383,4208.717773,4192.820313,4198.461426,4192.307617,4245.641113,4229.743652,4193.333496,4198.461426,4198.461426,4225.641113,4235.384766,4198.461426,4213.846191
53,4222.05127,4226.666504,4205.641113,4212.820313,4217.436035,4247.692383,4241.538574,4205.641113,4202.563965,4212.820313,4232.820313,4251.282227,4209.743652,4230.769043
54,4224.102539,4230.256348,4206.153809,4217.94873,4223.077148,4241.025879,4245.128418,4202.563965,4200.0,4212.820313,4231.282227,4255.384766,4210.256348,4234.358887
55,4222.563965,4227.179688,4204.615234,4216.410156,4213.846191,4229.230957,4243.077148,4198.461426,4196.410156,4203.589844,4230.256348,4255.897461,4205.128418,4230.769043
56,4220.512695,4231.794922,4204.102539,4216.922852,4216.410156,4238.461426,4249.230957,4208.717773,4205.128418,4208.205078,4232.307617,4260.512695,4203.077148,4233.846191
57,4218.974121,4228.717773,4203.077148,4216.922852,4215.897461,4256.922852,4259.487305,4219.487305,4217.94873,4220.512695,4235.384766,4260.0,4204.615234,4233.846191
58,4217.436035,4220.0,4203.077148,4213.846191,4206.666504,4258.974121,4261.538574,4224.615234,4220.0,4221.025879,4238.461426,4251.794922,4204.102539,4223.589844
59,4217.94873,4220.512695,4205.641113,4216.410156,4207.179688,4249.230957,4263.589844,4229.743652,4212.820313,4217.94873,4232.307617,4248.205078,4202.563965,4217.94873
60,4215.384766,4220.512695,4206.153809,4217.94873,4213.333496,4242.05127,4258.974121,4225.641113,4209.743652,4217.94873,4228.205078,4250.769043,4203.077148,4216.922852
61,4214.871582,4220.512695,4206.666504,4215.384766,4215.384766,4242.563965,4250.769043,4215.897461,4209.743652,4214.871582,4238.974121,4251.282227,4202.05127,4213.846191
62,4220.512695,4230.256348,4212.820313,4224.615234,4218.461426,4240.0,4254.358887,4219.487305,4207.179688,4219.487305,4201.025879,4254.871582,4204.615234,4217.94873
63,4222.05127,4232.820313,4212.307617,4228.717773,4220.0,4226.666504,4254.358887,4218.974121,4201.538574,4218.461426,4100.512695,4253.846191,4203.589844,4216.922852
64,4215.384766,4228.205078,4203.589844,4220.512695,4217.436035,4215.384766,4238.461426,4200.0,4195.384766,4203.077148,4050.256348,4243.589844,4198.461426,4204.615234
65,4209.230957,4230.256348,4199.487305,4216.922852,4218.461426,4218.461426,4230.769043,4189.743652,4192.820313,4196.922852,4074.358887,4238.974121,4197.436035,4198.974121
66,4202.563965,4223.589844,4194.871582,4209.230957,4214.358887,4227.179688,4231.794922,4191.794922,4192.307617,4203.077148,4078.974365,4236.410156,4195.384766,4198.461426
67,4185.128418,4203.589844,4182.563965,4188.717773,4203.077148,4228.205078,4225.128418,4189.743652,4193.846191,4197.436035,4062.564209,4226.666504,4188.205078,4184.615234
68,4167.179688,4190.769043,4174.871582,4176.410156,4197.94873,4227.179688,4219.487305,4188.717773,4191.794922,4184.102539,4066.153809,4214.358887,4181.538574,4170.769043
69,4167.692383,4191.794922,4180.512695,4180.512695,4198.974121,4225.641113,4228.205078,4195.897461,4193.333496,4184.615234,4073.846191,4215.897461,4182.05127,4173.333496
70,4181.538574,4200.0,4188.717773,4191.282227,4207.179688,4220.512695,4242.563965,4205.641113,4200.0,4196.410156,4082.05127,4231.794922,4191.282227,4183.077148
71,4187.179688,4202.563965,4193.846191,4198.461426,4211.794922,4212.820313,4248.205078,4214.358887,4202.05127,4200.0,4095.897461,4241.025879,4200.512695,4191.794922
72,4184.102539,4198.974121,4197.436035,4193.333496,4205.641113,4208.205078,4245.128418,4215.384766,4192.307617,4196.410156,4103.589844,4237.94873,4198.974121,4195.897461
73,4191.282227,4201.025879,4203.589844,4193.846191,4203.589844,4212.820313,4245.641113,4214.358887,4188.205078,4196.410156,4104.615234,4242.563965,4199.487305,4201.538574
74,4212.307617,4215.897461,4216.922852,4212.820313,4216.922852,4224.102539,4252.820313,4222.05127,4195.384766,4209.743652,4112.820313,4260.0,4213.333496,4219.487305
75,4233.846191,4230.769043,4227.179688,4223.589844,4228.717773,4232.820313,4256.410156,4226.666504,4197.94873,4221.025879,4127.692383,4272.820313,4225.128418,4239.487305
76,4233.333496,4228.205078,4218.461426,4217.436035,4228.717773,4231.282227,4247.692383,4213.846191,4190.256348,4211.282227,4130.256348,4268.717773,4216.410156,4234.358887
77,4221.025879,4225.128418,4208.717773,4215.897461,4229.230957,4230.769043,4243.589844,4202.563965,4190.256348,4198.461426,4127.692383,4260.0,4205.128418,4219.487305
78,4214.871582,4230.256348,4212.307617,4213.333496,4235.384766,4236.410156,4247.179688,4205.641113,4196.922852,4203.077148,4129.743652,4253.846191,4209.230957,4220.0
79,4203.589844,4224.615234,4209.743652,4202.563965,4233.333496,4230.769043,4245.641113,4207.179688,4194.871582,4205.128418,4126.666504,4238.461426,4207.692383,4213.846191
80,4185.128418,4213.333496,4194.358887,4191.794922,4219.487305,4216.922852,4234.871582,4199.487305,4189.743652,4190.769043,4118.974121,4217.436035,4192.820313,4194.871582
81,4182.563965,4215.384766,4188.717773,4188.205078,4212.307617,4218.974121,4225.641113,4196.410156,4189.743652,4181.538574,4118.461426,4211.282227,4186.153809,4185.128418
82,4189.230957,4217.436035,4193.846191,4187.179688,4212.820313,4218.974121,4226.153809,4196.922852,4193.333496,4184.615234,4125.641113,4220.0,4190.256348,4186.666504
83,4186.153809,4212.307617,4189.743652,4184.102539,4207.179688,4197.94873,4225.128418,4191.794922,4192.820313,4185.128418,4133.846191,4225.128418,4187.692383,4190.256348
84,4186.666504,4214.358887,4187.179688,4181.538574,4201.025879,4188.717773,4222.05127,4187.692383,4188.205078,4183.077148,4136.410156,4224.615234,4186.153809,4196.922852
85,4198.974121,4217.94873,4195.384766,4187.179688,4205.641113,4204.615234,4225.128418,4191.794922,4179.487305,4184.102539,4136.922852,4226.153809,4196.410156,4202.05127
86,4196.410156,4214.871582,4197.94873,4189.230957,4208.205078,4209.230957,4226.153809,4188.205078,4171.794922,4175.384766,4140.512695,4225.641113,4198.461426,4198.974121
87,4183.589844,4210.769043,4193.333496,4182.05127,4203.589844,4197.436035,4218.461426,4178.974121,4165.641113,4165.128418,4136.922852,4222.05127,4189.743652,4194.358887
88,4189.230957,4212.820313,4196.410156,4188.205078,4205.128418,4200.0,4219.487305,4186.666504,4170.256348,4171.794922,4137.436035,4228.717773,4192.820313,4197.94873
89,4203.589844,4220.512695,4206.666504,4204.615234,4212.820313,4209.743652,4229.743652,4204.102539,4183.589844,4186.153809,4158.461426,4243.589844,4204.615234,4211.794922
90,4203.077148,4226.153809,4208.717773,4205.641113,4214.358887,4207.692383,4228.205078,4205.641113,4188.717773,4193.846191,4175.384766,4247.179688,4206.153809,4216.410156
91,4199.487305,4228.717773,4203.589844,4199.487305,4212.307617,4206.666504,4224.102539,4197.436035,4187.179688,4196.922852,4170.769043,4241.538574,4199.487305,4211.282227
92,4205.641113,4230.769043,4203.077148,4206.666504,4215.384766,4215.384766,4227.179688,4197.436035,4191.794922,4203.077148,4169.743652,4244.102539,4202.05127,4214.358887
93,4208.717773,4232.820313,4205.128418,4216.410156,4216.922852,4219.487305,4227.692383,4201.025879,4200.512695,4212.307617,4181.538574,4247.692383,4212.820313,4220.0
94,4210.256348,4235.384766,4207.692383,4216.922852,4214.871582,4215.384766,4229.743652,4202.05127,4204.102539,4215.897461,4186.153809,4248.205078,4222.05127,4218.974121
95,4213.846191,4233.846191,4206.666504,4216.922852,4218.974121,4223.589844,4236.922852,4205.128418,4203.077148,4209.743652,4172.820313,4248.717773,4217.94873,4214.358887
96,4208.717773,4226.666504,4197.94873,4213.333496,4219.487305,4233.846191,4233.333496,4197.94873,4202.05127,4198.461426,4152.820313,4237.436035,4203.589844,4202.563965
97,4192.820313,4212.307617,4187.692383,4197.94873,4209.230957,4223.589844,4219.487305,4182.563965,4198.974121,4187.692383,4144.102539,4222.05127,4197.436035,4185.128418
98,4183.589844,4199.487305,4188.717773,4189.230957,4205.128418,4215.384766,4218.974121,4180.512695,4195.384766,4182.563965,4149.230957,4220.512695,4200.0,4182.563965
99,4188.205078,4205.128418,4195.384766,4196.410156,4211.282227,4220.512695,4224.102539,4187.692383,4197.436035,4184.615234,4161.538574,4227.179688,4202.05127,4191.794922
100,4194.358887,4214.358887,4195.384766,4203.589844,4214.871582,4215.897461,4222.563965,4187.179688,4200.512695,4187.692383,4170.769043,4230.256348,4204.102539,4196.410156
101,4197.436035,4213.846191,4198.461426,4204.102539,4213.333496,4202.05127,4221.025879,4183.589844,4197.436035,4191.794922,4171.794922,4234.871582,4209.230957,4196.922852
102,4200.512695,4215.384766,4205.128418,4205.641113,4213.333496,4198.974121,4223.077148,4186.666504,4194.358887,4199.487305,4170.256348,4236.922852,4211.282227,4197.94873
103,4202.05127,4217.94873,4210.256348,4210.256348,4211.794922,4193.846191,4226.153809,4194.358887,4201.025879,4201.025879,4169.743652,4235.897461,4213.333496,4200.512695
104,4203.077148,4219.487305,4212.820313,4214.358887,4209.230957,4183.077148,4229.230957,4196.410156,4205.128418,4198.974121,4167.692383,4239.487305,4216.410156,4205.641113
105,4211.794922,4225.128418,4221.025879,4222.05127,4212.820313,4183.589844,4232.820313,4193.846191,4206.153809,4205.128418,4173.846191,4248.205078,4218.461426,4218.461426
106,4227.692383,4237.436035,4231.282227,4233.333496,4217.94873,4187.692383,4233.846191,4196.922852,4213.333496,4217.436035,4186.666504,4258.974121,4226.666504,4233.846191
107,4235.897461,4244.102539,4234.871582,4238.461426,4218.461426,4187.692383,4235.384766,4204.102539,4226.666504,4219.487305,4185.641113,4267.692383,4233.333496,4237.94873
108,4234.358887,4242.563965,4233.846191,4236.922852,4217.94873,4192.307617,4240.0,4210.769043,4231.282227,4218.461426,4186.666504,4268.205078,4233.846191,4238.461426
109,4234.358887,4237.94873,4233.846191,4235.897461,4221.025879,4198.974121,4245.128418,4219.487305,4227.692383,4226.153809,4203.077148,4265.641113,4231.794922,4242.563965
110,4233.846191,4232.820313,4231.794922,4234.871582,4217.436035,4201.025879,4244.615234,4220.512695,4222.05127,4226.153809,4207.692383,4263.077148,4226.153809,4239.487305
111,4223.077148,4226.153809,4222.563965,4228.717773,4205.641113,4200.0,4238.461426,4209.743652,4217.436035,4210.769043,4186.666504,4254.358887,4213.333496,4221.538574
112,4208.205078,4214.871582,4209.743652,4218.461426,4200.512695,4191.282227,4229.743652,4197.94873,4211.794922,4194.871582,4163.589844,4236.922852,4202.05127,4202.563965
113,4198.974121,4204.615234,4200.512695,4209.230957,4200.512695,4180.512695,4220.0,4188.717773,4205.128418,4184.615234,4154.871582,4226.666504,4194.358887,4196.410156
114,4192.307617,4199.487305,4202.05127,4205.641113,4194.358887,4181.538574,4216.410156,4183.589844,4201.025879,4181.025879,4159.487305,4231.282227,4184.615234,4193.846191
115,4189.230957,4202.05127,4205.641113,4205.128418,4190.256348,4182.05127,4217.94873,4186.153809,4205.641113,4184.615234,4164.102539,4240.0,4183.077148,4189.743652
116,4181.538574,4200.512695,4195.897461,4199.487305,4190.256348,4171.282227,4215.384766,4184.102539,4210.769043,4182.05127,4156.922852,4237.94873,4186.666504,4184.615234
117,4169.743652,4188.717773,4186.153809,4195.384766,4187.692383,4166.153809,4211.794922,4176.922852,4206.153809,4175.897461,4149.230957,4225.128418,4187.692383,4181.025879
118,4173.333496,4190.256348,4191.282227,4198.974121,4188.717773,4172.820313,4214.358887,4177.436035,4206.666504,4178.974121,4156.410156,4223.077148,4191.282227,4186.153809
119,4182.05127,4201.538574,4194.871582,4198.974121,4195.384766,4173.846191,4214.871582,4181.538574,4210.769043,4185.128418,4166.153809,4233.333496,4198.461426,4195.384766
120,4185.128418,4201.538574,4197.436035,4198.461426,4197.94873,4173.846191,4215.384766,4188.717773,4206.153809,4192.820313,4176.410156,4239.487305,4208.717773,4200.512695
121,4191.282227,4205.128418,4205.128418,4208.717773,4197.94873,4178.974121,4222.05127,4197.436035,4200.512695,4201.538574,4190.256348,4240.512695,4215.897461,4209.230957
122,4201.538574,4216.410156,4214.871582,4218.461426,4201.025879,4178.974121,4227.179688,4201.538574,4206.153809,4201.025879,4196.922852,4244.615234,4216.922852,4216.922852
123,4211.282227,4223.589844,4221.538574,4226.666504,4203.589844,4172.307617,4230.769043,4207.692383,4208.205078,4198.974121,4197.94873,4249.743652,4218.461426,4220.0
124,4214.871582,4224.102539,4221.538574,4232.307617,4205.128418,4171.794922,4234.358887,4213.333496,4202.563965,4205.641113,4206.153809,4251.282227,4223.589844,4226.666504
125,4203.589844,4217.94873,4209.743652,4221.025879,4202.563965,4172.307617,4225.641113,4201.538574,4191.794922,4196.410156,4202.563965,4242.05127,4214.871582,4222.05127
126,4185.641113,4201.025879,4193.846191,4199.487305,4191.794922,4167.692383,4211.282227,4180.0,4182.05127,4168.717773,4175.384766,4222.563965,4197.436035,4196.922852
127,4181.025879,4192.820313,4188.717773,4194.871582,4186.153809,4167.179688,4211.282227,4178.461426,4183.589844,4167.692383,4162.563965,4212.307617,4195.897461,4185.128418
