,AF3,F7,F3,FC5,T7,P7,O1,O2,P8,T8,FC6,F4,F8,AF4
0,4227.179688,4214.358887,4216.922852,4218.461426,4256.410156,4217.94873,4214.871582,4224.102539,4223.589844,4217.94873,4193.333496,4176.922852,4221.025879,4220.512695
1,4224.102539,4214.358887,4215.384766,4218.461426,4263.077148,4219.487305,4217.94873,4227.179688,4230.256348,4218.974121,4189.743652,4171.282227,4218.974121,4220.512695
2,4215.897461,4209.230957,4214.358887,4217.436035,4263.077148,4218.974121,4215.384766,4229.230957,4227.692383,4214.871582,4187.179688,4167.179688,4215.384766,4215.897461
3,4222.05127,4212.307617,4215.384766,4218.974121,4261.538574,4216.922852,4216.410156,4228.205078,4227.179688,4215.897461,4196.410156,4169.743652,4224.102539,4220.512695
4,4225.128418,4215.384766,4215.384766,4218.974121,4262.05127,4215.384766,4216.922852,4225.128418,4229.230957,4220.0,4198.461426,4171.282227,4227.179688,4229.230957
5,4222.05127,4215.384766,4214.871582,4217.94873,4261.538574,4215.384766,4215.384766,4221.025879,4225.641113,4218.461426,4190.769043,4170.256348,4221.538574,4225.641113
6,4226.153809,4216.410156,4217.436035,4217.436035,4263.077148,4216.410156,4217.436035,4220.0,4221.538574,4215.897461,4189.743652,4170.769043,4222.563965,4220.512695
7,4232.820313,4216.922852,4220.0,4220.512695,4265.641113,4216.410156,4218.974121,4221.538574,4221.538574,4220.512695,4192.820313,4177.94873,4223.077148,4227.179688
8,4232.307617,4218.461426,4223.077148,4224.615234,4267.179688,4216.922852,4217.94873,4220.0,4220.512695,4222.563965,4194.871582,4184.102539,4221.025879,4234.871582
9,4232.820313,4219.487305,4227.692383,4226.666504,4272.820313,4220.0,4221.025879,4221.025879,4226.666504,4223.077148,4196.922852,4177.94873,4224.615234,4234.358887
10,4232.820313,4218.974121,4229.230957,4227.692383,4281.025879,4221.025879,4224.615234,4223.077148,4232.307617,4227.692383,4192.307617,4173.333496,4224.615234,4229.743652
11,4227.692383,4217.436035,4221.538574,4225.641113,4281.538574,4217.94873,4223.077148,4220.512695,4226.666504,4226.666504,4186.153809,4174.358887,4217.436035,4224.615234
12,4218.974121,4210.256348,4215.384766,4218.974121,4274.871582,4215.897461,4217.436035,4218.974121,4218.461426,4217.94873,4185.128418,4169.743652,4210.769043,4218.461426
13,4212.307617,4200.512695,4215.384766,4213.846191,4272.307617,4214.871582,4213.333496,4222.563965,4215.384766,4212.307617,4183.077148,4165.641113,4203.589844,4213.846191
14,4216.922852,4200.512695,4219.487305,4215.384766,4273.846191,4217.94873,4222.563965,4229.230957,4222.563965,4218.974121,4184.102539,4170.256348,4204.615234,4216.922852
15,4216.410156,4201.538574,4217.94873,4217.436035,4268.717773,4220.0,4231.794922,4235.384766,4231.794922,4226.153809,4188.205078,4173.846191,4208.717773,4217.94873
16,4206.153809,4194.871582,4213.846191,4214.871582,4262.563965,4217.436035,4227.692383,4236.410156,4229.743652,4224.102539,4185.128418,4173.846191,4202.05127,4220.0
17,4211.794922,4197.94873,4223.077148,4216.410156,4270.256348,4222.05127,4228.205078,4236.410156,4228.205078,4226.153809,4184.102539,4183.077148,4205.641113,4227.692383
18,4227.692383,4206.153809,4235.897461,4220.0,4280.512695,4233.846191,4237.436035,4237.436035,4231.282227,4232.307617,4191.282227,4192.307617,4216.922852,4233.846191
19,4224.615234,4202.563965,4231.282227,4220.0,4277.94873,4230.769043,4234.871582,4228.717773,4218.461426,4222.563965,4185.641113,4186.153809,4207.692383,4229.743652
20,4214.358887,4198.974121,4223.077148,4217.436035,4273.333496,4215.384766,4221.538574,4216.410156,4196.410156,4200.512695,4168.717773,4177.94873,4194.358887,4218.461426
21,4217.436035,4203.077148,4228.205078,4218.461426,4277.436035,4215.384766,4223.077148,4215.384766,4196.410156,4197.436035,4166.666504,4182.563965,4200.0,4216.922852
22,4222.563965,4204.102539,4234.358887,4221.025879,4275.384766,4224.615234,4231.794922,4223.077148,4203.589844,4208.717773,4173.333496,4189.230957,4204.102539,4222.563965
23,4223.589844,4197.436035,4229.743652,4217.436035,4265.641113,4221.538574,4230.769043,4224.615234,4191.794922,4205.128418,4172.307617,4188.717773,4200.512695,4223.077148
24,4226.153809,4197.94873,4226.153809,4215.384766,4266.153809,4216.922852,4230.256348,4222.05127,4182.05127,4200.0,4176.922852,4188.205078,4205.641113,4224.102539
25,4232.820313,4208.205078,4228.205078,4217.94873,4270.256348,4218.974121,4232.307617,4222.05127,4186.153809,4209.230957,4185.128418,4188.717773,4211.794922,4229.743652
26,4232.307617,4208.717773,4224.102539,4215.897461,4264.102539,4218.974121,4229.743652,4224.102539,4186.666504,4211.794922,4178.974121,4184.615234,4208.717773,4225.128418
27,4221.538574,4200.512695,4216.410156,4213.846191,4260.0,4217.436035,4227.179688,4222.05127,4181.025879,4205.641113,4174.358887,4182.05127,4203.589844,4214.358887
28,4214.871582,4199.487305,4215.384766,4216.922852,4265.641113,4220.0,4230.256348,4220.0,4183.589844,4212.820313,4182.563965,4184.615234,4204.102539,4212.820313
29,4216.922852,4202.05127,4217.436035,4217.94873,4265.128418,4220.512695,4230.256348,4222.05127,4182.563965,4217.94873,4186.666504,4185.641113,4205.641113,4212.820313
30,4215.384766,4199.487305,4216.410156,4215.384766,4260.512695,4215.384766,4223.077148,4220.0,4170.256348,4205.128418,4182.05127,4178.974121,4202.05127,4210.769043
31,4212.820313,4200.512695,4215.897461,4213.846191,4262.563965,4214.358887,4222.563965,4215.897461,4167.179688,4205.641113,4182.563965,4176.410156,4202.05127,4216.922852
32,4216.922852,4205.128418,4213.333496,4214.358887,4264.615234,4217.436035,4225.641113,4218.461426,4173.333496,4218.974121,4181.025879,4177.436035,4204.102539,4220.512695
33,4215.897461,4203.589844,4207.179688,4215.384766,4263.589844,4217.94873,4220.0,4216.410156,4170.769043,4215.897461,4171.794922,4173.333496,4201.025879,4215.384766
34,4212.820313,4201.538574,4207.692383,4216.410156,4263.589844,4215.897461,4214.871582,4211.794922,4166.153809,4208.717773,4168.717773,4172.820313,4196.410156,4211.794922
35,4214.358887,4202.563965,4204.615234,4215.897461,4265.641113,4215.897461,4215.897461,4213.333496,4172.307617,4211.794922,4173.333496,4176.922852,4200.0,4215.897461
36,4212.820313,4201.025879,4198.974121,4216.410156,4265.641113,4216.410156,4215.897461,4216.410156,4173.846191,4214.871582,4173.333496,4180.0,4201.538574,4217.94873
37,4213.333496,4201.538574,4205.128418,4218.461426,4263.589844,4213.846191,4213.333496,4215.897461,4165.641113,4211.794922,4171.794922,4181.025879,4198.974121,4213.846191
38,4222.563965,4208.205078,4217.94873,4216.922852,4263.077148,4212.820313,4216.410156,4216.922852,4165.128418,4211.794922,4178.461426,4186.153809,4205.128418,4218.461426
39,4230.769043,4210.769043,4219.487305,4215.897461,4265.128418,4216.410156,4218.461426,4220.512695,4171.282227,4215.384766,4184.102539,4196.410156,4208.717773,4232.307617
40,4227.179688,4201.025879,4213.846191,4216.922852,4265.128418,4217.94873,4214.871582,4217.436035,4169.230957,4214.358887,4181.025879,4199.487305,4202.05127,4232.307617
41,4225.128418,4197.436035,4219.487305,4215.897461,4263.589844,4217.436035,4216.410156,4217.436035,4167.692383,4211.794922,4181.025879,4198.974121,4204.102539,4226.666504
42,4233.333496,4210.256348,4231.282227,4216.410156,4265.641113,4216.922852,4223.589844,4223.589844,4181.025879,4221.538574,4192.820313,4208.205078,4216.922852,4240.0
43,4239.487305,4214.871582,4235.384766,4220.0,4267.179688,4216.922852,4231.282227,4229.230957,4200.0,4233.846191,4200.0,4219.487305,4222.563965,4251.282227
44,4233.846191,4203.589844,4231.794922,4217.94873,4264.102539,4215.384766,4228.717773,4226.153809,4206.153809,4227.692383,4190.769043,4213.333496,4215.384766,4238.974121
45,4227.692383,4196.410156,4229.230957,4213.333496,4261.538574,4212.820313,4221.025879,4221.538574,4203.589844,4211.794922,4181.025879,4207.179688,4209.230957,4225.641113
46,4229.230957,4199.487305,4230.256348,4214.358887,4262.05127,4212.820313,4218.461426,4221.025879,4209.743652,4212.820313,4187.179688,4212.307617,4211.282227,4231.794922
47,4234.358887,4203.077148,4235.897461,4215.897461,4262.05127,4214.358887,4221.538574,4224.615234,4226.153809,4226.153809,4196.922852,4216.410156,4218.461426,4244.102539
48,4236.410156,4205.128418,4242.563965,4214.871582,4261.025879,4215.384766,4225.128418,4229.230957,4234.358887,4228.205078,4194.871582,4215.897461,4217.94873,4243.077148
49,4233.333496,4203.589844,4237.94873,4214.871582,4262.05127,4216.410156,4223.589844,4222.563965,4226.153809,4212.307617,4182.05127,4207.692383,4205.128418,4232.307617
50,4229.230957,4200.512695,4232.820313,4215.897461,4263.077148,4214.871582,4218.461426,4214.358887,4222.563965,4202.05127,4170.256348,4197.94873,4195.897461,4226.666504
51,4232.307617,4206.153809,4236.922852,4217.436035,4262.563965,4211.794922,4216.922852,4218.974121,4232.820313,4211.794922,4175.897461,4206.153809,4198.974121,4231.794922
52,4236.922852,4208.205078,4239.487305,4217.94873,4262.563965,4211.794922,4216.922852,4226.153809,4238.461426,4219.487305,4187.179688,4217.436035,4203.589844,4230.256348
53,4229.230957,4196.922852,4232.820313,4213.846191,4262.563965,4214.358887,4215.897461,4224.102539,4233.846191,4214.358887,4186.153809,4208.205078,4201.538574,4220.0
54,4216.922852,4187.179688,4225.128418,4211.794922,4263.077148,4216.922852,4216.922852,4220.512695,4238.974121,4210.256348,4180.512695,4196.922852,4197.436035,4216.410156
55,4213.846191,4188.205078,4220.0,4214.871582,4263.589844,4217.94873,4216.922852,4222.05127,4244.615234,4211.794922,4181.025879,4199.487305,4192.820313,4217.94873
56,4213.333496,4186.666504,4216.922852,4212.307617,4260.0,4216.410156,4210.769043,4217.436035,4236.410156,4210.256348,4181.025879,4201.025879,4190.769043,4216.922852
57,4215.384766,4186.666504,4224.615234,4209.230957,4260.0,4214.871582,4211.282227,4214.358887,4232.307617,4207.692383,4181.538574,4199.487305,4198.461426,4213.846191
58,4217.436035,4188.205078,4232.820313,4212.307617,4262.05127,4215.897461,4216.410156,4216.922852,4235.897461,4205.128418,4181.538574,4197.94873,4196.922852,4216.410156
59,4217.436035,4186.153809,4231.282227,4213.846191,4257.94873,4215.384766,4213.333496,4215.897461,4232.307617,4197.94873,4172.307617,4196.922852,4184.615234,4215.897461
60,4223.589844,4192.820313,4232.820313,4214.358887,4258.461426,4211.282227,4214.871582,4216.922852,4232.307617,4197.94873,4170.256348,4200.512695,4187.179688,4211.794922
61,4230.256348,4199.487305,4233.846191,4215.897461,4261.538574,4205.128418,4216.410156,4214.871582,4234.871582,4200.512695,4177.436035,4203.589844,4194.871582,4214.871582
62,4221.538574,4191.794922,4223.589844,4210.769043,4257.436035,4197.94873,4206.666504,4207.179688,4224.615234,4192.307617,4174.358887,4197.94873,4190.769043,4211.794922
63,4213.846191,4191.282227,4221.538574,4210.256348,4255.897461,4197.94873,4203.077148,4202.05127,4215.384766,4183.589844,4167.179688,4196.410156,4189.230957,4203.589844
64,4218.974121,4198.974121,4228.717773,4214.871582,4257.94873,4201.538574,4206.666504,4206.153809,4217.94873,4187.179688,4169.230957,4204.102539,4193.333496,4208.205078
65,4224.102539,4191.282227,4222.05127,4206.666504,4250.769043,4198.461426,4201.538574,4205.128418,4217.436035,4186.153809,4171.794922,4205.128418,4193.333496,4214.871582
66,4228.205078,4185.128418,4214.871582,4204.615234,4247.692383,4197.94873,4196.922852,4202.05127,4212.820313,4183.589844,4170.769043,4203.077148,4197.94873,4214.358887
67,4230.769043,4193.846191,4222.05127,4213.333496,4253.846191,4200.512695,4202.563965,4206.666504,4216.922852,4190.256348,4172.307617,4210.256348,4205.128418,4215.384766
68,4224.615234,4192.307617,4219.487305,4208.717773,4251.282227,4192.307617,4199.487305,4209.230957,4224.102539,4192.307617,4175.897461,4213.846191,4201.025879,4213.333496
69,4217.94873,4185.128418,4206.153809,4196.410156,4243.077148,4183.589844,4186.666504,4204.615234,4223.589844,4191.794922,4174.358887,4205.128418,4197.94873,4204.102539
70,4215.384766,4184.102539,4201.538574,4195.897461,4241.538574,4184.102539,4181.025879,4199.487305,4218.974121,4196.922852,4171.282227,4199.487305,4201.025879,4203.589844
71,4214.871582,4183.589844,4202.05127,4198.974121,4240.512695,4181.025879,4184.102539,4204.102539,4219.487305,4202.05127,4176.922852,4208.205078,4202.05127,4206.666504
72,4216.410156,4186.666504,4203.077148,4199.487305,4237.94873,4178.974121,4187.179688,4210.769043,4231.794922,4205.128418,4187.179688,4218.974121,4204.102539,4210.256348
73,4214.871582,4186.666504,4202.563965,4196.410156,4235.384766,4182.563965,4189.230957,4209.743652,4237.436035,4208.205078,4187.179688,4215.384766,4205.128418,4214.871582
74,4206.153809,4174.871582,4192.820313,4188.717773,4233.333496,4177.436035,4181.025879,4202.05127,4224.615234,4200.0,4177.436035,4203.589844,4195.384766,4207.692383
75,4196.922852,4166.153809,4179.487305,4183.589844,4231.282227,4172.307617,4172.307617,4194.871582,4213.333496,4186.666504,4170.769043,4197.436035,4184.102539,4195.384766
76,4189.743652,4167.179688,4172.307617,4185.641113,4232.307617,4182.563965,4176.410156,4191.794922,4213.846191,4187.179688,4166.153809,4190.256348,4181.025879,4188.205078
77,4177.94873,4157.436035,4161.538574,4185.128418,4230.256348,4183.589844,4177.436035,4190.769043,4205.641113,4182.563965,4153.846191,4167.179688,4174.358887,4175.384766
78,4173.333496,4147.692383,4152.820313,4182.05127,4222.05127,4170.769043,4166.666504,4190.769043,4195.897461,4172.307617,4144.102539,4154.358887,4162.563965,4164.615234
79,4182.05127,4157.94873,4162.563965,4182.563965,4224.615234,4175.897461,4168.717773,4200.0,4209.230957,4177.94873,4155.897461,4171.794922,4165.128418,4167.692383
80,4189.230957,4164.615234,4173.846191,4184.102539,4231.794922,4186.666504,4174.871582,4208.205078,4219.487305,4191.282227,4168.717773,4184.102539,4171.794922,4169.230957
81,4188.205078,4154.871582,4170.769043,4183.077148,4228.205078,4175.897461,4169.743652,4202.05127,4207.179688,4185.128418,4162.05127,4179.487305,4170.256348,4168.205078
82,4186.666504,4151.282227,4169.743652,4181.538574,4221.538574,4165.128418,4171.282227,4192.307617,4196.922852,4170.769043,4151.794922,4178.461426,4166.153809,4169.743652
83,4190.256348,4159.487305,4177.436035,4182.05127,4223.589844,4175.384766,4182.563965,4199.487305,4200.512695,4173.846191,4152.307617,4185.128418,4166.153809,4172.307617
84,4200.0,4167.692383,4186.153809,4186.153809,4231.794922,4188.205078,4185.128418,4211.282227,4204.615234,4186.153809,4164.102539,4197.436035,4177.436035,4181.538574
85,4205.128418,4167.692383,4191.794922,4189.230957,4234.871582,4182.563965,4182.05127,4207.692383,4202.05127,4185.128418,4167.179688,4202.563965,4185.128418,4186.153809
86,4199.487305,4165.641113,4188.717773,4188.717773,4229.743652,4173.846191,4181.538574,4196.410156,4192.307617,4171.794922,4157.436035,4192.307617,4174.358887,4172.307617
87,4201.025879,4169.743652,4189.743652,4187.179688,4225.641113,4175.384766,4182.563965,4196.922852,4183.077148,4170.256348,4154.871582,4190.769043,4173.333496,4167.692383
88,4208.717773,4172.820313,4197.94873,4190.256348,4228.717773,4176.410156,4182.563965,4201.025879,4183.589844,4178.461426,4160.512695,4202.563965,4186.666504,4183.589844
89,4207.692383,4169.743652,4198.974121,4193.846191,4229.743652,4166.666504,4181.025879,4195.897461,4185.128418,4180.512695,4161.025879,4201.538574,4187.179688,4188.205078
90,4210.769043,4176.922852,4197.94873,4196.410156,4230.256348,4170.769043,4184.615234,4196.922852,4184.102539,4182.563965,4166.666504,4201.538574,4185.128418,4186.666504
91,4218.461426,4187.179688,4201.538574,4196.410156,4232.307617,4185.641113,4190.256348,4206.666504,4184.102539,4186.153809,4175.384766,4214.871582,4199.487305,4196.922852
92,4218.461426,4181.538574,4200.0,4197.94873,4231.794922,4183.077148,4189.230957,4206.153809,4183.077148,4188.717773,4172.307617,4220.0,4201.538574,4198.461426
93,4215.897461,4173.846191,4200.0,4197.436035,4230.769043,4176.922852,4184.102539,4197.94873,4186.666504,4189.230957,4169.743652,4217.436035,4192.307617,4186.666504
94,4213.333496,4171.794922,4198.974121,4190.769043,4226.153809,4181.025879,4178.974121,4196.922852,4183.589844,4185.128418,4169.230957,4216.410156,4191.794922,4183.077148
95,4210.256348,4169.743652,4193.846191,4190.769043,4222.05127,4176.410156,4175.384766,4196.410156,4174.358887,4182.05127,4168.205078,4216.410156,4193.333496,4188.205078
96,4212.820313,4175.384766,4195.384766,4199.487305,4228.205078,4170.769043,4175.897461,4194.871582,4175.897461,4186.153809,4170.769043,4217.94873,4194.871582,4187.692383
97,4216.410156,4181.025879,4193.333496,4200.0,4233.846191,4174.871582,4174.871582,4198.461426,4179.487305,4188.717773,4172.307617,4218.461426,4199.487305,4186.666504
98,4209.743652,4173.846191,4183.077148,4196.410156,4230.769043,4174.358887,4170.769043,4200.0,4178.974121,4186.666504,4171.282227,4213.333496,4201.538574,4188.205078
99,4203.077148,4174.358887,4180.512695,4198.461426,4228.205078,4169.230957,4169.743652,4197.436035,4177.94873,4187.692383,4173.333496,4209.230957,4201.538574,4190.256348
100,4209.230957,4185.641113,4186.666504,4200.512695,4232.307617,4171.282227,4175.897461,4201.538574,4177.436035,4190.769043,4177.436035,4209.743652,4202.05127,4188.205078
101,4217.436035,4185.128418,4186.666504,4200.0,4233.333496,4173.846191,4178.461426,4203.077148,4178.461426,4188.717773,4175.897461,4208.717773,4201.538574,4183.589844
102,4216.410156,4179.487305,4185.128418,4197.436035,4226.666504,4177.94873,4177.436035,4198.461426,4182.563965,4190.769043,4173.846191,4208.205078,4203.077148,4187.179688
103,4214.358887,4184.615234,4186.153809,4194.871582,4223.077148,4183.077148,4177.436035,4198.461426,4183.589844,4201.538574,4177.436035,4214.358887,4206.153809,4197.436035
104,4211.794922,4184.615234,4182.05127,4196.922852,4226.666504,4184.615234,4179.487305,4201.025879,4183.589844,4202.05127,4177.94873,4214.871582,4203.077148,4202.563965
105,4205.641113,4176.410156,4174.871582,4200.0,4231.794922,4185.128418,4180.512695,4199.487305,4182.05127,4189.230957,4171.282227,4205.641113,4198.461426,4197.436035
106,4200.512695,4171.282227,4170.769043,4196.410156,4228.205078,4181.025879,4175.384766,4192.820313,4170.769043,4184.102539,4169.743652,4201.538574,4199.487305,4188.717773
107,4202.05127,4172.307617,4169.743652,4193.333496,4218.974121,4174.358887,4171.282227,4187.692383,4164.102539,4187.179688,4172.307617,4204.615234,4196.410156,4183.589844
108,4205.641113,4172.307617,4170.769043,4196.922852,4221.025879,4178.461426,4175.897461,4187.692383,4166.666504,4185.128418,4169.230957,4202.05127,4190.256348,4184.615234
109,4205.641113,4169.743652,4173.846191,4198.461426,4226.666504,4186.666504,4181.538574,4192.820313,4166.153809,4183.077148,4166.666504,4201.538574,4189.743652,4191.794922
110,4198.461426,4167.692383,4169.743652,4195.897461,4222.05127,4183.589844,4183.589844,4193.846191,4164.102539,4183.077148,4166.153809,4207.692383,4189.230957,4192.307617
111,4201.025879,4170.256348,4166.666504,4197.94873,4221.538574,4183.077148,4184.615234,4192.307617,4166.666504,4184.615234,4170.769043,4212.820313,4189.743652,4190.256348
112,4216.410156,4175.897461,4180.0,4204.102539,4230.769043,4191.794922,4188.205078,4196.922852,4174.358887,4193.333496,4185.128418,4218.461426,4202.563965,4200.0
113,4215.384766,4175.897461,4186.666504,4203.077148,4232.307617,4192.820313,4187.179688,4203.589844,4177.436035,4201.025879,4191.794922,4221.538574,4210.769043,4203.077148
114,4199.487305,4170.769043,4175.384766,4198.974121,4227.692383,4184.615234,4184.102539,4198.461426,4171.794922,4201.025879,4186.153809,4217.436035,4203.589844,4187.179688
115,4199.487305,4171.794922,4170.256348,4201.538574,4231.794922,4184.102539,4184.102539,4192.307617,4169.743652,4198.461426,4185.641113,4217.436035,4202.05127,4183.077148
116,4204.102539,4172.307617,4171.282227,4203.589844,4232.820313,4191.794922,4184.102539,4193.846191,4170.769043,4193.333496,4182.05127,4214.358887,4201.538574,4189.230957
117,4199.487305,4168.717773,4169.743652,4201.538574,4225.128418,4192.307617,4188.205078,4195.384766,4169.230957,4188.205078,4176.922852,4204.102539,4191.282227,4185.641113
118,4197.436035,4168.205078,4170.256348,4198.461426,4218.461426,4185.641113,4185.128418,4191.282227,4167.179688,4188.717773,4177.94873,4200.0,4187.179688,4178.974121
119,4200.512695,4168.717773,4164.615234,4197.94873,4216.410156,4182.05127,4173.333496,4189.230957,4165.641113,4185.128418,4175.897461,4200.0,4184.102539,4171.282227
120,4199.487305,4167.692383,4158.974121,4198.461426,4216.410156,4183.077148,4173.846191,4191.282227,4165.128418,4179.487305,4173.846191,4197.94873,4181.538574,4166.666504
121,4202.05127,4169.230957,4168.205078,4200.0,4216.410156,4185.128418,4185.128418,4194.358887,4169.230957,4189.743652,4182.563965,4206.666504,4189.743652,4175.897461
122,4206.666504,4171.794922,4174.358887,4200.512695,4217.436035,4186.153809,4185.641113,4193.333496,4172.307617,4200.0,4189.230957,4215.897461,4195.384766,4187.692383
123,4207.692383,4168.717773,4168.717773,4199.487305,4217.94873,4185.641113,4178.974121,4188.205078,4168.205078,4190.256348,4184.102539,4214.871582,4185.128418,4183.077148
124,4211.794922,4170.769043,4175.897461,4200.512695,4217.94873,4187.692383,4184.102539,4189.230957,4165.641113,4184.102539,4184.102539,4222.563965,4184.615234,4176.922852
125,4218.461426,4179.487305,4189.230957,4203.589844,4218.974121,4188.205078,4192.307617,4194.358887,4168.717773,4194.358887,4193.846191,4238.461426,4196.410156,4190.256348
126,4217.436035,4176.410156,4185.128418,4202.05127,4216.922852,4185.641113,4188.717773,4193.846191,4169.230957,4203.589844,4201.538574,4241.538574,4193.846191,4198.974121
127,4215.384766,4167.179688,4180.0,4195.384766,4209.743652,4185.128418,4183.077148,4192.820313,4167.179688,4196.922852,4198.461426,4242.563965,4185.641113,4188.717773
