,AF3,F7,F3,FC5,T7,P7,O1,O2,P8,T8,FC6,F4,F8,AF4
0,4231.282227,4301.025879,4215.384766,4218.461426,4216.410156,4220.0,4216.410156,4201.538574,4170.256348,4209.743652,4200.512695,4227.179688,4201.538574,4222.05127
1,4231.282227,4310.769043,4216.410156,4219.487305,4218.974121,4218.461426,4214.871582,4205.641113,4196.922852,4227.692383,4207.692383,4232.820313,4216.410156,4232.307617
2,4228.205078,4312.307617,4213.333496,4217.436035,4225.128418,4219.487305,4207.179688,4202.563965,4203.077148,4223.589844,4202.563965,4232.307617,4207.179688,4221.538574
3,4228.205078,4311.282227,4212.820313,4217.94873,4223.589844,4215.384766,4200.0,4200.0,4197.94873,4214.358887,4204.615234,4229.743652,4198.974121,4219.487305
4,4230.769043,4315.384766,4212.820313,4217.436035,4216.922852,4203.589844,4194.871582,4201.025879,4205.641113,4218.974121,4215.897461,4232.307617,4211.794922,4230.256348
5,4233.846191,4322.563965,4212.307617,4216.922852,4218.974121,4203.077148,4192.820313,4203.077148,4213.846191,4229.743652,4213.846191,4241.025879,4221.025879,4236.922852
6,4235.897461,4324.615234,4214.358887,4216.922852,4228.205078,4213.846191,4198.461426,4204.615234,4207.692383,4234.871582,4207.692383,4245.641113,4215.897461,4238.461426
7,4233.333496,4323.077148,4216.922852,4216.410156,4225.128418,4217.436035,4202.05127,4203.589844,4194.871582,4228.205078,4212.820313,4242.563965,4211.794922,4235.384766
8,4237.94873,4326.153809,4219.487305,4217.436035,4218.974121,4215.897461,4201.025879,4203.589844,4186.666504,4225.128418,4217.94873,4246.153809,4215.897461,4239.487305
9,4245.128418,4330.256348,4222.05127,4216.922852,4223.077148,4218.461426,4204.102539,4204.102539,4183.077148,4229.230957,4215.897461,4251.794922,4222.563965,4251.794922
10,4239.487305,4327.692383,4220.0,4215.897461,4222.563965,4213.846191,4204.615234,4201.538574,4186.153809,4222.05127,4216.922852,4248.205078,4221.538574,4250.769043
11,4229.743652,4324.615234,4217.94873,4214.358887,4214.871582,4202.563965,4198.974121,4206.666504,4196.410156,4211.282227,4215.384766,4246.153809,4210.769043,4239.487305
12,4226.153809,4323.077148,4214.358887,4206.153809,4212.307617,4200.512695,4198.974121,4215.384766,4203.077148,4216.922852,4207.179688,4245.128418,4201.538574,4236.922852
13,4220.0,4317.94873,4205.641113,4200.512695,4215.897461,4203.589844,4201.025879,4214.358887,4202.563965,4217.436035,4197.436035,4234.871582,4196.922852,4234.358887
14,4211.282227,4317.94873,4200.0,4204.102539,4215.384766,4204.615234,4198.974121,4207.179688,4200.0,4204.615234,4193.846191,4227.179688,4196.922852,4225.641113
15,4211.794922,4325.128418,4202.05127,4206.153809,4214.358887,4207.179688,4199.487305,4204.615234,4203.077148,4205.641113,4200.0,4230.256348,4198.461426,4223.077148
16,4212.820313,4326.153809,4206.153809,4207.179688,4214.358887,4207.692383,4200.512695,4203.077148,4202.563965,4217.94873,4204.102539,4231.794922,4202.05127,4227.692383
17,4210.769043,4326.153809,4210.256348,4213.846191,4214.871582,4200.512695,4203.077148,4203.077148,4191.794922,4218.974121,4201.025879,4233.333496,4208.717773,4231.794922
18,4213.333496,4332.820313,4214.358887,4216.410156,4216.922852,4203.589844,4211.282227,4203.077148,4183.589844,4212.307617,4206.666504,4235.897461,4213.333496,4230.769043
19,4219.487305,4340.512695,4216.922852,4215.384766,4216.922852,4213.846191,4215.384766,4202.563965,4188.717773,4215.384766,4220.512695,4238.461426,4218.461426,4231.282227
20,4221.025879,4343.589844,4218.461426,4220.0,4216.410156,4213.846191,4214.358887,4206.666504,4199.487305,4223.077148,4220.512695,4240.0,4216.410156,4235.897461
21,4217.94873,4338.974121,4217.94873,4218.974121,4215.897461,4211.282227,4214.871582,4209.743652,4202.05127,4220.0,4207.692383,4238.974121,4204.102539,4233.333496
22,4223.077148,4336.410156,4218.974121,4214.871582,4214.358887,4210.256348,4213.846191,4205.128418,4199.487305,4214.871582,4201.025879,4237.94873,4203.589844,4227.692383
23,4232.820313,4349.743652,4228.205078,4222.563965,4215.384766,4205.128418,4210.769043,4202.05127,4204.102539,4217.436035,4203.077148,4245.128418,4213.846191,4231.282227
24,4235.897461,4361.025879,4235.384766,4233.333496,4218.974121,4203.589844,4212.820313,4205.128418,4207.179688,4213.333496,4207.179688,4250.256348,4210.769043,4236.922852
25,4231.794922,4354.358887,4229.743652,4228.717773,4218.974121,4203.589844,4212.820313,4205.128418,4199.487305,4199.487305,4200.0,4241.538574,4195.384766,4230.769043
26,4222.05127,4346.153809,4224.102539,4221.025879,4216.410156,4199.487305,4208.717773,4202.563965,4192.820313,4195.384766,4183.077148,4231.794922,4186.666504,4224.102539
27,4217.436035,4350.769043,4226.153809,4224.102539,4217.436035,4207.692383,4214.358887,4209.230957,4196.410156,4202.563965,4187.692383,4234.871582,4189.230957,4226.666504
28,4222.05127,4355.384766,4225.128418,4227.179688,4221.538574,4216.410156,4223.077148,4215.384766,4200.0,4204.615234,4206.666504,4239.487305,4194.358887,4223.589844
29,4214.871582,4344.615234,4213.846191,4216.410156,4215.897461,4206.666504,4214.871582,4206.666504,4197.436035,4200.512695,4202.563965,4233.846191,4188.717773,4211.794922
30,4196.922852,4329.230957,4202.05127,4202.563965,4205.128418,4197.94873,4202.05127,4197.94873,4197.94873,4196.922852,4184.102539,4224.615234,4179.487305,4202.05127
31,4195.384766,4331.282227,4202.05127,4205.128418,4206.666504,4201.538574,4202.05127,4202.563965,4204.615234,4201.538574,4189.230957,4228.205078,4183.589844,4202.05127
32,4205.641113,4344.102539,4211.282227,4215.897461,4215.897461,4202.05127,4205.641113,4206.153809,4213.333496,4207.692383,4206.153809,4235.384766,4189.230957,4212.820313
33,4202.05127,4340.512695,4208.205078,4215.384766,4216.410156,4199.487305,4200.512695,4202.05127,4216.922852,4203.589844,4198.461426,4229.230957,4184.615234,4215.384766
34,4198.974121,4335.384766,4201.538574,4211.794922,4213.846191,4199.487305,4198.461426,4206.153809,4216.410156,4203.077148,4191.282227,4222.563965,4188.717773,4207.692383
35,4207.179688,4345.128418,4210.256348,4216.922852,4216.410156,4202.05127,4208.717773,4215.897461,4218.974121,4216.410156,4206.153809,4230.769043,4202.563965,4212.820313
36,4207.179688,4347.692383,4214.871582,4220.0,4216.922852,4209.743652,4216.410156,4214.871582,4219.487305,4220.512695,4210.769043,4236.922852,4202.563965,4222.05127
37,4200.0,4337.94873,4204.615234,4215.384766,4217.436035,4214.358887,4217.436035,4207.179688,4212.307617,4209.230957,4198.974121,4230.256348,4190.769043,4214.871582
38,4194.871582,4332.820313,4200.0,4209.230957,4213.846191,4207.692383,4214.871582,4203.589844,4202.563965,4200.512695,4195.384766,4220.0,4188.717773,4203.077148
39,4192.820313,4332.820313,4200.512695,4206.153809,4206.153809,4200.512695,4206.153809,4200.0,4197.436035,4198.461426,4194.871582,4213.333496,4192.307617,4200.0
40,4197.436035,4338.461426,4201.025879,4212.820313,4208.717773,4201.025879,4203.077148,4199.487305,4204.615234,4207.179688,4200.0,4220.0,4199.487305,4210.256348
41,4203.077148,4344.102539,4203.077148,4217.94873,4216.410156,4201.025879,4205.128418,4203.589844,4217.94873,4221.538574,4211.794922,4230.256348,4208.717773,4219.487305
42,4200.0,4337.436035,4200.512695,4213.333496,4213.333496,4200.512695,4203.589844,4203.077148,4220.0,4220.512695,4206.153809,4223.589844,4206.153809,4207.692383
43,4195.384766,4330.769043,4196.410156,4210.256348,4209.743652,4205.641113,4206.153809,4206.153809,4221.025879,4212.307617,4196.410156,4213.333496,4195.384766,4193.846191
44,4197.94873,4338.974121,4201.538574,4215.384766,4213.333496,4208.205078,4212.820313,4217.94873,4233.846191,4216.410156,4203.589844,4216.410156,4196.410156,4201.538574
45,4200.512695,4341.538574,4202.563965,4213.846191,4209.230957,4205.641113,4209.230957,4218.974121,4235.897461,4217.94873,4205.128418,4217.436035,4201.538574,4206.666504
46,4197.436035,4329.230957,4195.897461,4206.666504,4202.563965,4201.538574,4201.025879,4204.102539,4216.410156,4206.153809,4197.436035,4214.871582,4195.897461,4197.94873
47,4197.436035,4329.743652,4198.974121,4209.743652,4206.666504,4202.05127,4203.077148,4196.410156,4200.0,4198.974121,4196.410156,4215.384766,4191.282227,4202.563965
48,4209.230957,4345.128418,4209.230957,4220.0,4214.871582,4204.102539,4206.153809,4200.512695,4199.487305,4202.05127,4201.538574,4219.487305,4199.487305,4218.461426
49,4220.0,4347.692383,4208.205078,4221.538574,4212.307617,4195.897461,4201.538574,4202.05127,4201.538574,4205.641113,4204.615234,4226.666504,4207.179688,4219.487305
50,4219.487305,4345.128418,4204.615234,4218.461426,4202.05127,4186.153809,4197.94873,4200.0,4203.589844,4205.641113,4205.128418,4234.358887,4208.205078,4221.025879
51,4217.94873,4353.846191,4212.820313,4221.538574,4200.512695,4190.256348,4201.025879,4200.512695,4212.820313,4202.563965,4203.589844,4233.333496,4207.692383,4230.769043
52,4218.974121,4357.436035,4216.922852,4222.05127,4204.102539,4198.974121,4202.05127,4201.025879,4213.846191,4199.487305,4205.641113,4229.230957,4207.179688,4228.717773
53,4218.974121,4349.743652,4208.205078,4218.461426,4202.05127,4198.974121,4198.974121,4204.102539,4206.666504,4200.0,4202.05127,4227.179688,4202.563965,4218.461426
54,4212.307617,4344.615234,4202.563965,4219.487305,4200.0,4199.487305,4200.512695,4209.230957,4202.05127,4197.94873,4190.256348,4223.077148,4193.846191,4210.256348
55,4201.025879,4336.410156,4201.025879,4213.333496,4201.538574,4201.025879,4201.538574,4208.205078,4190.769043,4186.666504,4183.077148,4214.871582,4183.077148,4198.974121
56,4195.897461,4328.205078,4196.922852,4201.538574,4201.025879,4199.487305,4198.974121,4209.743652,4186.153809,4181.538574,4186.153809,4209.230957,4178.974121,4192.820313
57,4197.436035,4331.282227,4195.897461,4201.538574,4202.563965,4196.410156,4198.461426,4213.333496,4200.512695,4190.769043,4188.205078,4209.743652,4185.128418,4197.436035
58,4196.922852,4342.563965,4198.974121,4211.282227,4204.102539,4190.769043,4200.0,4208.205078,4209.230957,4197.94873,4186.153809,4212.307617,4188.205078,4193.333496
59,4198.974121,4350.256348,4202.563965,4213.333496,4203.077148,4186.153809,4194.871582,4203.077148,4202.563965,4195.897461,4192.307617,4212.820313,4185.128418,4187.179688
60,4203.589844,4351.282227,4202.563965,4213.846191,4202.05127,4184.615234,4188.205078,4201.538574,4198.461426,4195.384766,4201.538574,4213.846191,4191.282227,4194.871582
61,4204.102539,4351.282227,4203.077148,4216.922852,4201.538574,4186.666504,4192.307617,4202.05127,4201.025879,4201.025879,4203.077148,4215.384766,4202.563965,4205.641113
62,4202.05127,4356.410156,4211.282227,4217.436035,4203.077148,4193.846191,4201.025879,4208.717773,4201.538574,4197.94873,4201.025879,4218.461426,4204.102539,4206.153809
63,4203.077148,4358.461426,4214.358887,4218.461426,4204.615234,4192.820313,4200.0,4211.282227,4194.871582,4189.230957,4203.077148,4219.487305,4200.512695,4204.102539
64,4205.128418,4348.717773,4205.128418,4214.358887,4201.025879,4185.641113,4197.436035,4207.692383,4183.077148,4191.282227,4203.589844,4216.922852,4200.0,4206.153809
65,4198.974121,4340.512695,4200.0,4205.128418,4199.487305,4185.641113,4197.94873,4213.333496,4185.641113,4194.358887,4197.94873,4214.871582,4199.487305,4201.538574
66,4188.717773,4341.025879,4200.0,4202.563965,4200.512695,4187.692383,4191.794922,4216.410156,4200.0,4195.384766,4193.333496,4211.794922,4200.0,4197.94873
67,4187.692383,4342.563965,4197.94873,4204.102539,4197.436035,4186.153809,4184.102539,4204.615234,4204.102539,4196.922852,4191.794922,4206.666504,4194.871582,4197.436035
68,4187.692383,4338.461426,4195.897461,4203.077148,4195.897461,4186.153809,4180.512695,4197.94873,4201.538574,4193.333496,4186.666504,4200.512695,4185.128418,4188.205078
69,4185.641113,4337.94873,4197.436035,4201.025879,4195.384766,4186.666504,4173.846191,4201.025879,4204.102539,4187.692383,4184.102539,4202.05127,4189.743652,4180.512695
70,4189.230957,4339.487305,4197.94873,4198.461426,4191.282227,4183.589844,4171.282227,4198.974121,4195.384766,4188.717773,4190.256348,4206.153809,4200.0,4189.743652
71,4200.0,4342.05127,4203.589844,4203.589844,4194.358887,4182.563965,4180.0,4196.922852,4185.641113,4196.410156,4201.538574,4212.820313,4208.205078,4208.717773
72,4212.307617,4354.871582,4215.384766,4217.436035,4202.05127,4185.641113,4189.230957,4200.512695,4197.94873,4207.179688,4212.307617,4227.692383,4222.05127,4222.05127
73,4217.436035,4361.538574,4219.487305,4219.487305,4202.563965,4187.179688,4189.230957,4202.05127,4198.974121,4212.820313,4216.922852,4234.358887,4227.179688,4225.641113
74,4215.384766,4353.333496,4212.307617,4211.794922,4199.487305,4183.589844,4186.153809,4199.487305,4184.615234,4203.077148,4215.384766,4223.077148,4219.487305,4220.512695
75,4212.307617,4352.820313,4208.205078,4213.846191,4200.0,4182.05127,4188.205078,4201.025879,4192.307617,4198.461426,4214.358887,4214.358887,4217.94873,4212.820313
76,4208.717773,4356.410156,4209.743652,4214.871582,4200.512695,4185.128418,4188.205078,4205.128418,4206.666504,4202.563965,4208.717773,4218.974121,4212.820313,4211.282227
77,4204.102539,4346.666504,4207.692383,4203.077148,4197.94873,4184.615234,4189.743652,4206.666504,4202.563965,4194.871582,4198.974121,4220.512695,4198.974121,4212.307617
78,4203.077148,4342.05127,4203.589844,4199.487305,4192.820313,4185.641113,4198.974121,4205.128418,4202.563965,4189.743652,4198.974121,4217.436035,4196.922852,4206.153809
79,4201.538574,4346.153809,4200.0,4203.077148,4193.333496,4187.179688,4201.538574,4202.05127,4203.589844,4194.871582,4197.436035,4215.384766,4201.538574,4197.436035
80,4198.974121,4347.179688,4198.974121,4202.05127,4198.461426,4185.128418,4197.94873,4199.487305,4199.487305,4193.846191,4189.230957,4215.897461,4200.512695,4201.025879
81,4201.025879,4347.692383,4199.487305,4204.102539,4202.05127,4190.769043,4202.05127,4199.487305,4196.922852,4188.205078,4191.282227,4213.846191,4198.461426,4206.666504
82,4198.974121,4345.128418,4200.0,4204.102539,4202.563965,4203.077148,4201.025879,4198.974121,4189.743652,4185.128418,4198.461426,4209.743652,4197.436035,4197.94873
83,4193.846191,4343.077148,4196.922852,4201.025879,4202.05127,4200.512695,4191.794922,4198.461426,4187.692383,4185.128418,4199.487305,4206.666504,4198.974121,4185.641113
84,4197.436035,4349.743652,4197.94873,4206.666504,4201.538574,4189.743652,4188.717773,4199.487305,4198.974121,4190.256348,4200.512695,4207.692383,4201.025879,4184.615234
85,4195.384766,4350.256348,4201.538574,4210.256348,4202.563965,4187.179688,4192.820313,4199.487305,4208.205078,4198.461426,4200.0,4207.692383,4202.563965,4188.717773
86,4187.692383,4341.025879,4196.922852,4202.563965,4202.05127,4187.692383,4195.384766,4203.077148,4212.307617,4203.077148,4198.974121,4208.717773,4198.461426,4188.205078
87,4188.717773,4340.512695,4192.820313,4199.487305,4200.512695,4184.102539,4193.333496,4210.769043,4220.512695,4205.641113,4203.077148,4212.820313,4190.256348,4188.205078
88,4191.794922,4344.102539,4196.410156,4202.563965,4201.538574,4183.589844,4187.179688,4210.769043,4217.436035,4206.153809,4198.974121,4211.794922,4187.179688,4187.179688
89,4193.846191,4343.589844,4198.461426,4201.025879,4199.487305,4185.641113,4184.615234,4203.589844,4206.666504,4198.461426,4187.692383,4211.282227,4190.256348,4184.615234
90,4195.384766,4342.05127,4195.384766,4199.487305,4197.94873,4186.153809,4184.615234,4195.384766,4198.461426,4190.256348,4183.077148,4212.307617,4188.205078,4186.153809
91,4196.410156,4345.641113,4197.436035,4201.538574,4200.0,4187.179688,4184.102539,4191.794922,4185.641113,4185.128418,4183.589844,4210.256348,4183.077148,4191.794922
92,4205.128418,4349.230957,4203.589844,4201.538574,4201.025879,4188.717773,4187.179688,4194.358887,4181.025879,4184.102539,4188.717773,4213.333496,4191.794922,4200.0
93,4212.820313,4344.102539,4204.102539,4198.461426,4200.512695,4188.205078,4189.230957,4199.487305,4191.794922,4191.282227,4197.94873,4220.512695,4204.102539,4211.282227
94,4204.102539,4336.410156,4200.512695,4194.358887,4193.333496,4184.615234,4185.128418,4204.615234,4199.487305,4198.461426,4203.077148,4222.05127,4202.05127,4211.794922
95,4197.436035,4336.410156,4198.461426,4194.871582,4190.256348,4185.641113,4190.769043,4210.769043,4206.153809,4203.589844,4200.512695,4218.974121,4197.94873,4201.538574
96,4203.589844,4340.512695,4200.0,4199.487305,4197.436035,4196.410156,4203.077148,4218.461426,4218.974121,4207.179688,4201.025879,4218.974121,4202.05127,4198.461426
97,4203.589844,4335.897461,4198.974121,4199.487305,4200.512695,4201.538574,4206.153809,4215.384766,4215.897461,4206.153809,4204.102539,4220.512695,4205.641113,4205.641113
98,4197.94873,4327.179688,4192.307617,4194.358887,4196.922852,4195.384766,4196.922852,4205.128418,4200.0,4199.487305,4201.025879,4216.410156,4198.974121,4196.922852
99,4188.717773,4322.05127,4182.05127,4185.128418,4196.922852,4191.794922,4186.153809,4199.487305,4196.922852,4189.230957,4189.743652,4203.589844,4183.077148,4171.794922
100,4180.512695,4321.025879,4175.384766,4179.487305,4197.436035,4195.897461,4182.563965,4197.94873,4200.0,4185.128418,4178.461426,4193.846191,4173.333496,4168.205078
101,4189.743652,4324.102539,4178.974121,4189.743652,4200.0,4198.461426,4185.128418,4197.436035,4199.487305,4192.307617,4180.512695,4198.461426,4180.512695,4184.102539
102,4201.538574,4332.307617,4190.256348,4201.538574,4207.179688,4198.974121,4187.179688,4197.436035,4201.538574,4200.0,4190.769043,4203.589844,4191.794922,4188.717773
103,4203.077148,4341.025879,4197.94873,4200.512695,4207.179688,4198.461426,4184.102539,4199.487305,4202.563965,4202.05127,4192.820313,4204.615234,4196.410156,4189.743652
104,4205.641113,4343.589844,4200.512695,4198.974121,4203.077148,4197.94873,4185.128418,4201.025879,4199.487305,4206.666504,4192.820313,4211.282227,4199.487305,4199.487305
105,4214.871582,4343.077148,4203.077148,4202.563965,4201.538574,4198.461426,4193.846191,4201.538574,4198.974121,4209.743652,4201.538574,4217.94873,4202.05127,4206.153809
106,4221.025879,4340.0,4205.128418,4200.512695,4199.487305,4198.974121,4203.077148,4202.563965,4200.512695,4202.05127,4207.179688,4217.94873,4202.05127,4208.717773
107,4212.307617,4329.230957,4204.102539,4194.358887,4199.487305,4203.077148,4203.589844,4203.589844,4198.461426,4194.871582,4201.538574,4217.94873,4203.077148,4208.205078
108,4203.077148,4327.179688,4201.538574,4195.897461,4202.563965,4206.666504,4200.512695,4202.563965,4203.589844,4204.102539,4198.461426,4217.94873,4204.102539,4202.05127
109,4205.641113,4335.897461,4203.077148,4201.538574,4203.589844,4202.563965,4200.512695,4202.05127,4215.384766,4217.436035,4205.128418,4218.461426,4203.589844,4202.05127
110,4207.692383,4333.333496,4201.538574,4195.384766,4202.563965,4198.974121,4197.436035,4202.05127,4218.461426,4210.769043,4204.102539,4217.436035,4199.487305,4203.077148
111,4201.025879,4323.589844,4197.436035,4186.153809,4202.05127,4202.05127,4191.282227,4200.0,4214.358887,4204.615234,4195.897461,4212.307617,4196.922852,4199.487305
112,4200.512695,4324.102539,4197.94873,4186.153809,4201.025879,4200.0,4186.153809,4196.922852,4209.230957,4213.846191,4193.846191,4210.256348,4200.512695,4196.922852
113,4205.128418,4330.256348,4200.0,4191.794922,4203.589844,4195.384766,4185.128418,4196.922852,4202.563965,4213.333496,4195.384766,4211.282227,4203.077148,4193.333496
114,4203.589844,4329.230957,4196.410156,4195.384766,4208.205078,4197.436035,4184.615234,4198.974121,4202.05127,4207.179688,4198.461426,4208.717773,4199.487305,4192.307617
115,4203.077148,4323.077148,4191.282227,4192.307617,4206.153809,4201.025879,4184.102539,4200.0,4204.102539,4216.410156,4200.0,4203.589844,4197.436035,4192.820313
116,4203.589844,4321.538574,4189.230957,4188.205078,4203.077148,4200.512695,4189.743652,4198.974121,4199.487305,4218.974121,4196.922852,4204.102539,4201.025879,4188.717773
117,4203.077148,4324.102539,4191.794922,4189.743652,4204.102539,4202.563965,4197.94873,4197.436035,4196.922852,4204.102539,4189.743652,4202.563965,4196.922852,4189.743652
118,4207.179688,4325.641113,4197.94873,4195.384766,4207.179688,4204.102539,4199.487305,4198.974121,4202.05127,4202.563965,4191.282227,4200.512695,4190.769043,4198.461426
119,4215.897461,4329.230957,4203.589844,4198.461426,4207.692383,4201.025879,4196.922852,4200.512695,4210.256348,4212.307617,4200.0,4209.230957,4201.538574,4207.692383
120,4221.025879,4335.897461,4203.589844,4200.0,4206.153809,4202.05127,4200.0,4201.538574,4218.461426,4208.717773,4201.538574,4219.487305,4210.769043,4216.922852
121,4213.333496,4332.820313,4201.025879,4201.025879,4206.666504,4204.102539,4203.077148,4202.563965,4216.410156,4197.436035,4201.538574,4216.410156,4204.102539,4215.897461
122,4205.641113,4327.692383,4198.974121,4197.436035,4206.153809,4201.538574,4198.461426,4200.512695,4207.692383,4197.94873,4200.512695,4207.692383,4198.461426,4202.05127
123,4203.077148,4326.153809,4194.358887,4192.307617,4203.077148,4199.487305,4195.384766,4198.974121,4202.563965,4207.179688,4189.743652,4202.563965,4196.922852,4196.922852
124,4201.538574,4318.461426,4190.769043,4186.666504,4200.0,4200.512695,4197.94873,4201.025879,4204.615234,4210.256348,4182.05127,4202.05127,4191.794922,4198.974121
125,4205.128418,4314.358887,4195.897461,4185.641113,4202.05127,4201.025879,4199.487305,4202.563965,4213.333496,4212.820313,4193.333496,4208.205078,4198.461426,4201.538574
126,4213.846191,4321.538574,4200.512695,4192.820313,4209.230957,4202.05127,4200.0,4202.563965,4219.487305,4219.487305,4207.179688,4216.410156,4211.282227,4209.743652
127,4218.461426,4327.179688,4202.05127,4200.0,4212.820313,4203.077148,4201.538574,4204.615234,4216.922852,4223.589844,4206.153809,4220.512695,4212.820313,4216.410156
