,AF3,F7,F3,FC5,T7,P7,O1,O2,P8,T8,FC6,F4,F8,AF4
0,4253.846191,4213.333496,4205.641113,4248.205078,4213.846191,4217.436035,4231.794922,4213.333496,4240.512695,4221.025879,4233.333496,4229.230957,4227.179688,4233.333496
1,4233.846191,4212.820313,4205.641113,4247.179688,4210.256348,4220.0,4233.846191,4213.333496,4237.436035,4214.871582,4232.820313,4227.179688,4231.794922,4229.743652
2,4236.922852,4204.102539,4205.641113,4246.666504,4209.230957,4216.922852,4231.794922,4212.820313,4238.461426,4220.0,4234.871582,4230.769043,4240.0,4236.922852
3,4252.820313,4204.615234,4205.128418,4247.179688,4214.358887,4213.846191,4229.230957,4214.358887,4237.436035,4220.0,4232.820313,4231.282227,4248.717773,4243.077148
4,4248.717773,4212.820313,4204.615234,4247.179688,4214.871582,4214.358887,4229.743652,4213.846191,4241.025879,4215.384766,4229.230957,4222.563965,4248.205078,4234.358887
5,4245.641113,4215.897461,4202.563965,4248.717773,4213.846191,4215.897461,4233.333496,4217.436035,4249.230957,4226.153809,4230.769043,4224.102539,4247.179688,4231.282227
6,4252.307617,4211.282227,4203.589844,4246.153809,4214.871582,4214.871582,4235.897461,4224.102539,4251.282227,4234.871582,4233.333496,4230.256348,4248.717773,4235.897461
7,4240.512695,4202.563965,4203.589844,4237.94873,4207.692383,4213.333496,4235.384766,4224.102539,4248.205078,4225.128418,4230.256348,4224.102539,4247.692383,4229.743652
8,4226.666504,4198.974121,4202.563965,4232.820313,4202.563965,4214.871582,4235.384766,4220.512695,4245.641113,4218.461426,4223.077148,4217.436035,4245.641113,4225.641113
9,4232.820313,4196.922852,4206.153809,4231.794922,4207.692383,4213.333496,4232.820313,4214.871582,4234.871582,4215.897461,4216.922852,4218.461426,4237.94873,4225.641113
10,4235.384766,4197.94873,4206.153809,4232.820313,4211.282227,4209.743652,4228.205078,4203.589844,4217.94873,4203.589844,4213.846191,4214.358887,4227.179688,4217.436035
11,4230.769043,4208.717773,4203.077148,4234.871582,4212.307617,4209.230957,4228.205078,4198.461426,4216.410156,4198.974121,4216.410156,4207.692383,4228.205078,4214.871582
12,4236.922852,4211.794922,4202.05127,4234.871582,4212.820313,4207.692383,4228.717773,4202.05127,4225.641113,4204.102539,4214.358887,4203.589844,4234.871582,4218.974121
13,4232.307617,4198.974121,4205.128418,4230.769043,4208.205078,4202.563965,4224.102539,4199.487305,4224.102539,4199.487305,4204.102539,4197.94873,4229.230957,4216.410156
14,4213.846191,4196.922852,4205.128418,4231.282227,4207.179688,4201.538574,4225.128418,4197.436035,4220.0,4200.512695,4204.102539,4196.922852,4224.615234,4210.256348
15,4218.974121,4209.230957,4204.615234,4235.897461,4213.333496,4204.102539,4234.358887,4210.256348,4233.333496,4215.897461,4217.94873,4203.077148,4233.333496,4214.358887
16,4236.922852,4210.769043,4204.102539,4234.358887,4213.333496,4204.102539,4235.897461,4218.974121,4244.615234,4219.487305,4221.025879,4206.153809,4238.974121,4223.589844
17,4234.358887,4201.025879,4204.615234,4229.743652,4205.641113,4202.563965,4231.794922,4214.871582,4242.05127,4215.384766,4214.871582,4204.102539,4234.358887,4226.153809
18,4228.717773,4197.94873,4205.128418,4229.230957,4203.589844,4202.05127,4231.794922,4214.358887,4243.589844,4222.05127,4221.538574,4202.563965,4234.871582,4226.666504
19,4226.666504,4202.563965,4203.589844,4230.256348,4205.128418,4203.077148,4235.384766,4221.025879,4245.128418,4226.153809,4225.128418,4205.641113,4237.94873,4226.153809
20,4215.897461,4201.025879,4201.538574,4230.769043,4203.589844,4204.615234,4234.358887,4217.94873,4236.410156,4216.922852,4216.922852,4205.128418,4232.820313,4220.512695
21,4212.307617,4191.282227,4201.025879,4226.666504,4202.563965,4202.563965,4231.794922,4205.128418,4227.179688,4208.205078,4212.307617,4201.538574,4226.153809,4214.358887
22,4215.384766,4189.230957,4202.05127,4220.0,4203.589844,4203.589844,4232.307617,4201.538574,4229.230957,4210.256348,4214.358887,4202.05127,4222.563965,4215.897461
23,4212.307617,4190.256348,4204.615234,4224.102539,4205.641113,4209.230957,4234.871582,4207.692383,4231.282227,4214.358887,4215.897461,4204.615234,4221.025879,4218.461426
24,4213.846191,4186.666504,4205.641113,4230.769043,4206.666504,4207.692383,4230.769043,4206.153809,4227.179688,4211.794922,4210.256348,4200.512695,4216.922852,4213.333496
25,4210.256348,4183.077148,4204.615234,4224.102539,4204.102539,4201.538574,4228.205078,4201.538574,4226.153809,4207.692383,4207.179688,4196.922852,4212.820313,4210.769043
26,4199.487305,4184.102539,4204.615234,4215.897461,4201.538574,4202.05127,4233.333496,4207.692383,4229.743652,4210.256348,4210.256348,4199.487305,4212.820313,4212.820313
27,4198.461426,4184.102539,4205.641113,4216.410156,4203.077148,4203.589844,4234.358887,4213.846191,4233.846191,4213.846191,4212.820313,4200.0,4215.384766,4211.794922
28,4202.563965,4184.615234,4203.077148,4217.94873,4204.102539,4200.0,4233.333496,4214.358887,4233.846191,4215.384766,4212.820313,4198.974121,4213.846191,4210.256348
29,4207.692383,4183.589844,4201.025879,4216.922852,4202.563965,4200.512695,4241.538574,4215.384766,4232.307617,4214.871582,4212.307617,4198.974121,4209.230957,4211.282227
30,4215.897461,4184.102539,4206.153809,4218.974121,4203.077148,4203.589844,4248.205078,4219.487305,4239.487305,4218.461426,4217.436035,4202.05127,4213.846191,4216.922852
31,4208.205078,4188.717773,4207.179688,4219.487305,4204.615234,4202.563965,4244.615234,4220.512695,4248.205078,4225.641113,4225.641113,4206.153809,4225.128418,4224.102539
32,4196.410156,4188.205078,4202.05127,4217.436035,4204.615234,4201.538574,4241.025879,4215.897461,4242.563965,4223.077148,4225.641113,4207.692383,4225.641113,4227.179688
33,4211.282227,4191.794922,4201.538574,4224.102539,4206.666504,4202.05127,4240.512695,4214.871582,4232.820313,4217.94873,4222.563965,4209.230957,4222.563965,4230.256348
34,4223.077148,4197.94873,4205.128418,4228.717773,4207.179688,4201.025879,4235.384766,4214.871582,4231.794922,4220.0,4223.589844,4209.230957,4227.179688,4228.717773
35,4210.769043,4190.769043,4204.615234,4221.538574,4204.102539,4200.0,4230.769043,4205.641113,4230.256348,4215.897461,4220.0,4205.641113,4222.563965,4220.0
36,4197.94873,4181.538574,4206.153809,4219.487305,4206.666504,4201.025879,4233.846191,4198.974121,4227.692383,4209.230957,4214.871582,4207.692383,4212.307617,4219.487305
37,4197.436035,4184.102539,4206.153809,4225.641113,4214.358887,4205.128418,4242.05127,4207.692383,4231.282227,4214.358887,4217.94873,4214.871582,4215.897461,4229.743652
38,4202.563965,4187.692383,4205.641113,4223.077148,4213.846191,4209.230957,4247.692383,4214.358887,4233.333496,4213.846191,4218.461426,4211.794922,4220.0,4229.743652
39,4204.102539,4185.128418,4207.179688,4215.384766,4207.179688,4211.282227,4247.692383,4212.820313,4230.256348,4203.589844,4211.794922,4206.666504,4213.333496,4223.077148
40,4201.025879,4186.153809,4207.692383,4218.974121,4209.743652,4212.820313,4248.717773,4213.846191,4231.282227,4206.153809,4214.358887,4212.820313,4213.333496,4225.641113
41,4210.256348,4190.256348,4205.641113,4224.615234,4215.897461,4212.307617,4250.769043,4217.94873,4238.461426,4217.94873,4225.641113,4218.461426,4224.102539,4235.384766
42,4224.615234,4197.436035,4204.615234,4228.717773,4217.436035,4208.717773,4250.256348,4223.077148,4244.615234,4226.153809,4236.922852,4223.589844,4234.871582,4245.128418
43,4214.871582,4201.025879,4204.615234,4233.333496,4216.410156,4204.615234,4248.717773,4222.563965,4244.615234,4227.179688,4237.94873,4231.282227,4237.436035,4249.743652
44,4205.128418,4191.794922,4205.641113,4229.743652,4210.769043,4201.025879,4247.692383,4218.461426,4241.025879,4225.641113,4233.333496,4229.230957,4230.769043,4245.641113
45,4215.897461,4184.615234,4206.666504,4221.025879,4203.589844,4197.436035,4242.563965,4220.0,4237.94873,4224.102539,4235.897461,4220.512695,4223.589844,4241.025879
46,4214.871582,4186.666504,4203.077148,4217.94873,4201.025879,4195.384766,4236.410156,4216.922852,4231.282227,4220.0,4233.846191,4215.897461,4220.512695,4232.820313
47,4192.307617,4179.487305,4198.974121,4214.871582,4203.589844,4197.436035,4231.794922,4202.563965,4220.0,4207.179688,4218.461426,4207.692383,4211.282227,4219.487305
48,4181.025879,4166.153809,4201.025879,4207.179688,4202.563965,4197.436035,4230.256348,4193.333496,4212.307617,4198.974121,4208.717773,4198.461426,4200.0,4211.794922
49,4182.05127,4172.820313,4206.666504,4209.230957,4201.025879,4200.512695,4230.769043,4195.897461,4215.897461,4205.641113,4211.794922,4199.487305,4202.05127,4211.794922
50,4180.512695,4182.05127,4205.641113,4212.820313,4205.128418,4209.743652,4232.820313,4198.974121,4226.666504,4212.820313,4215.384766,4201.538574,4210.769043,4214.871582
51,4183.077148,4171.794922,4203.077148,4202.05127,4207.692383,4212.307617,4233.846191,4205.128418,4232.307617,4213.333496,4214.871582,4200.512695,4212.307617,4215.897461
52,4193.846191,4170.769043,4204.615234,4202.05127,4206.666504,4205.641113,4233.846191,4213.333496,4233.333496,4214.871582,4215.897461,4206.153809,4212.820313,4217.94873
53,4198.461426,4185.128418,4206.153809,4213.846191,4205.641113,4202.05127,4234.358887,4216.922852,4235.897461,4219.487305,4222.05127,4213.846191,4215.897461,4224.102539
54,4198.461426,4186.666504,4204.615234,4208.205078,4205.641113,4203.077148,4231.794922,4215.897461,4237.436035,4219.487305,4227.692383,4214.358887,4215.384766,4229.743652
55,4201.025879,4181.538574,4203.077148,4200.0,4208.717773,4204.102539,4229.743652,4216.410156,4235.384766,4221.538574,4230.769043,4216.922852,4218.974121,4232.307617
56,4195.384766,4186.666504,4202.05127,4212.307617,4214.358887,4203.077148,4233.333496,4219.487305,4234.358887,4224.102539,4231.794922,4220.0,4223.589844,4233.333496
57,4190.256348,4190.769043,4203.589844,4217.94873,4213.333496,4200.512695,4231.794922,4220.512695,4234.358887,4218.461426,4231.794922,4219.487305,4220.512695,4234.358887
58,4198.974121,4179.487305,4204.615234,4205.128418,4206.666504,4197.94873,4222.563965,4217.436035,4226.153809,4214.871582,4230.769043,4218.974121,4216.922852,4233.846191
59,4203.077148,4169.230957,4202.563965,4199.487305,4205.128418,4199.487305,4216.410156,4209.743652,4217.436035,4214.871582,4229.743652,4215.897461,4216.410156,4230.769043
60,4185.128418,4166.153809,4202.563965,4196.922852,4204.102539,4196.410156,4210.769043,4196.922852,4214.358887,4206.666504,4219.487305,4206.153809,4209.743652,4218.461426
61,4155.384766,4155.384766,4205.128418,4184.102539,4197.436035,4188.205078,4202.563965,4186.153809,4212.820313,4197.436035,4203.077148,4197.94873,4195.384766,4201.538574
62,4155.384766,4151.282227,4204.102539,4180.0,4194.871582,4187.692383,4199.487305,4183.589844,4210.769043,4198.461426,4199.487305,4198.461426,4188.717773,4204.102539
63,4180.512695,4167.692383,4202.05127,4187.179688,4199.487305,4196.410156,4201.538574,4187.179688,4211.282227,4198.461426,4202.05127,4197.94873,4188.205078,4212.820313
64,4182.05127,4173.846191,4203.077148,4187.179688,4202.05127,4201.538574,4205.641113,4192.307617,4215.384766,4196.922852,4199.487305,4197.436035,4184.102539,4206.666504
65,4171.282227,4165.128418,4204.102539,4188.205078,4202.05127,4203.077148,4212.820313,4201.025879,4223.077148,4205.641113,4204.615234,4206.666504,4186.153809,4203.077148
66,4183.589844,4172.307617,4204.615234,4197.94873,4206.153809,4202.05127,4216.922852,4211.794922,4230.256348,4215.897461,4215.384766,4218.461426,4197.436035,4215.897461
67,4191.794922,4185.641113,4203.077148,4204.102539,4211.282227,4202.563965,4218.974121,4216.410156,4232.307617,4217.94873,4223.589844,4219.487305,4209.230957,4226.666504
68,4182.563965,4186.666504,4204.615234,4204.102539,4217.436035,4207.179688,4225.128418,4217.436035,4229.743652,4218.974121,4230.256348,4219.487305,4212.820313,4230.256348
69,4184.102539,4182.05127,4205.128418,4202.563965,4216.922852,4207.692383,4225.128418,4215.384766,4224.102539,4217.436035,4227.692383,4224.615234,4207.692383,4228.205078
70,4190.769043,4173.333496,4205.641113,4200.0,4207.692383,4200.512695,4218.461426,4207.179688,4211.794922,4204.102539,4215.897461,4224.615234,4194.871582,4217.94873
71,4187.179688,4168.717773,4204.102539,4200.512695,4207.179688,4197.94873,4217.436035,4200.0,4204.102539,4194.871582,4214.358887,4217.94873,4188.205078,4215.384766
72,4169.743652,4170.769043,4203.077148,4196.410156,4215.897461,4203.589844,4220.0,4201.025879,4207.692383,4197.94873,4214.358887,4211.794922,4188.205078,4213.846191
73,4158.461426,4168.717773,4203.589844,4187.179688,4215.897461,4209.743652,4216.922852,4203.589844,4214.871582,4199.487305,4207.179688,4208.205078,4183.077148,4205.128418
74,4167.179688,4164.102539,4204.615234,4185.128418,4212.820313,4212.820313,4216.410156,4203.589844,4223.589844,4202.563965,4211.282227,4209.230957,4183.589844,4205.641113
75,4172.307617,4164.615234,4202.05127,4187.179688,4210.256348,4207.179688,4213.333496,4207.179688,4230.769043,4212.820313,4218.461426,4209.230957,4188.717773,4211.794922
76,4166.153809,4162.05127,4202.05127,4184.102539,4204.102539,4201.538574,4204.615234,4211.794922,4234.358887,4218.974121,4215.384766,4207.179688,4190.256348,4210.769043
77,4172.307617,4160.0,4204.102539,4180.512695,4207.179688,4209.230957,4203.077148,4213.846191,4235.384766,4217.436035,4215.384766,4208.205078,4191.282227,4210.256348
78,4171.794922,4164.615234,4204.615234,4184.102539,4211.794922,4211.282227,4205.128418,4210.769043,4234.358887,4214.871582,4217.436035,4208.717773,4191.282227,4209.743652
79,4157.436035,4167.692383,4203.589844,4185.128418,4206.153809,4201.538574,4206.666504,4210.256348,4231.282227,4216.410156,4216.410156,4208.717773,4187.692383,4205.641113
80,4166.153809,4166.153809,4201.025879,4184.102539,4207.692383,4199.487305,4211.794922,4214.358887,4230.769043,4215.897461,4216.922852,4212.820313,4188.205078,4209.230957
81,4185.641113,4167.692383,4198.974121,4192.307617,4214.871582,4204.102539,4217.436035,4210.256348,4225.128418,4208.205078,4217.436035,4213.846191,4189.743652,4214.871582
82,4181.538574,4174.358887,4200.512695,4201.025879,4213.846191,4202.563965,4217.436035,4201.025879,4212.820313,4200.512695,4217.436035,4215.384766,4187.692383,4213.846191
83,4171.794922,4175.384766,4203.077148,4196.410156,4213.846191,4198.974121,4216.922852,4202.563965,4205.128418,4198.974121,4213.846191,4216.410156,4183.589844,4208.717773
84,4171.282227,4165.641113,4203.077148,4186.153809,4213.333496,4200.0,4215.384766,4197.94873,4198.461426,4190.769043,4202.05127,4206.153809,4174.358887,4199.487305
85,4159.487305,4153.846191,4204.102539,4181.025879,4206.666504,4199.487305,4212.820313,4182.563965,4190.769043,4181.025879,4193.846191,4194.871582,4166.666504,4190.769043
86,4146.666504,4152.820313,4204.615234,4175.897461,4210.256348,4204.102539,4216.922852,4185.128418,4196.922852,4188.717773,4199.487305,4196.922852,4172.307617,4194.871582
87,4153.846191,4156.410156,4204.615234,4170.769043,4213.333496,4209.230957,4215.384766,4198.974121,4209.230957,4199.487305,4202.563965,4199.487305,4176.922852,4198.461426
88,4159.487305,4148.717773,4205.128418,4169.743652,4204.615234,4207.179688,4204.615234,4201.538574,4215.897461,4200.512695,4197.94873,4195.384766,4175.897461,4191.282227
89,4153.333496,4143.077148,4205.641113,4169.230957,4200.512695,4202.05127,4202.563965,4202.05127,4222.563965,4201.538574,4205.641113,4195.384766,4179.487305,4187.179688
90,4154.871582,4151.794922,4202.563965,4172.820313,4204.102539,4203.077148,4207.692383,4207.179688,4226.666504,4209.230957,4214.358887,4200.512695,4183.077148,4190.256348
91,4153.333496,4156.410156,4202.563965,4173.846191,4202.563965,4203.077148,4205.128418,4203.589844,4218.461426,4206.666504,4206.666504,4199.487305,4182.05127,4190.769043
92,4143.077148,4150.769043,4204.615234,4169.230957,4198.974121,4194.358887,4197.94873,4192.307617,4204.615234,4189.743652,4195.384766,4191.282227,4182.563965,4187.692383
93,4152.820313,4158.461426,4206.153809,4170.769043,4201.538574,4192.307617,4200.512695,4187.179688,4201.025879,4184.102539,4198.461426,4193.333496,4188.717773,4191.282227
94,4160.512695,4169.230957,4204.615234,4175.897461,4204.615234,4196.410156,4203.077148,4185.641113,4198.461426,4189.743652,4200.0,4202.563965,4197.436035,4195.384766
95,4149.743652,4164.102539,4205.128418,4174.871582,4204.615234,4191.794922,4198.974121,4181.025879,4187.179688,4182.563965,4192.307617,4198.461426,4201.538574,4194.871582
96,4157.436035,4156.410156,4205.128418,4172.307617,4204.102539,4185.128418,4197.436035,4175.384766,4180.512695,4173.333496,4190.256348,4193.846191,4203.589844,4197.436035
97,4173.846191,4157.436035,4204.615234,4172.820313,4205.128418,4186.666504,4200.512695,4172.820313,4183.077148,4177.94873,4187.179688,4193.333496,4208.717773,4201.025879
98,4169.230957,4158.461426,4204.615234,4171.794922,4203.589844,4190.256348,4200.0,4171.794922,4183.589844,4180.512695,4183.589844,4188.717773,4212.820313,4197.94873
99,4164.102539,4157.436035,4202.05127,4168.717773,4200.512695,4189.743652,4199.487305,4176.410156,4184.102539,4180.0,4192.820313,4186.666504,4218.974121,4196.922852
100,4163.077148,4154.871582,4200.0,4165.641113,4201.025879,4190.256348,4203.077148,4186.153809,4195.384766,4191.794922,4202.563965,4190.256348,4224.102539,4203.077148
101,4153.333496,4154.358887,4203.589844,4165.641113,4201.025879,4188.205078,4203.589844,4192.820313,4205.128418,4202.563965,4201.025879,4189.743652,4224.615234,4207.692383
102,4154.358887,4156.410156,4206.153809,4168.205078,4197.94873,4186.153809,4197.94873,4196.922852,4208.717773,4202.05127,4200.512695,4186.666504,4222.05127,4206.153809
103,4165.641113,4155.897461,4203.589844,4166.666504,4196.922852,4185.128418,4196.410156,4200.512695,4209.230957,4197.94873,4202.05127,4186.153809,4219.487305,4201.538574
104,4165.641113,4152.820313,4204.102539,4164.615234,4197.436035,4182.563965,4200.0,4199.487305,4204.102539,4192.820313,4198.461426,4187.179688,4214.871582,4199.487305
105,4167.692383,4152.820313,4203.589844,4167.179688,4196.922852,4182.563965,4201.538574,4197.94873,4200.0,4188.717773,4196.410156,4192.820313,4210.256348,4201.538574
106,4168.717773,4155.384766,4201.025879,4169.743652,4201.025879,4187.179688,4201.025879,4196.410156,4198.461426,4188.205078,4200.512695,4199.487305,4213.333496,4202.563965
107,4152.820313,4158.461426,4203.589844,4170.769043,4205.128418,4187.692383,4203.077148,4191.282227,4198.974121,4190.256348,4202.563965,4199.487305,4217.436035,4203.077148
108,4149.743652,4160.0,4206.666504,4170.769043,4204.615234,4185.641113,4203.077148,4188.717773,4198.974121,4190.256348,4202.05127,4197.436035,4216.410156,4203.077148
109,4166.666504,4163.589844,4204.102539,4172.307617,4207.692383,4191.794922,4201.538574,4187.692383,4195.897461,4186.153809,4198.974121,4196.410156,4210.769043,4201.025879
110,4174.871582,4169.743652,4203.077148,4178.974121,4213.846191,4201.025879,4205.128418,4187.179688,4193.846191,4188.717773,4199.487305,4199.487305,4215.384766,4207.179688
111,4176.410156,4171.282227,4203.589844,4185.128418,4215.897461,4201.538574,4214.358887,4193.333496,4200.0,4201.025879,4210.256348,4204.102539,4229.743652,4220.0
112,4177.94873,4169.743652,4202.05127,4185.641113,4212.307617,4195.384766,4215.897461,4203.077148,4206.153809,4207.692383,4220.0,4205.641113,4232.820313,4220.512695
113,4161.538574,4169.230957,4204.102539,4180.0,4205.128418,4188.205078,4206.153809,4203.077148,4207.692383,4204.102539,4216.410156,4203.077148,4223.077148,4209.230957
114,4148.717773,4165.641113,4205.641113,4174.358887,4200.512695,4184.615234,4201.538574,4200.512695,4212.307617,4207.179688,4213.846191,4202.563965,4217.94873,4208.205078
115,4158.461426,4158.974121,4204.615234,4174.871582,4200.0,4186.153809,4206.666504,4204.615234,4216.410156,4211.282227,4217.94873,4202.563965,4221.025879,4211.794922
116,4160.512695,4153.846191,4206.666504,4173.846191,4200.0,4187.692383,4206.666504,4201.025879,4209.230957,4203.589844,4212.820313,4199.487305,4215.384766,4203.077148
117,4155.897461,4152.307617,4208.717773,4169.743652,4199.487305,4187.179688,4201.538574,4191.282227,4198.461426,4196.922852,4202.05127,4196.922852,4203.077148,4198.461426
118,4159.487305,4153.333496,4203.589844,4167.179688,4202.05127,4187.692383,4201.025879,4192.307617,4196.410156,4198.974121,4204.615234,4197.94873,4200.512695,4203.589844
119,4157.94873,4152.820313,4200.512695,4173.333496,4205.641113,4187.692383,4204.102539,4196.410156,4201.538574,4201.538574,4214.358887,4198.974121,4203.589844,4206.153809
120,4156.922852,4157.94873,4202.563965,4178.974121,4207.179688,4192.307617,4203.589844,4189.743652,4198.974121,4201.538574,4213.846191,4199.487305,4203.077148,4208.717773
121,4168.717773,4170.769043,4205.128418,4177.94873,4207.692383,4195.897461,4203.077148,4183.589844,4190.769043,4198.974121,4203.589844,4201.538574,4199.487305,4212.307617
122,4174.358887,4170.256348,4202.563965,4172.307617,4204.102539,4190.769043,4203.589844,4185.641113,4186.153809,4188.717773,4198.461426,4198.974121,4197.94873,4206.153809
123,4155.384766,4154.871582,4201.538574,4169.743652,4201.025879,4185.128418,4202.563965,4185.128418,4188.717773,4184.102539,4198.461426,4190.256348,4195.384766,4197.94873
124,4138.461426,4152.307617,4203.077148,4172.820313,4202.05127,4185.641113,4202.05127,4184.615234,4193.846191,4190.769043,4200.512695,4187.692383,4190.256348,4197.436035
125,4138.461426,4157.436035,4204.102539,4166.666504,4196.922852,4186.153809,4196.922852,4186.153809,4191.282227,4190.769043,4197.436035,4188.717773,4186.666504,4193.846191
126,4141.538574,4144.615234,4203.077148,4153.846191,4189.743652,4185.128418,4187.692383,4185.641113,4187.179688,4184.615234,4188.205078,4183.589844,4183.589844,4186.666504
127,4141.538574,4133.846191,4204.615234,4150.769043,4192.820313,4185.128418,4191.794922,4188.205078,4195.384766,4190.769043,4190.256348,4178.974121,4185.128418,4182.563965
