,AF3,F7,F3,FC5,T7,P7,O1,O2,P8,T8,FC6,F4,F8,AF4
0,0.0067033564693407405,-0.0846919498525145,-0.06488494006824103,0.06146018720249204,0.04136980750436354,0.059927312939443936,0.029670494749699548,-0.08350165173441798,-0.011968014816786719,-0.05868115749357851,-0.04069890732074836,-0.05851348733589181,0.05713805211863729,0.006885218699770974
1,-1.704726348159991,3.3509662196128582,-0.6352589578916111,-0.85256529449812,-1.9648197726651946,-0.07430327299923137,-1.824314977203404,0.6992046856140585,-2.3134723392324137,-0.7764809784959635,-0.6264328017880213,0.7549480363004526,-0.9081240411299997,-0.9518707326751289
2,1.3579944567455045,-0.21141306819516803,0.9518725871547867,0.9827607104781292,0.7746605057135418,1.4264841536467272,1.2701401713559206,-0.026280904512114445,0.22695251994936633,0.5070399050767297,0.6275706838418621,0.9345987261256655,-0.12489563748584939,0.7210461751701857
3,1.1307039792954157,-3.1506169492032616,0.296676317909636,0.46505488397422,1.544743666494538,-0.7988729744545996,1.2861271141691155,-0.6004606677909352,2.1054857886087164,0.6828456618465907,0.49821766427366737,-1.0726097540018829,1.049187633032903,0.7420114365335548
4,-2.359582611217609,0.4106938635135136,-1.649320818915874,-1.8225912628375063,-1.3306930375439632,-2.3002858774431494,-2.2742749654294165,0.0906908952358334,-0.27836129871365334,-0.8360988582142471,-1.115078715987286,-1.5992303662184193,0.12269265209262713,-1.3645030872210784
5,-0.18598114260512363,2.761911004118661,0.27257082525964665,0.21465160231920877,-0.8664264623014895,2.146645086335726,-0.35842504046147083,0.46115150710200487,-1.7923483733022825,-0.5935658634210444,-0.29262428156696196,1.5793361997762143,-1.2831355780807714,-0.35716700853799144
6,2.7699739119310713,-0.4094433282667735,2.0310189892935813,2.2847690954433615,1.4588454017087027,2.1929650247529286,2.767508170421661,-0.10725667226698264,0.1038081744656955,1.0144200554993448,1.4375929125983749,1.9244485581089588,-0.005033811452507496,1.8527209746089623
7,-0.7564334633402776,-2.3014062851999375,-0.8886918917151925,-0.9750025441034013,0.21874028426840586,-3.319845057312459,-0.6954052041602786,-0.3527708586514407,1.5511845372989825,0.6182643796290277,0.11276445020810501,-2.07149540761485,1.57391399309426,-0.12737474506231447
8,-2.6036847852403997,0.16986682374285292,-2.0758743478303656,-2.315950140983928,-1.178433787430009,-1.166200481331232,-2.6763651743804924,0.14126963671767953,0.22824305723677438,-1.096957676110418,-1.597281871808654,-1.9100259869390674,-0.2689325810628283,-2.15023905450726
9,1.35366588246749,1.9197708701601734,1.3646227079278166,1.5732759213723573,0.12101681206410335,3.71025245378453,1.5875618503308881,0.2952950680521452,-1.4941880142549318,-0.8044484097908418,-0.05293459719794301,2.359395650601204,-1.8531648798455111,0.6353163431086923
10,2.0857076509292605,0.2510912631835848,1.8662390301500185,2.004127700481502,0.6855747569434988,-0.31682015704056893,2.0738046404945885,-0.28291221291906704,-0.5829614013252817,1.1665703535352991,1.657027735513139,1.6637594846392456,0.7070201945534251,2.2411195205171426
11,-1.4295550060454616,-1.7441734370785344,-1.575867835574275,-1.8201071917469813,-0.0003589212250122859,-3.0101704163455385,-2.080122214984298,-0.22589088323986678,1.6234407848144532,1.1225626439002194,0.1586895677827494,-2.3295751024660265,2.034298850467682,-1.0893116207362754
12,-1.5330155619088606,-0.7090637517494641,-1.5471771721319398,-1.5517005759239697,-0.2721721189309463,1.5863284925164352,-1.1486371652342742,0.5732520015061149,0.8522121654896873,-1.2685442087294274,-1.7087984992849352,-1.3466555514121188,-1.2627526166089975,-2.1221312234387373
13,1.0234406748243505,1.8202665662975326,1.4997389917263002,1.6528185684860495,-0.5478184288422213,1.3414687718482867,2.0364393010690813,0.031896719562036845,-1.8683862193169702,-1.5117599903991608,-0.40862403167082045,1.967082440672149,-2.050008245089868,1.397540872312503
14,1.2165040192154426,1.019913338728285,1.2629953018259963,1.202661244540837,0.20983952310899093,-2.038605370795605,0.15699616753986412,-0.9535427228108873,-1.0021802944945504,1.3929295244025546,1.832193165382198,1.1149969566204523,1.8448917971504117,1.8220960822636099
15,-0.3440622653394725,-2.0793702005034365,-1.2100430306686265,-1.1653675456557309,1.3178508669952869,0.7894962545523899,-1.4473591877412058,0.369425337699569,2.1612980598188836,1.9417187566229217,0.724995254718811,-1.3417875795672518,1.88877553588726,-1.4548884414121495
16,-1.2663010801322137,-1.0324849484190162,-1.0989102306778953,-1.147065089341307,-0.644046072976813,1.3761084653370736,0.633313964161385,1.2810294851010855,1.0461246336402439,-1.5165831023002727,-2.0607753952100807,-1.0801984949294012,-2.359419621158656,-1.4348759088462786
17,-0.33378128647060645,2.3473126691505652,0.8287561567147571,0.5749581401431259,-2.009733919615755,-2.6857933734145227,0.4349464712140392,-0.9600365639899612,-2.480467323764559,-2.4345973735084825,-1.008263616238966,0.575536339492294,-1.6011563701838378,1.178981168762895
18,1.6492428218223871,0.7006410495660427,1.0562891149008815,1.4423833210660608,1.5373678832401219,0.275309703189243,-1.0014055968919615,-1.4077938768800131,-0.9788849977791069,1.6661542994029164,2.370043543278226,1.2907554871616687,2.7585819972506287,1.1303855843699622
19,0.7757743502359165,-2.3986493789076224,-0.45979302916120984,-0.13361397426143654,2.3424163704906285,3.725302091878163,0.7667036250882826,1.6129402611774601,2.82513441474214,3.024739568803074,1.179832399646809,0.19382953151992016,1.265086727906235,-0.5710521020689828
20,-2.208882777689519,-0.1269216766516313,-1.0741958121146524,-1.989397259796654,-2.682134672489895,-2.414274359367086,0.8299471873670492,1.2709578911566544,0.7420849539419139,-1.9445233570799616,-2.691726220945374,-1.7315249677453382,-3.0607912614496726,-1.1141217652938653
21,-0.8572847230425548,2.046939500139201,0.14214410360882324,0.02225906498455984,-2.158241944165739,-3.5958659503611594,-1.8569879334981214,-2.1569051158508783,-3.1500942526997227,-3.6840907304543276,-1.2130954769083822,-0.8423384910663909,-0.9300815138114984,-0.23738126336793958
22,2.7366245169106045,-0.44770383720196044,1.0834955635503258,2.576306260450369,3.7768102415755775,4.357622029346767,-0.14831577281178768,-0.9312874106523623,-0.2609671197847557,2.4883687341721488,2.9475156967931935,2.3349959818230945,3.321476328357211,1.5393861144860836
23,0.582349670883937,-1.243958305847247,0.1511969842069908,-0.27576186641843425,1.477934552363004,2.407908001844565,2.540854940489577,2.471459403304198,3.326915899294685,4.2711122584020895,1.1384203767909669,1.2799632589229453,0.5810477038953525,0.9943932898390646
24,-3.042429985672974,0.7223074185021747,-1.0593874939981893,-2.971581857391223,-4.535175169072584,-5.503706596125411,-0.8556268651264856,0.5331144984298265,-0.4705642979295609,-3.3739250811435797,-3.0863436583246693,-3.000690626605084,-3.5700803452933143,-2.413903496648195
25,-0.061967258050903015,0.14180365127391134,-0.470759586688744,0.7728358952508372,-0.4854347714607064,-0.6372123998348441,-2.616533816154854,-2.54767118668559,-3.1798477379863925,-4.550064423371706,-1.020194628283425,-1.459509591059937,-0.1546522958761711,-1.4078174358267028
26,3.006366188561254,-0.46773397880105677,1.0397026733445862,3.0232942795673985,4.783923014123912,5.5569172232493464,1.8718799047011807,-0.21433201757876713,1.3260431041856462,4.527280298824149,3.1072561119764295,3.617892737591615,3.7581627609903507,3.556576198508998
27,-0.5308482706379823,0.929556177618012,0.833572797552382,-1.2941138633466212,-0.5483075762762218,-1.079038574625997,2.052841866219457,2.4754583820964084,2.5842865158782353,4.2842866386941365,0.917174673771952,1.3744963445704894,-0.39490785864362843,1.2659298433335966
28,-2.605182453398489,-0.34280035239195655,-1.0990458501112346,-2.7210562482118394,-4.510389748901621,-4.6168564143051745,-2.5558105838400222,0.02891145476669451,-2.062092786652797,-5.699054109733988,-3.0556581037325805,-4.084759600784816,-3.763308783546936,-4.638749638471713
29,1.0140256939240735,-1.5839691713036368,-1.187538406419731,1.6214454306060881,1.3675415521136212,2.2019563800985336,-1.0207936901570063,-2.3705731552398883,-1.5646221124317756,-3.3603014811850054,-0.8458949024979928,-1.050139759976792,1.023995188807406,-0.5398798528562571
30,1.9139854740818776,1.479075973838729,1.2956012499947258,2.1940689176836217,3.845573205114707,3.0954107277260743,2.645468336110984,0.0676586112341803,2.415348698190063,6.529800247595836,2.9921750918300782,4.318136560815168,3.458126351361216,5.299284173893855
31,-1.2458745417113288,1.5563620873807642,1.4182919736355761,-1.6338818795038605,-1.8158945265201634,-2.4866608574958273,-0.14689634582794955,2.2947650386327347,0.3256030666087984,1.8777411431659923,0.7679278277715396,0.535954229774431,-1.5770150460915437,-0.5852432877701451
32,-1.084404189797331,-2.524602776885981,-1.6207286175335422,-1.6464707944771617,-2.9967256964049107,-1.509049392723555,-2.064493120651714,-0.16604191656672132,-2.2277195467413957,-6.684010376107498,-2.94802182162984,-4.255646181066638,-2.805861218563622,-5.282472071206086
33,1.161045894511417,-0.844923326135252,-1.3957533450145105,1.3567318577099108,1.8705086946578844,2.0274719503110075,1.0655337751864924,-2.223026814297509,0.806205244494684,-0.15401136056841178,-0.6129969909334166,0.09328663508068945,1.8402821291941835,1.7676859015620976
34,0.30383979543371126,3.05481901798189,1.9777253855697017,1.259826102316077,2.1643284197303556,0.2557497248820473,0.9622851429056606,0.32546930185114603,1.5333367530369655,5.9950060302299315,2.893329561123342,3.8602807441740494,1.9198908971523616,4.537586160493734
35,-0.7850486826132527,-0.26824063711648655,1.039162981881846,-0.9404991542572018,-1.6199193118720165,-1.1476296847493832,-1.4387515149521986,2.0754459181454945,-1.5032806480589107,-1.36789703217098,0.330868038727101,-0.7321700794113075,-1.64823129716339,-2.629097831138914
36,0.25380548779869466,-2.8353049265728463,-2.202376911959227,-1.1101585511765295,-1.480580389644872,0.5139330026674805,0.3341515629700755,-0.5257643507556283,-0.5668910841036603,-4.555694856326023,-2.744752539160827,-3.1373863714949577,-1.0431422074272674,-3.240984853320578
37,0.22444037219223076,1.3407880232208387,-0.3723748846092794,0.5805097264647773,1.205293315134106,0.2104429943519746,1.1704529224559428,-1.7865718376656556,1.5665769328227457,2.2757722774801508,0.05718253687833105,1.250222622831284,0.980676408222063,2.887258801608093
38,-0.472807820322607,1.9303698176293096,2.1210603077818897,1.1410641844254332,0.9905768167641414,-0.8849968232940016,-1.4427636631486684,0.678708724610543,-0.30890689649052094,2.7105108320073037,2.417636976401587,2.159442373093215,0.45229120221549113,1.7369303504752915
39,0.36378063391988835,-1.974579195535672,-0.4557964926984624,-0.41926063684389586,-0.7576101661847924,0.5407438376656137,-0.397693449409127,1.3631278654527637,-1.0132536396736598,-2.3455130553398362,-0.44504155717755406,-1.5223010555473622,0.007633174839276317,-2.4521806362977037
40,0.3257057744776792,-0.6595296330182329,-1.6261615519626342,-1.2039929501888527,-0.6732524307223697,1.0616103795785807,2.0740380581899553,-0.6861147123627893,0.7315233599033724,-0.9431186684701285,-1.894856147030546,-1.0761195793557599,-0.3368197782775458,-0.42149860745816253
41,-0.8164681098613424,1.9864742770332438,1.1999198193264335,0.48172486583639434,0.3582156158701611,-1.0427615738392457,-0.5731435167998993,-0.8935142784989307,0.08958383837789476,1.6305277622059857,0.68542892264854,1.4784564771298128,-1.0445596660555652,1.453618072622269
42,0.11727621764618842,-0.5704363241018111,0.7386296370856178,1.139491864665793,0.4815760023444566,-1.2299652443993616,-2.1395172625185337,0.5031430537122887,-0.4812081051555801,-0.29947155493125277,1.2650176514072222,0.08617989951402562,0.7170173196091988,-0.39026061342684204
43,1.0144213752002667,-1.4526376356522155,-1.590353781436541,-0.6718729082308103,-0.03278211679058893,1.3723587183161292,1.4015661821225982,0.5074870894673142,0.8037251353991981,-0.43842919978087636,-0.6706313595679463,-1.1445366316070105,1.8552245167364083,-0.19097047404750203
44,-0.7054839849219368,1.4562582047694876,0.3700956011676639,-0.8546000661991827,-0.3790018224176003,1.4714036362690663,1.769913465356761,-0.16799109617859534,-0.4141899964002697,0.7706700369007685,-0.6978480891086862,0.6277152248144118,-1.4427897554942324,0.5674098174024418
45,-0.9269590041305191,0.6139868984294816,1.4263503819810894,0.8224380176361902,-0.22825138568359585,-1.6562217249924944,-1.8585458352707105,-0.31518655960998376,-1.258925280577299,-0.7998050451572906,0.4008332984420378,0.6405628984509285,-2.273553516676943,-0.9779645444699783
46,1.2566178222781923,-1.9023497056266614,-1.409230114938854,0.3626676003930802,0.3579969246488524,-1.7473136397177569,-1.2309104015904409,-0.21349492819334004,1.6642878471071068,-0.49794396771770294,0.36654328840885897,-0.9676561842146774,2.2718244891396027,-0.19554884178205137
47,0.6317865684903721,0.28454582987445043,-0.6573291861670923,-0.766225155281245,0.4375654445391862,1.9858585915252085,1.9099576498365143,0.3609457341347415,1.03042156396138,1.7073075013633707,0.004064694040424155,-0.12939404054333092,2.29395757051773,1.767243593656071
48,-1.629502632067721,1.991209785708886,2.045678856191922,0.22111494920704272,-0.4362591627132396,1.9365678653109129,0.7785508752744311,0.511264905390315,-2.8159918646311044,-0.2698481206025005,-0.36309384437386155,0.9487836525911144,-2.984351444989549,-0.4773770255880454
49,-0.28894083007968335,-1.1150744841015814,-0.575959241795563,0.39894739773841953,-0.5826281695316288,-2.3641304047082277,-1.6922667043982638,-0.6097760426052092,-0.14902022528319064,-2.0957557542743466,-0.3563585595574051,-0.2542691519257767,-2.0393875762661855,-2.056126690621638
50,1.7907525715624337,-1.8613019423473889,-2.006237347271517,-0.7160991012481538,0.6326047785400876,-1.8989427506155787,-0.535726793716573,-0.6165497330788423,3.437420072125571,1.2079767618900596,0.6548374220212397,-0.6696627264692548,3.472493354201714,1.1568243449083275
51,0.06525373383805566,1.88028619628681,1.956915707049486,0.2807089686668913,0.6159316560714676,2.688287283704472,1.3962055098974353,0.9618842971950645,-1.0833740663785683,1.9898879155740519,0.4843829816324791,0.44815968148522656,1.6674491688991155,1.903787579842848
52,-1.832196151284955,1.5877655743925227,1.1785203379916465,0.9306227430125551,-0.9321156378376396,1.5491622482844902,0.46403224651154273,0.47431137772041543,-3.3014321321438254,-2.066198644699945,-1.100670165080899,0.2502802504395954,-3.7555975804827826,-1.6198288642797856
53,-0.040500686732042414,-2.631176098846906,-3.06940035506619,-1.1582360569011363,-0.47518201718037867,-2.775058178566534,-1.1356512827362912,-1.2814270795789398,2.226192833468608,-1.5422768217537532,-0.30315460146339623,-0.4557440343625073,-1.271612470432149,-1.4857538326948467
54,1.9144587710898526,-1.1460125278848856,0.31988730100139634,-0.7254899670805343,1.2615282301491983,-0.9257784097122835,-0.44421664018300683,-0.10156928790075148,2.4744626776228316,2.73729932419018,1.510494388555553,0.21487954293338557,3.9154728321299532,1.7770473318610653
55,0.1521957614280496,3.3647211592922024,3.5247926806555987,2.023525640373231,0.1308146413320219,2.4366671147558825,0.8922210564386757,1.431678200631021,-2.895793153667651,0.9073724191105048,-0.1574689126004817,0.30699992526621667,0.839636042922665,0.9969414789268177
56,-2.1595583209620615,0.4688088918251016,-2.137835563892306,0.07352777180296083,-1.5006628227991738,0.2211308099805596,0.4010527165026594,-0.4074180970934465,-1.2655592885426388,-3.2178484365546227,-1.715764689322803,-0.6611385766497735,-3.9964528761565683,-1.6593947075952529
57,-0.2239792212265352,-3.9814038229429918,-3.1082344368969452,-2.629699168902074,0.3655006917428679,-1.594836982962848,-0.5720485523072928,-1.3159854905256718,2.922864418552308,-0.16431344602725365,0.769825262644959,-0.029717880515601557,-0.29820240350913835,-0.5795514670007188
58,2.5578643474586507,0.4615082286383039,3.777114853126965,0.9091059651913808,1.538820137291718,0.26807117413659065,-0.374755388183135,0.8956180325458315,0.06881629723069707,3.512112358627435,1.6245182407702434,1.030899371042113,3.9426186560036878,1.3589578977322916
59,0.07141648319507984,4.3281943605885305,1.8883267724018222,2.78083882258358,-0.8720495940410825,0.37808417374115943,0.1256560812367816,0.9194419614829783,-2.394454027268735,-0.6667189162382277,-1.355973084459604,-0.34273988420866086,-0.3845675504137853,0.305924209635382
60,-2.9545345205278575,-1.5610284013479159,-4.760033446266457,-1.985547914904303,-1.3490617474713351,-0.27558027913542765,0.4829152383949232,-1.185827538070291,0.8119212881974692,-3.5652287873019244,-1.2472258543207029,-1.264481596328968,-3.624463007424989,-0.9743656573675038
61,0.3769400552287363,-4.285723594562145,-0.22784554594942957,-2.414302428442773,1.2115325138287134,0.8724637510220878,0.3681785909853468,-0.3331565014946862,1.5721275253887335,1.5455847128529578,1.747504720061647,0.7443716110955152,1.1133165532780744,-0.20144166043843065
62,3.1317765335627574,2.6660865992693568,4.8200132521091,2.8786173602117593,1.026754871428581,-0.27262705954955596,-0.8044112294018189,1.1468200907238726,-1.2672610179844388,3.279733626515119,0.689060003750118,1.327669224577396,2.946199463627054,0.5908206718766581
63,-1.0224573170675681,3.831889986208423,-1.3354950878764966,1.6323084163667263,-1.2666106633676524,-1.725819862147227,-0.7263246616884199,-0.26194810886631914,-0.7450717864979101,-2.3488259920432353,-1.841057868165531,-1.0738598936465662,-1.669313717358813,0.26873643610079273
64,-2.939161706473512,-3.6026995924863536,-4.025042054553539,-3.376885673760911,-0.752579519902098,1.1705031757413518,1.2801254599974752,-0.7574190475573824,1.3759350042059653,-2.5983656589687607,-0.11034658450396746,-1.2553614530802684,-1.9620561535742769,-0.2874544833700126
65,1.644489443207789,-3.043426161065146,2.3038034564648737,-0.6581260931491647,1.0549529235429826,1.8672095215101965,0.7805251213500315,0.6592853833169685,0.10327239381116732,2.8827306366500833,1.632334529162029,1.2411719603730886,1.8195668166824135,-0.487771131828926
66,2.3896153764279697,4.248831587331369,2.7601769922378416,3.411551458105295,0.6923058434618437,-1.992749401196214,-1.7140232472321433,0.132127886480206,-1.3124407480975218,1.582811342037753,-0.33423842642291207,1.162304037721873,0.9120484202108088,0.14260704951830075
67,-2.026736020203844,2.0493577271159458,-2.4331316883917635,-0.26376685405671213,-0.7272156112896992,-1.2742914135095988,-0.504670962662403,-0.7165038615921011,0.30829518415773216,-2.969286299201992,-1.2129291538197853,-1.2386586963488833,-1.4695040772957055,0.7985316386383098
68,-1.6574474634690761,-4.552979293124338,-1.5613459422320406,-3.0611634284202816,-0.8956445767826485,2.2916586606986113,1.8825217706432484,0.5151021869678376,1.2348160011066847,-0.4222073583972118,0.5556487507384148,-1.1887932253058546,-0.1337082261026724,-0.2153871738485564
69,2.0830542292415046,-0.9798338032082005,1.8378923034260208,0.9678775299572944,0.48270580708972316,0.25280651190179443,0.054589593066447624,0.42657313589923074,-0.5484393048674285,2.543194028525599,0.7263889647122297,1.1769397084492472,0.7569283581535174,-1.0936843905463918
70,0.9759882652535484,4.512954022287447,0.8729384289616229,2.483638539466658,1.261377661347605,-1.8277950217127004,-1.6791872186081462,-0.9596541743948408,-1.2185448529796645,-0.6403193097657143,-0.5618141042981147,1.4024389596769629,-0.11081565585554813,0.5083604509398484
71,-1.901853025542139,-0.056227082657804746,-0.9268966205963416,-1.4114123113713015,-0.4548516249254396,0.7014317121817403,0.31323384899837975,0.07114060857333844,0.6969815742230722,-1.6897182622129279,-0.3008552566657428,-1.2401244273055054,-0.013788124664549007,1.2433729543927028
72,-0.4980324185652,-4.1452552732855645,-0.8470409867604599,-1.8198387285113564,-1.5911956481894782,0.704073427563847,1.1949449444536273,1.0660808831679516,1.2643530434664112,1.4143022337160698,0.44229853328855373,-1.72312111886264,-0.21030695710366815,-0.9386105772064489
73,1.6781214060870047,0.9616578097254395,0.19788473820520813,1.640298716441641,0.6367501969422156,-1.1448632498063724,-0.39351600024575006,-0.5509591579052677,-0.7939664054062917,0.5969864477468119,-0.008598235797544528,1.571560970471585,-0.396123189839846,-1.151024264809202
74,0.20952455443436466,3.4730757265192835,1.2845012709746817,1.1300538266148805,1.6971493150269266,0.6746482322098104,-0.677458661931476,-0.8478117042973597,-1.3556753484340047,-1.8311585729519888,-0.3124352720283061,1.9352964181320176,0.8618786242020524,1.3464527393083245
75,-1.5746880475937135,-1.6300008799788868,0.010220429329279461,-1.7056471524856223,-0.8866674239855316,0.9025413939344636,0.15716509743858664,0.8040082693316783,0.8394895447333728,0.5429745762069539,0.2375421227761558,-2.1580914279364674,0.2744341894603556,0.8142474834319389
76,0.04466787466789157,-2.5410228319773314,-1.7480471222473855,-0.4030581630881117,-1.4998095804292197,-1.7959313992758092,0.3932378134762328,0.45574200784507957,1.5097284706869738,1.934807792262051,0.24676618993539748,-1.7969202712085712,-1.4550026114503873,-1.5522027926126039
77,1.6036769774144712,1.9378975827842133,0.3137794960334374,1.591410522685633,1.0035226140219617,-0.14431254658054557,0.22942360797988928,-0.732079831706663,-0.8429901322281378,-1.6165430745409246,-0.4809017119309241,2.7929050501567323,0.29621100062577865,-0.35317791355023664
78,-0.43699910833333,1.4451400926440352,1.7936535650793841,-0.3703342660620254,1.068217081452745,2.28435158161297,-0.47718021321814513,-0.10280694084266015,-1.7767654914761615,-1.8090877051038698,-0.23781794862062594,1.186953984635127,1.651406704795877,1.4426672948569834
79,-1.60975881458462,-1.766471429365233,-0.8469290433762152,-1.208999146595707,-0.8284000569506181,-0.7145056712247557,-0.5017003600172802,0.3858341085580568,0.8715630802581447,2.6015615312679676,0.8311775397712511,-3.1520924845246343,-0.9904022089913228,-0.02188596270504087
80,1.0168513510378108,-0.3559914882238688,-1.2087606504757555,1.1132906058966365,-0.5888048883103356,-2.0706125867525254,0.8593826311657385,-0.035456249917974664,2.1869117320878435,1.5002900693765477,0.20098016568199234,-0.2030735893369755,-1.343025101025194,-1.0451025793779256
81,1.370540461025204,1.0511158961265983,1.0942123487476423,0.47155192208900637,0.3234350303299159,1.2300385449279023,0.4501379080231352,0.06764889915800475,-1.047358622030276,-3.5103244394842337,-1.3203631494563821,2.9486672143697916,1.4142205139339434,0.10214755831643124
82,-1.6490404709370299,-0.48871834130757835,0.14048092179273505,-1.6369886150741464,0.2830680587736245,1.4047668615238553,-1.3093622164022996,-0.10451723691653109,-2.6881292650772397,-0.9928063111729631,-0.020155421999619626,-0.8508568083694491,0.7031693559169339,0.5418557726905898
83,-0.7499173412860699,0.1589213377893443,-0.6436030612654567,0.5969981169805564,0.40420979802865115,-1.1497961373093497,-0.037260246569307126,-0.4262716886610561,1.4846457070606376,4.312726196563888,1.8955547817559175,-2.0801071458539826,-1.3165218467140625,0.20707442312550486
84,2.0750100708889643,0.8355349032497523,0.9527847361911304,1.7085695325086625,-0.31124736904213524,-0.7158694673604495,1.5667848499527195,0.45601140495564113,3.1288265847665113,0.2534128599659393,-0.3921482683593378,1.582512997772848,-0.0802592667675258,-0.20259126796132074
85,-0.19607739683923917,-1.6631453142814234,-0.6089148004095215,-1.7967570572078346,-1.1411857320223047,0.52709834920101,-0.58728627532754,0.5410507402127845,-2.206017907432403,-4.9032670122188895,-2.437921535778191,0.6920381624657999,0.715708612318546,-0.8138408751547912
86,-2.058124258164338,-0.5026083740421052,-1.5082100830788667,-1.1846687237960134,0.7020491056795908,0.39606707867928614,-1.4788501953278403,-0.8611946707926218,-3.307822054085782,0.6935784010297458,1.0513018352097412,-1.671392085844373,-0.20164672540301068,0.25612095936711826
87,1.2281905685556953,3.125617882731802,2.375911986576485,2.7905718597897,1.652894104381547,0.3186085415095342,1.174890911487083,-0.37246391332440104,3.096514754584226,5.141219914663287,2.8109228422935706,0.8677498062787897,0.12818168463205157,1.4569103318348873
88,1.5204487151619321,-0.5295464873110753,1.1270298990862864,0.12910946850958496,-1.337991883418609,-0.6187124835819375,1.066089996103559,1.1437262328794569,3.0663965965950495,-1.7226702754097283,-1.8920378678948828,0.99436837707874,0.016668857838124485,-0.7652522383229844
89,-2.037777418735669,-4.154773337398074,-4.080748199610531,-3.24150358644339,-1.778600404067761,-0.9648703810845308,-1.5094906556659662,-0.0033766009414489544,-3.930896109190978,-4.936850110084062,-2.910571063952217,-2.1725952890942586,-0.8716623196708384,-1.816109084091355
90,-0.5896652998675722,2.068047922525644,0.22417746278632636,1.166893035963172,2.003238398001226,1.274298735498659,-0.4874332672483857,-1.180991096853461,-2.3676091116509372,2.6344442543005773,2.792438245465582,0.33106026599980193,0.5139979853170873,1.5756509337895603
91,2.3916605914808082,4.426846143986929,5.099014585727662,2.976077334751686,1.4952172530110066,1.0846293474343756,1.5027054575787624,0.43423048667388114,4.461833730293129,4.3211760340925744,2.695205766998208,2.85711510169604,1.2745563701991292,1.6633476019237488
92,-0.461646077379374,-3.731037796136314,-2.1753496553227967,-2.2861483855924134,-2.4725084756592333,-2.041875628169105,-0.06105991376866237,0.9479923878204075,1.3171094779053407,-3.2399976192317754,-3.6120541476585593,-1.986925650077189,-1.1154335684432002,-2.3719328929228
93,-2.2258376705053498,-3.8075472797686842,-5.026175453756287,-2.079129522586889,-0.9220601066401475,-0.5839806473005289,-1.2044126690312904,-0.7561997517400297,-4.519283575837736,-3.44864380009502,-2.1893188855775203,-2.72440964098935,-1.304241284472537,-0.9752323181889754
94,1.336167603692016,5.047350741231535,4.093600142334644,2.8571728002993613,2.6002587236720025,2.545775673698781,0.443418412797938,-0.5198445336215143,-0.11764200369371412,3.4468018354573156,4.224583384458147,3.548254292490069,1.5230173897362198,2.8128910788885806
95,1.6502958226778766,2.4215651838234584,3.8496513574478506,0.8667948172244614,0.26700031927561985,-0.3744999299632014,0.7395393314861548,0.8564924176361234,4.068494921203948,2.5304654608900727,1.471421088910655,1.7994103840441265,1.108469936531124,-0.049575661344162456
96,-1.8204175915213288,-5.603011591837738,-5.334498451546071,-2.704683744685915,-2.3709755102588597,-2.515168882924491,-0.6204468625510008,0.03622294819036589,-1.0121462130874144,-3.291039348270797,-4.537752342728209,-4.596832410704438,-1.6106611870535568,-2.6752734612399873
97,-0.8842644882316343,-0.6362976780873093,-1.9536055613098298,0.2440004889579881,0.25859935131959794,1.453607843325654,-0.2264742009098811,-0.7117091452650984,-3.204275859033586,-1.743095878889136,-0.658338345606191,-0.3275378469260323,-0.8948324999753545,1.0703075667938213
98,1.8371608867281923,5.1842512175053805,5.490939934899173,1.9065639520654247,1.8928138531407062,1.8797282768155505,0.6194219317780393,0.3562555381863715,1.9094603879714316,2.901202690110826,4.506174038231646,4.834228544021654,1.415391927877648,1.939393728617658
99,0.170090825416146,-1.042837456285933,-0.03659714372369581,-0.8979420784327251,-0.5177394758520292,-2.274823735987519,-0.26704945394847096,0.3891570063846994,2.0971749368191688,1.1674408590409755,-0.11148302969985155,-1.2801291820633105,0.8054713943570232,-1.7351067146719403
100,-1.4411663916531319,-3.8635343613861184,-4.537103206712347,-0.742725854533941,-1.343753864686517,-0.7797985340719784,-0.4771302025268554,-0.5613328887096202,-2.4992756289019264,-2.423089621449842,-4.143870455086875,-4.176454759666292,-1.0666165571957236,-0.7897416599879443
101,0.2961315660427692,2.1346146628919387,1.4964810137109195,0.9191716288600722,0.4883038446068687,2.544266358347143,0.7138512593833864,-0.011422815433926292,-0.9274700562634626,-0.786824037097726,0.7025520607788218,2.5559480645397055,-0.8608966730497104,1.8039517173826882
102,0.7833258059329689,1.9906524870949243,2.8175668487772674,-0.42413128673504724,0.8971911968652464,-0.4901407427869156,0.20604564625713084,0.5676061222148122,2.784949939542183,1.9546460577659746,3.53182450520105,2.800958420284083,0.6841557218788491,-0.45449984079565414
103,-0.40668430496993635,-2.345880001829655,-2.029680803191502,-0.34450082206785027,-0.2553938539557655,-2.136215335138799,-1.0901053182957436,-0.30212515618265184,-0.16205583246818053,0.5316347623798264,-1.018358096371459,-3.1252763725983472,0.9885518593501043,-1.2234801260352663
104,-0.0646114494645565,-0.08331535864331374,-0.8975370401929069,1.274287843717275,-0.6573561374132293,1.5725137005959513,0.19638877446618486,-0.4442471601483064,-2.8170506316928687,-1.5232600172012647,-2.8065786064260507,-1.1098688083843198,-0.31230365539946586,1.4448156692031848
105,0.16298062632586915,1.6746225567993829,1.5941140769290048,-0.6209237166274273,-0.03638207094275961,1.12494494201506,1.3522042558052418,0.4913792608438227,1.0832434367783972,-0.33542061946934654,1.0374350722323282,2.8500884704984353,-1.0982400052593377,0.1400482422383407
106,-0.5145662793290343,-1.348037735373277,-0.6580301893249417,-1.6157216205562257,0.627859783421396,-2.1481423922590928,-0.714858745448928,0.2969304121368702,2.662316858444594,1.1064586798630747,2.1221749577964064,-0.4031430369423837,-0.0806038717864792,-1.9114508501746377
107,0.32331462528930427,-0.4079519173658493,-0.48614782735257756,1.6885707456445247,0.24948931500178367,0.23402382670204985,-1.4475468894442265,-0.5801368555115979,-1.7967187355007679,0.1706145877725207,-0.8271906896767904,-1.8968424909087929,1.149830160129493,1.1464727927484668
108,0.8100484607904327,1.9756152779954064,1.4871348997953928,1.4122848119168074,-0.7237555543423972,2.031566182803339,1.2947461610078028,-0.20426301601509023,-2.384287562232055,-0.673367053284277,-1.596995766084724,1.3426669758446965,0.551729966956926,1.746866949813206
109,-0.8571113989227032,-0.9888258906403485,-0.8013834882554798,-2.5726657757523492,-0.3113863008925517,-1.5725684441753005,1.3465111282421462,0.6531024866781965,2.2973216243237538,-0.05117769979132855,0.5210271784574364,0.6778032355172223,-1.1764676629704542,-2.276021440897227
110,-0.7846279830099211,-1.759852904257706,-1.5387738264313655,-0.7675600834399139,0.8209991601599654,-1.23795052573501,-1.8511759778674104,0.17058531943522598,2.0354305230227427,0.21966765642408895,1.2716866984103739,-1.5722086370679436,-1.1209296816470375,-1.0404179759142496
111,1.2202206944582732,2.0491286768460415,1.7828848177827674,3.055375503861677,0.23845105170237418,2.521457509159639,-1.067341703721425,-0.7959600653594566,-2.6011227644220263,0.008704368315704692,-0.26652623573059,0.3219650253732367,1.2574012034465807,2.9438786529169247
112,0.5301157394906125,0.9423168282192532,1.0510522995579261,-0.11447155415431351,-0.8205350350097563,-0.008153795486070894,2.3000179038268045,-0.12553252901536605,-1.654715602341454,0.22111290048461874,-1.1000184912914956,1.2611012229676573,1.7328061978813927,0.04813693676165529
113,-1.2525187395408695,-2.475388230206415,-2.1597177803596495,-3.0289059046266904,-0.11464624170652835,-2.8365277781453306,0.6756093281961373,1.0344491416019506,2.736200542530011,-0.060002396700404116,0.16946556418045994,-0.7523855941066764,-1.4605197980053428,-3.0005092389481254
114,-0.23912681120821302,0.06926441832529905,-0.4187585058877729,0.9798481021186001,0.6953919377861287,1.3412289938388933,-2.5879959171082842,-0.027761168019596952,1.2655487772005016,-0.592193121374654,0.9753621957252064,-0.7899390948596262,-2.26330795383908,0.8977737185144536
115,0.9215789358671526,2.2330009603709122,1.9060876690443023,2.5193048005754366,0.036757567454081354,2.4900772593699867,-0.26125218353911056,-1.3117133048138379,-2.733832245567772,0.1860432848710697,-0.25729628787453157,0.5383941565722096,1.787398136428262,2.4973719279731044
116,0.12759928674903068,-0.8724398334882137,0.014827294344598153,-1.5862320538190577,-0.49633305789604565,-2.3859123946660987,2.705143235230431,0.34711820202112115,-0.8741485614748516,0.8432306242424997,-0.7783609448771646,0.563781955589839,2.567764150187414,-1.5084380051123527
117,-0.34428407719340043,-1.532586985556196,-1.2365655270936986,-1.687542573834559,-0.05742802280062442,-1.680560114000247,-0.09021933517310066,1.518535534898093,2.617422551144594,-0.33427188776337696,0.4728228027761875,0.11273488062417192,-2.1504614841055623,-1.658875802613769
118,-0.33846171836813327,1.22330481034401,-0.04408721536444286,1.774593335574564,0.31437991185765013,2.8992265177524823,-2.6785671034504857,-0.8119176140222204,0.4731256874934821,-0.9571614939438708,0.42692360060191215,-0.8285795995612816,-2.5476555155132043,1.6400097722217257
119,-0.25738505758685903,0.7149245843763999,0.48272173239407096,0.7924704413916996,0.15862059924788594,0.7478640469525918,0.31751309434478303,-1.5548195585088576,-2.392018317451716,0.4416324901899842,-0.6975733576196002,-0.8301746176057011,2.395246275239617,0.7906369717390376
120,0.8721643655982122,-1.1085351878053715,0.4851983598686608,-1.532597774824849,-0.22404742584549792,-2.8590719910600604,2.557445791786332,1.3337837861023392,-0.054288296623668686,0.9584965643191323,0.08690342744250987,1.576088720934401,2.204268414228233,-1.3373938274776185
121,0.6509832525064084,-0.09496488764537753,0.05921790525488228,-0.10734278809316442,-0.2689827693753093,-0.028901397358225348,-0.3905237183536288,1.3801291515725982,2.041971568566506,-0.4630062804162917,0.7980699584162769,1.257209357250413,-2.3591030714575094,-0.16071028454421693
122,-1.579720383860664,0.7131686353238471,-1.1326721790900334,1.014577414373925,0.24189458674707948,2.456957061936633,-2.399364105753856,-1.804804612357297,-0.3725199561078158,-0.8996313277282155,-0.6857713721131942,-2.5702127483817856,-1.653039628919257,0.8041068287756513
123,-0.6952044808147284,-0.16422279357847266,-0.24372921266109107,-0.1894213048633362,0.31145744083060733,-0.2807062757684446,0.3101060780391987,-1.0223483410384164,-1.5427305865123986,0.3881201215552888,-0.6813783102452414,-1.201385838460386,1.9413990971485848,-0.09870917499132986
124,2.2238703087802225,-0.3087991247668417,1.7086814290879893,-0.4893193756938735,-0.3234182274085813,-1.999044571437361,2.261106591174447,2.1458415013740746,0.7655864061736429,0.8360729759938897,1.2301753629822456,3.4681970151419255,1.0900286836411743,-0.31175552195734707
125,0.3999087318039899,0.09612150590718592,0.1120228963358394,0.09833199222920613,-0.2503379199408803,0.19656763174148187,-0.10719777425500963,0.5474235970367394,0.8846169734125616,-0.2400863653108267,0.3383687945096111,0.6953187340600201,-1.1553307532598442,0.030557875359439757
126,-2.58071202672488,0.119076226587048,-1.9906489128861995,0.2228032540360355,0.3962393895809179,1.7625321687164726,-2.190337005312671,-2.3231797677532846,-1.0539162770388768,-0.8063569576133625,-1.5722404387042137,-3.972662963541588,-0.7226572946156777,0.08575466911142979
127,0.08317270374405056,0.11603991121863541,0.1559783344906407,0.1955298368710815,0.10981758909993473,0.08127575600399078,-0.1584571791107077,-0.021589127602864796,-0.09740794490098977,0.06148925534299978,0.14723843137117618,0.04528762387929118,0.13832049885939146,0.18112410107275279
