,AF3,F7,F3,FC5,T7,P7,O1,O2,P8,T8,FC6,F4,F8,AF4
0,0.03980636252735544,-0.0003126380002203409,0.03717844219579269,-0.014300979113010717,-0.03361687499535112,-0.002202471749554699,-0.016759103732737132,0.07725592960366175,0.025363767101110803,-0.021272817089736253,0.030065849080970805,-0.0010681321392960472,0.04066550059354621,-0.005687224153486287
1,7.617437040793879,4.860595507897529,3.318831105644656,2.638623010700421,2.687041878167548,1.0816032445660375,-1.0728052833787884,-0.6340740574419741,-1.3643326507365074,3.504036965269862,5.1493463862315645,6.856379558232965,5.056235380336345,4.82979303740604
2,-1.4846025759550554,-1.3310581870990355,-0.29159194370578534,-0.42519456291280633,-1.024841551054125,-0.6991917697627295,0.2198180998716125,0.2529968868193788,0.9317794141903215,-0.6397927767565511,-0.8970696866802824,-1.761365068098172,-0.9627890363935668,-1.1452335337724917
3,-6.878691318533022,-4.216473318774373,-3.1790191912475683,-2.4726860245670474,-1.9795629266829513,-0.29096806010126974,1.0336799834387425,0.5304060504730163,0.9939477784336039,-2.8449871214928977,-4.513440623341453,-5.951852040680102,-4.544376540199783,-4.247508745509049
4,2.534106685114645,2.338469689196218,0.461904235555017,0.8408254155225646,1.632603589037008,0.816595589323866,-0.4248379982001694,-0.5542555610090192,-1.6831197723926816,0.9453805071204536,1.3790216740610584,3.004409428576338,1.5766132515491467,1.994399987958884
5,5.636615087185716,3.1129940140346077,2.9603952216470057,2.127494017473692,0.8401627313480847,-0.8461357328316196,-0.9513740763433424,-0.3126735399005469,-0.4339757620000974,1.7315096243916666,3.483105329653904,4.426911871740259,3.699777156718811,3.2338834708026636
6,-2.9370002052368633,-2.803358101067882,-0.5091235789956208,-1.1706404191278985,-1.4879736799087322,-0.08289902855536346,0.6198711799596925,0.7770537208875546,2.1709428453241917,-0.6473700029878243,-1.237598187391294,-3.3598062886292848,-1.701777913497846,-2.3299780043332827
7,-4.287386273619831,-1.8847690737315472,-2.769098186434719,-1.623401237995799,0.24505454698470214,1.6912841894129376,0.8086565036892932,0.016189230813009513,-0.11069892945029414,-0.5388985473946512,-2.4577153217077723,-2.7826030914086766,-2.8295432969071155,-2.0712125708871127
8,2.66929195764169,2.701323845423817,0.45704386756234205,1.3315496546366248,0.5891963204118453,-1.3146991358392992,-0.7718381625433711,-0.8916327288235772,-2.520081971971756,-0.29447420258203216,0.47508378810557783,2.7411293430204897,1.3462868838893636,2.0917250928821844
9,3.2383171952649787,0.8797861900669726,2.7013669124635924,1.047475615152718,-0.7567892572796499,-1.7280828613702344,-0.6025718367091716,0.309453368638948,0.5679992117010334,-0.3140737888613069,1.8468735292331249,1.5869352078634857,2.2302960006244366,1.0702538106358699
10,-1.9346568183022177,-2.2020877383317368,-0.3824022135835402,-1.2715806406167103,0.7213586196145898,2.8232635186125252,0.834630465752853,0.8964906778787703,2.9147349551046156,1.6823808287885627,0.6593539984254155,-1.3993957734504034,-0.6861688677153793,-1.3808661173839714
11,-2.768451846339355,-0.3387361423951753,-2.8072661558777856,-0.5429919513370932,0.3672914466004554,0.8271470038359626,0.3599313314180885,-0.6175481445534038,-1.0559343553766198,0.5082558531221751,-1.9171898179459916,-1.280237543645582,-2.0887574811547402,-0.47925136017241093
12,1.0825828212432125,1.5994903074284308,0.38489778288091137,1.025299638659705,-1.8550228454107167,-3.7998767050990603,-0.7700445802706081,-0.8163173009123931,-3.416545127816348,-3.1299605726221627,-1.7556400697406997,-0.13309315204507435,-0.01181568873833976,0.4215143096593657
13,2.939988355269996,0.31770284664740583,3.07431093132307,0.24661804895302397,0.8758028031191151,0.6896299097210993,-0.1393457181065888,0.8790784329620172,1.7781095311585002,0.05322326547146598,2.6876769552136546,1.9946148818468137,2.434575868602055,0.4178116151202493
14,-0.4770668650648913,-1.2018746018763062,-0.5520813649568796,-0.7251068656937164,2.2094382544985165,3.8271309425577793,0.5718743381292091,0.6910514125324334,3.8657615949090056,4.184658757559475,2.3911066258145492,1.2184173731897878,0.48248152516707554,0.5078953863160285
15,-3.5915602124457093,-0.6748390921818368,-3.4312733330708496,-0.2064413639531515,-2.505970486281485,-2.2109980521914796,0.015443290088125585,-1.089950813569026,-2.8245504130773766,-1.1879488405656262,-3.9131371332695952,-3.4683247834856874,-3.14635023992296,-0.8480569775600101
16,0.36754703092457064,1.2178577446469074,0.9309635706521182,0.5455152660355387,-1.4555240000591523,-2.906744651931052,-0.2803401306512269,-0.5604992900567057,-3.9544950519836353,-4.492679297939335,-2.2892596541615924,-1.3597960553398165,-0.5381913116571528,-1.1537811672944478
17,4.4116682903935525,1.12445642114024,3.7662405733659186,0.33694129954392754,3.791893960030366,3.131762418094707,-0.04999529162892733,1.268755103822805,4.024827710636968,2.4778132073406263,5.166034632902476,5.115950825234964,3.9948248624266736,1.5859957995105594
18,-0.8107195459672473,-1.6711256995930588,-1.5103591358738337,-0.6036706301851301,-0.25650792148111623,1.4422013638882143,-0.022855313446450233,0.4495152200396274,3.4376615266767643,3.950398981328579,1.4312420842146056,0.41977554627150254,0.11666553502791452,1.3619794565141043
19,-5.059185280267725,-1.3476955830844177,-3.9546299281855863,-0.45203702936466295,-4.053680096908346,-3.1281931424260594,0.26325876318231134,-1.4459390054020735,-4.975215507985953,-3.4176623808337196,-5.993188359479406,-6.251233471997028,-4.707673410927171,-2.3541100681509093
20,1.668826462364349,2.3774934981898026,2.2153470678310705,0.8770877582959427,2.299198814562388,-0.033641079172669584,0.2394143080692891,-0.35806674910877595,-2.3401324946466966,-2.7720297114100814,-0.07303655145036958,1.3001247329138268,0.7021916232288276,-1.1302408335253489
21,5.281875691727213,1.1286502128578915,3.8950632885757623,0.36913179148239206,3.004798047141766,2.283070545061649,-0.6207678373494891,1.6469281147042305,5.243760150899441,3.62355368445678,6.091873971040432,6.377825426613957,5.044706833606374,2.870898022306654
22,-2.678407539481645,-3.0080047855534287,-2.919036777916405,-1.1996493248749107,-3.8169376233291663,-0.8029882373241723,-0.28926063770759497,0.2600836907069807,1.0078351938680656,1.4217703954746646,-1.3494297747787338,-3.1775888523742193,-1.7151167128366174,0.6146523296967958
23,-4.988795522130174,-0.46115090600237596,-3.5457217953575535,-0.025072662969488856,-0.9381732659574963,-1.0143905189063194,1.043536956214255,-1.8733384453395368,-4.62798534692785,-3.009135958719842,-5.431924858303387,-5.410460771802365,-4.86886691904084,-2.9552172583035983
24,3.5568836690665995,3.2293871951884374,3.4768973232869316,1.3519049748374035,4.126506658207377,0.8557107286915371,0.13931936631430653,-0.11485473741376737,0.049606735918630754,-0.4188388707159472,2.398906225397161,4.547354276964904,2.653005389892091,-0.07155023680910107
25,4.2541001860498895,-0.43388157797216426,2.944327763114312,-0.4729484853508402,-1.3689908862625861,-0.14235216853153282,-1.4375239374273237,2.0895870476459026,3.293051644087413,1.8334265435807806,4.261625048200972,3.7060986418662867,4.190228928566806,2.601635385195618
26,-4.10201026243389,-2.8651863106798823,-3.7768018472482594,-1.1972977373538007,-3.068490000279743,-0.2790079123666092,0.18775185816145745,-0.10808361120534632,-0.43300141201397885,0.09988444005621676,-2.8233062331994594,-5.0063612344303845,-3.2658390859947266,-0.2547022046096476
27,-3.2588150549042103,1.2063893919880013,-2.1949259771678853,0.9035054692802662,3.0124555488890628,0.7859546215939145,1.7282842755158263,-2.225595235357487,-1.6919114985134944,-0.5789538267522563,-2.9835392010141155,-1.8770475648038556,-3.1613299823040406,-1.981128482037591
28,4.24494762814286,1.9917277466951442,3.7809120929644977,0.7777373892952963,1.1091095291163027,-0.5182824043354087,-0.6297986488121903,0.398197899359904,0.06735751408501525,-0.46347811139999223,2.6561560079930904,4.584396422747182,3.4047360013823753,0.24889689986638996
29,2.2027751460021614,-1.5510597722609532,1.422237613870621,-1.066918114015063,-3.40532358749562,-0.8158974086689196,-1.88357093570895,2.2040949413275808,0.31526873091741475,-0.2869496539973125,1.955595336846547,0.48057946572118077,2.0205830587908555,1.353971696123104
30,-4.040002949368104,-0.9061680064980226,-3.5322047452118803,-0.3014265326217519,0.883715687120954,1.0962780740696243,1.1187602058803987,-0.6861131945200972,0.7843993026589389,1.187627499459861,-2.1722664395119597,-3.6848857991283483,-3.065171222678946,0.018906743148289606
31,-1.2305537835058065,1.3636566106408756,-0.7188351026495057,0.9176885368574353,2.5674041807587247,0.43971388728668526,1.9115597507050632,-1.9879140552681756,0.5651429168577076,0.5411665880213374,-1.3221175091050557,0.24405813727016135,-1.007539952172031,-0.9344108230532315
32,3.605135546397585,-0.02418730329506962,3.1184795838774693,0.023295315791109956,-2.0814690783467817,-1.2057551393992019,-1.613513674969832,0.859878583938574,-1.711391767592169,-1.8153348699111072,1.7183799233098118,2.831802203708948,2.372774677537973,-0.3373128763599762
33,0.4051542545639602,-0.7877430469295842,0.11944420887439582,-0.6074365562371246,-1.0925638839343814,-0.025612039241189627,-1.8345735697517052,1.6229164966781429,-0.994274419271715,-0.29673628689134657,0.9703730338029681,-0.4456676291737182,0.28933661668275606,0.782636382283869
34,-3.052312848346349,0.547229041906157,-2.6172728130366156,-0.08825844048652554,2.112112505753033,0.8982075071387978,2.1114962031721096,-0.8202539616058555,2.4139628396527573,2.003786322244632,-1.5143711528510586,-2.373192823079619,-1.5239408282647762,0.47731715198988883
35,0.26642980807101946,0.12358258938538409,0.3814290361480807,0.4069411799018585,-0.19115022508386909,-0.11898022842415376,1.6535337758150523,-1.2424269116557294,1.2195156550704451,-0.0911319242412198,-0.6370175608340511,0.5091636261461813,0.07164560903333635,-0.788173138824581
36,2.4496432853657604,-0.638301622378282,2.060543239965211,0.4324012543638723,-1.2196435358816413,-0.4705753242558045,-2.6284125460046464,0.550040565203962,-2.855385405343052,-1.6950498929125946,1.5414971768718997,2.3132596387677413,0.7156305861907105,-0.32420018657149935
37,-0.78501105487301,0.3436617692637724,-0.7852353838151673,-0.5507008877889467,0.6742278684287593,-0.07609876164405525,-1.328458387824853,1.014552786604385,-1.458499625437594,0.2435628916069999,0.0972845812652461,-0.785540803261895,-0.10652281595875981,0.7535070468897098
38,-1.8323293460469983,0.4781199888009036,-1.443411785281158,-0.802080441014654,0.08170784668460365,0.2771728016630467,3.1553118694584983,-0.15142338728883642,3.2110859763605912,1.116043934757096,-1.5813901281501332,-2.3596885426886915,-0.09625962459792384,-0.0603225687507697
39,1.1314033981242495,-0.49147165474243426,1.0560037171189272,1.0933655680485332,-0.27209010242167575,0.4084671519667329,0.7957205054513421,-1.0512915566356476,1.7205218481780062,0.031734957786784104,0.6812861104359944,1.3706349524327124,-0.09333970247348013,-0.5246977626027602
40,1.2412423592484931,-0.3198346225927199,0.767045055026172,0.8812301761446951,0.5986117899302676,-0.5139913586167159,-3.622137194181153,-0.1846239053384357,-3.6656397307064856,-0.6210895327168795,1.375071653501523,2.1399919141487116,-0.25306828929634023,0.47967363123978757
41,-1.2830412728632183,0.3998044411563954,-1.1264345097931947,-1.8581068882970002,-0.5822616999162169,-0.5284371574878162,-0.020864019268383927,1.3318749787521829,-1.808564166883029,-0.6580251845195252,-1.51357192352061,-2.056995476823475,0.40778600667355996,0.08930394777952826
42,-0.7450414494289069,0.3333316462388253,-0.07947225332917116,-0.45771844626699776,-0.482641720880981,1.0972858337493099,3.9011623010447174,0.2718208995603901,4.213832667124202,0.48280534874230613,-0.7979044832688185,-1.4463863332603164,0.31930539571019667,-0.7180287489598088
43,1.2582688921218825,-0.2722084458191613,0.9403279255450272,2.5036194246255463,1.2361938237592036,0.15318793118851007,-0.9430330137929808,-1.693816714694773,1.496046242051771,1.367516503235409,2.108358884962349,2.470406063145172,-0.7111078834474109,0.4127380927754811
44,0.4157664325260539,-0.5184911062544751,-0.51912119659823,-0.45683362316657156,-0.2539639207509319,-1.7053555790857573,-3.8627227833441773,-0.03490796217149789,-4.615840411353374,-0.7572141895400085,-0.057229837024103745,0.36680100993170867,-0.15452357986620302,0.6595653994690555
45,-1.1412549825308598,0.2985352969700627,-0.4996178040443058,-2.6745192539363107,-1.2133174259575117,0.7534154494816346,1.9362530877888073,1.907416371351683,-0.7457519857909932,-1.8721255479232668,-2.238948791623162,-2.2951488420594632,0.8970814852512242,-0.7631674311504079
46,-0.27167737432346756,0.7265128750143955,0.9113530036231957,1.6102891688230014,1.077575217640613,1.9580390425701564,3.4574267338946254,-0.43665432102834356,4.544197422995873,1.2881242122800995,0.9306738851817639,0.7592775700870327,-0.13208851246504616,-0.34718972891187266
47,1.0501744781505449,-0.5444064592273219,-0.11816594715125427,2.162953370518566,0.470335010565358,-1.9384625160904878,-2.740560476915953,-1.7964819564318315,-0.19345592148366797,2.0132168953951104,1.8656031968568974,1.4533065923742843,-0.9126538099106237,0.7748131922207544
48,0.23900998397264203,-0.7611047621604583,-1.0124186813825287,-2.600972092556031,-1.4397419136726815,-1.6290335049781621,-2.7707240983473334,0.9253200787452639,-3.821783797637668,-1.8217068221449777,-1.5364683358021152,-1.5155716053471877,0.4016179519291361,-0.04048608758529265
49,-1.0592701683278558,0.9231902557477033,0.7819520426543024,-1.0100960590342816,0.6199187045264616,2.977062867772808,3.178119723940734,1.335798910623673,0.8917810020056819,-1.8099181018803048,-1.1447358242201517,-0.14744712993847164,0.7867205511826082,-0.3774301154973035
50,-0.17939115381220333,0.49297084794479723,0.8021669516866852,3.0346300659609113,1.0887562267289084,0.7705955525067565,2.004353570757818,-1.1958511288373384,2.5829345159243755,2.1417202640041313,1.7005096468854317,1.6050679167853845,-0.538135940331348,0.2694222952824413
51,1.1331939352078915,-1.2513557373143596,-1.3497762025538338,-0.49339819313588856,-1.5186919593339823,-3.4786231213163057,-3.2035523118456593,-0.6671022605636181,-0.9840956598751961,1.405153376877823,0.33748574009660987,-1.2348868039370755,-0.6258814391327032,-0.352917134460607
52,-0.020817279948549854,0.07260240036496396,-0.32596742747182567,-2.6819268209399647,-0.17415134490450343,0.313349541217414,-1.3850391046529358,1.1171412941725738,-1.239845841287208,-2.144839826789859,-1.421520071681654,-0.9664963754768578,0.506533268035687,-0.143514713526762
53,-1.1344614394548542,1.3457335719895098,1.7040421054565829,1.9065920851545897,1.831493937831756,3.2658543178177553,2.928406930306921,0.02380002923274147,0.39630198692808044,-0.9715582166451137,0.31368342475153665,2.283168073679327,0.561826353858558,1.219485567625502
54,0.3592747296255461,-0.7996604768457978,-0.3240225155188853,1.5738887014075884,-0.887061558591299,-1.2194848281400708,1.0514981457719057,-0.7257773722317777,0.2669058694503776,1.8353134231563777,0.8400364867963248,-0.22609086680226423,-0.3763339598707758,-0.42407005485341576
55,0.913067628650962,-1.1107968100154673,-1.7667131201170474,-2.79759111450959,-1.4932020250864955,-2.4354371988011367,-2.558626129938085,0.39059586033561117,0.5964416910882196,0.6453598417069553,-0.6702547807300705,-2.7045476317641493,-0.6710059023901618,-1.9656430382447954
56,-0.6966755239532394,1.4841739295407919,1.0271803604546583,0.0021840153106972267,1.6697885030531172,1.6303642874108073,-0.9874642603308554,0.19761585603272488,0.06419519334127723,-1.2763250739130316,-0.1553841832873641,1.6497263161831603,0.2839764330641066,1.377452334865421
57,-0.4215420881307919,0.5796055190471352,1.5032383042756576,2.900944368991633,0.7440353075560995,1.2846488205610564,2.2808630031228327,-0.49974433661253365,-1.5199552794565219,-0.5141547813740726,0.7156872919589096,2.392477754709502,0.9168783195962142,2.350150001450958
58,0.8315919552901632,-1.9411832685701214,-1.6449319079610247,-1.6055102788553481,-1.9587930199054262,-1.4353739026878776,1.0395483210175425,0.2508077510036873,0.16541760069134825,0.5509635588132139,-0.45421412087865837,-2.944208175660415,-0.34626101021272776,-2.5258713897352503
59,-0.22604520174272671,0.10338754929191965,-0.9300902892234058,-2.211219491445087,0.05329419165257699,-0.16202245699393072,-2.1629304261374336,0.3757805174906431,1.9690190292106533,0.6363401591243839,-0.5219923756790159,-1.4240653667269607,-1.1594063272248978,-2.219572184256368
60,-0.6273052821304361,2.0786212457683155,2.033480696906338,2.8035042627678135,1.8115353086744268,0.7408517956370646,-1.0079076035289012,-0.47057636473617037,-0.5774990570868341,0.24193821712114041,0.875299254449719,3.8028896506280554,0.5769969422850317,3.5907331599309273
61,0.795922620937623,-0.7471746598079108,0.12753760847987858,0.974973800769789,-0.6242375106525637,-0.6719958118851456,2.1212223349519523,-0.18147377701003845,-1.8322712757976891,-1.052082409178647,0.19966314972814286,0.015536908963632995,1.234400736853242,1.5596196380541958
62,0.10929298919955145,-1.9274486537821536,-2.07174759959938,-3.327219566941,-1.4613836959308866,0.21061356370429477,0.7597158356176018,0.4392314619592786,0.7238831886098044,-0.9712087713792883,-1.0650808044951665,-4.028112454405884,-0.8642641330709989,-4.282147262706966
63,-1.0541233288781895,1.1984971287685304,0.7575192554082513,0.41572912966496217,0.8998368803543182,1.1145583183905425,-1.9686933186038813,0.07479212412318952,1.3424109054054445,1.7637039891621038,0.14272420231894611,1.5367020146674457,-1.055971624926562,-0.5076425384385609
64,0.5273015016755259,1.6137279444219494,1.7024565216948768,3.1556998010136224,1.1463858702274805,-1.1523121271687826,-0.3086335816896035,-0.2464788459050777,-0.3509091531051185,1.4695119755458808,1.0350467164085728,3.556536159581182,1.028885389938768,4.383378069520663
65,0.8925732013949019,-1.4063088563119748,-1.5356665414837225,-1.5826470100092498,-0.9953955022951512,-1.2120889315054861,1.517584259468556,-0.13192183125663587,-0.9252465833900771,-2.6961298848835544,-0.42046240768887616,-2.916144504017869,0.675743494685444,-0.6813097228788946
66,-1.002642810470364,-1.2833472409329447,-0.9659363378158109,-2.4935437781503627,-0.9728777881099325,1.8820578016012484,-0.1767472890001185,0.02624510281829129,-0.45223005189830995,-1.5659610211420865,-0.8274566321729788,-2.4613857906894543,-0.9303001997799312,-3.815054278558814
67,-0.3923583951803519,1.4305382639823596,2.0266724437665773,2.302648841933398,1.0895841344879607,1.1049053352127791,-0.6884602567408703,0.3260389741901456,0.9379692811289373,3.669652203062713,0.5776722606237749,3.8422183779985417,-0.25874558272079856,1.7045227583912457
68,1.0802798540820968,1.0181400209629174,0.0027332709154464247,1.654594367666207,0.8835683867476742,-2.3043242433897664,0.4405358472792846,0.12017357604236767,1.3057984368133406,1.1520932803732307,0.49472469080593284,0.9352486560135169,0.5530972248304991,2.658187637352885
69,-0.2037928123984658,-1.3849962210722973,-2.118541253495891,-2.566683368626051,-1.290367757782075,-0.9620387673782639,-0.4249899403963053,-0.5636624924567416,-1.4491784094362503,-4.415613280699793,-0.5790380060655627,-4.1175513121744025,-0.009532333873757163,-2.2933742086181454
70,-0.6740114615872345,-0.7953487380398521,0.9830406975916824,-0.9110936030729342,-0.7309630306855287,2.43173577629779,-0.2559670562154079,-0.1676019082802082,-1.7615839674716345,-0.25350724699399585,-0.09040018569829374,0.7421726376541646,-0.019944842842492795,-1.1325605457525194
71,0.589689538775281,1.345231325181711,1.8056346775706247,2.532476630144711,1.5677038100146237,0.9273367401746051,1.5687031252579047,0.7494341306443635,2.187402521523754,4.645362886027165,0.3958807019568825,3.6630478025626836,0.026150512436723953,2.2814751682449224
72,-0.10998706362454248,0.5231970745441109,-1.7850123396982533,0.38614435858514023,0.3989007038985438,-2.360486113753413,-0.459976124106468,0.15914457614083594,1.5673738604756826,-0.9303949427833235,-0.32158811233067836,-2.246092827047215,-0.474640497923611,-0.4570306028730527
73,-0.5176396519612102,-1.2826206377396496,-1.1882745465312983,-2.403956702205996,-1.7854579009995337,-1.0822589915049858,-2.418914443992267,-0.8386033992001972,-2.6877451957783056,-4.156634291101298,-0.002344352484975962,-2.541309436531822,0.17816707727120584,-1.6444176855655062
74,1.004929018377925,-0.13676606023220098,2.253208034500885,-0.04264986526692959,0.10604249393209085,2.2293739808358533,1.5879608897781325,-0.1603419812623869,-0.8234623077156984,2.04878209125094,0.6449648635252753,3.2581862916612745,0.7655394330592491,1.7885544310106143
75,-0.10181340965218026,1.0785053417702766,0.43727189781706427,2.3117362077216064,1.8050621029590443,1.4282482510840793,2.714148566661716,0.8488357551319913,2.554328448250996,2.9403860437376625,-0.6010287969072227,0.9675693666474962,-0.46417049146339795,0.5091467282850746
76,-1.671905375006806,-0.30959110512073096,-2.3274271645954268,-0.23623843083309515,-0.6488539557474234,-2.170385627916002,-2.835285544106113,0.20951012892654297,-0.05731372036099557,-2.6937893012895135,-0.7417278260286362,-3.5326839891638655,-0.7926413042337821,-2.5908016953924338
77,1.152091534244255,-0.6226987166544317,0.25671952021640215,-2.265584476691764,-1.5924024248534552,-1.8946600551922927,-2.3698854956448123,-0.8313513198610437,-1.692588264178403,-1.2413936295472234,1.3376925618011626,0.7032628377329168,0.6612136591808415,0.8627263289895825
78,1.8167777259591877,0.6269343946985716,2.03922572358453,0.5367857005079455,1.048705601390746,2.2657000893494854,3.8432757771388104,-0.2963934598608026,0.565095722600262,2.5490062803476206,0.46822418676773153,2.9753915637544117,0.6144218019833649,2.705667715596213
79,-2.3279610885420676,-0.0619378760474055,-0.7272809270098015,2.1993786381970017,1.2585303091726336,2.3722057258648066,1.5238411198275619,0.8274802228707853,0.3833037287204816,-0.4689262816537192,-2.014562723850945,-2.0338455176516455,-0.6468172357635387,-2.115821366548456
80,-1.3045299418637335,-0.5844332899451105,-1.4927276709894985,-0.8519988234550414,-1.1983240002341524,-2.530246724725026,-4.3272919046548495,0.37795999026186866,-0.36833681869140467,-1.544361640706372,0.2351476513069322,-1.712916556238369,-0.36540439556979615,-2.141382320308043
81,3.2194370831836885,0.758645494357791,0.8595403001255595,-2.0643064276382557,-1.004809697441284,-2.7556080521411537,-0.4911948271100413,-0.84236217762103,0.8441393757118075,1.6250072317873583,2.3452166166986608,2.616702165445703,0.38949962004554034,2.870292430316792
82,0.23715694196681603,0.06833317651388883,0.8400220249458238,1.105985661627059,1.1445667428738697,2.9271657242364633,4.190372756147976,-0.4132421622358732,-0.4973981054626238,-0.05186114893450193,-1.2435791802112166,0.10954608267216595,0.1918461690506793,1.1060955683839204
83,-3.4497456037562477,-1.1219841535185433,-0.6051126853493632,1.893971681052022,1.0016606119261025,2.9693984960386572,-0.35290751705459883,0.8497297692600987,-1.476599052697415,-1.7791100844928185,-2.0659163055579404,-2.220164406010174,0.053537858881562525,-2.823051570406994
84,1.041264701844566,0.7904549017110547,-0.25897464922298136,-1.238885156403561,-1.076095831454812,-3.399457183348337,-3.5640910412158853,0.3893307454133158,1.6283459398454543,1.6694992853079114,2.218457660825148,1.3068886342248554,-0.19923424245291352,0.002673372772253035
85,2.8325512704361024,0.8556662877941462,-0.005056977338836895,-1.7896251360876974,-1.2724943455629558,-2.9632442186022163,0.7186872821775531,-0.8166668863486811,1.2865230633900842,0.816381715943517,1.1051029841229645,0.9101021036678907,-0.5672341091425298,1.8677766514282903
86,-2.0382786214070765,-1.6161445223627215,-0.07254303017430533,1.2809310545154948,1.2188878710637259,3.886546430678238,2.757910176595492,-0.3235596137114886,-2.44613047475779,-2.624160941197028,-2.712242524664062,-2.0119817800932185,0.4250290708451609,-0.6822738140787987
87,-1.4883828244674477,0.08976364017444868,0.847818002743261,1.8361474069477237,1.6546958477778364,2.69218126869968,-0.5188621734464699,0.7260514799083757,-0.4676549740720725,0.9326272320417124,0.2977209080345452,0.9224764353008739,1.0167670620102929,-0.1904807943428859
88,2.296881886493137,1.9447188960582484,0.01817609817589064,-1.353187041359319,-1.695953713065411,-4.3082072948752534,-2.1313965343011407,0.248093214121631,2.4958772405296483,2.4039627207853664,2.389302637817399,1.6920242921204955,-0.8317967936215518,0.4897524201756276
89,-0.14812114239442525,-1.422962176161796,-1.7092431845890919,-2.012918736962343,-1.8670219698116257,-2.116730341531637,-0.09307069701975532,-0.5834546473260954,-0.43965635275897264,-2.7656000484284156,-1.6295508627388713,-2.6686415781369734,-1.2828754161504534,-1.7243376475045487
90,-1.60858390165856,-1.4703032065162889,0.45839123593612896,1.5873382915281713,2.43088843529134,4.5337308180654015,1.9361217472070031,-0.19297087874232274,-1.7026421513727874,-0.9335240219073365,-1.249456374843539,-0.40026323199088676,1.3124396282479602,0.7574766026998977
91,1.4682645150530396,2.6006195817677513,2.3241495897804016,2.1701144805481514,1.6528282815780682,1.2452006812478957,0.7894963413793105,0.4116436982631204,0.8108463500860935,3.873398346122568,2.3221472764231366,3.722571330753442,1.2958305716825465,3.224858005651983
92,0.1542740256171691,0.24633167248880086,-1.240789270658602,-2.016569184381217,-3.1525179084619985,-4.380911379670941,-2.195964674225341,0.17686745672916293,0.4508888361823573,-1.3239313199014775,-0.2930940877087668,-1.4233887838356833,-1.7076014597992195,-2.8406233820018416
93,-1.9446626910614773,-3.076851741886956,-2.464803697695468,-2.097594455977001,-0.9259308199334345,-0.19946755595954913,-1.2223856986218917,-0.24258935071410204,-0.2690804311637482,-3.6994632495787485,-2.0550686479270586,-3.73220104785691,-1.0693468859887327,-3.7421074413142708
94,1.5208767537465757,1.2855532354892423,2.0552110915355977,2.512795027248501,3.504334889864494,3.6790502282906883,2.6894219844136495,-0.20328551573757897,0.5708295602835562,3.506970117148403,1.557208978223105,3.1004622672281066,1.8431432949178606,5.157915533174947
95,1.3925225304256115,2.589988221108168,2.0547096664633315,1.6517256025273552,-0.15661833995149518,-0.7518248712279788,1.1975142387810065,0.11078035711585356,-1.0789635679329215,2.2280547124263217,0.9719385031546299,2.7663950704821887,0.7241944408459572,3.0573026916113193
96,-2.7218611451416215,-2.478872289402426,-2.547510770868638,-2.819235192967762,-3.208832827515141,-2.383232607157538,-3.0556199689546237,0.2572969283108822,-0.7032599903620342,-4.705879358852494,-1.918091242569008,-3.983013340663567,-1.5920875599783968,-6.936678016831634
97,-0.0955255631487064,-1.3263913381146073,-1.2471785127723511,-0.8657432169762805,1.2347052687416218,1.2471734118040259,-0.7793251269447649,-0.043959903364312554,2.638409670778644,-0.04640540963901957,0.3324696522059132,-1.3107653631482472,-0.47953533377519425,-1.443096661408389
98,2.92560448001324,2.797419121282923,2.433164564984879,2.6705555840543123,2.210234568496522,0.6755368303774963,2.98052687394129,-0.304844033475859,-0.32865865280927775,4.3761420243462155,1.1411587988141119,3.73325384082368,0.9484266538698515,7.564971016254337
99,-1.2952291417511086,-0.14362730077924574,0.4037008220351443,-0.025330405632645228,-1.8851308908866558,-0.9793866839668545,0.26247364363833725,0.048944732220321294,-3.580812773331285,-1.878429234781154,-1.0734716848327979,0.07594811502683738,0.5920310554176287,-0.42176534797366366
100,-2.0497223944971292,-2.0975717061085883,-1.654315127928233,-1.9402856983909598,-0.7282581931395902,1.0270854140633718,-2.3683897947742087,0.3020382740013191,2.2256300272299843,-2.6179703579210827,0.4595965057265645,-2.48636856669877,-0.07857693171611208,-6.883349705651781
101,2.063309493201835,1.1406291298471416,0.04821279035387112,0.6689226671528551,1.8029532114919733,-0.1253699636199828,-0.015413934462161712,-0.0993033132368082,3.249469718929611,2.627642250975867,0.6625684568760158,0.3107159998030382,-1.2456004863096404,1.7500434908907168
102,0.5148320445625644,0.7186431939942246,0.44971949197255057,0.7358779777100414,-0.8070783598736547,-2.1994838058188795,1.402400635737051,-0.21723208222508217,-4.205936577223399,0.16971881414020576,-2.1363647816019533,0.8109280118689792,-0.6927196944479154,5.276390424325063
103,-1.7839245916507427,-1.223222705823197,0.17718620358550874,-0.7530644299437353,-0.9450212344932686,1.7996747697448692,0.27585894979992126,0.13745855803044163,-1.5133767727288046,-1.7688577565605768,0.9805406368075553,0.4035718649385896,2.4308991623102667,-2.0187009286370365
104,0.9509041118405844,0.6798583122817718,0.7242707722312087,0.6148569970632979,1.9188598663681893,2.433179154728425,-0.4553494710740984,0.056779945916654,5.3542706035826475,1.9060055556896924,3.0473969411760655,0.5312429970500988,0.9859457035189071,-3.498860913276371
105,0.5441653007762084,0.41993946547604144,-1.0610916069201304,0.16153734892312838,-0.4319557511874103,-3.4832817639952154,-1.0105652910512666,-0.09833955601132754,-1.1215227410080288,-0.4148114837316237,-3.3543375366494685,-1.9620004345691304,-3.880800292449119,1.2249916640054388
106,-1.6722584994417167,-1.4552842844065148,-1.3998370564257459,-1.6880785378157823,-2.278030010618824,-1.6513834057894967,-0.10517637815389456,0.12304276456992061,-5.060278057005164,-2.707243264765202,-2.6543085213517488,-0.9265841552405248,-0.5361094058742704,2.3132774588308704
107,1.0990410073986898,0.7855601045210281,2.262962152207988,0.9539293797528862,1.8636084390383179,4.535486573807006,1.9194361909562816,-0.05267575075850931,3.715181202464213,3.0328934792006343,5.5816128342167355,3.6952425818294428,5.120614706143883,0.11335089251456279
108,1.3608850050167396,1.3121314822016792,1.3265200574180187,2.143229621063734,1.841879801918186,0.18891477266891432,0.11150179780075929,-0.23217459039860683,3.3219218039061573,1.9125927190045549,0.979548697908854,0.19448144355177888,-0.647992966734538,-2.122147576332429
109,-2.404230041654087,-1.7119182097169163,-3.271157397326731,-2.225545944493629,-2.865143295569417,-4.520535533931204,-2.5836720206883967,0.28828176271118255,-5.314653388403026,-4.991038065647312,-6.793945293464466,-4.816822179671201,-5.640217365277759,-1.2190425530116644
110,-0.24226016635349623,-0.4436090808764337,-0.5962705089842946,-1.8702364006559549,-0.8689385231691971,1.3284160566323433,0.3159481606614006,0.19001636244788886,-0.7549884596911797,0.07722489153458112,1.3993983745142309,1.3259133775109642,2.228630855992429,2.7850471780799806
111,2.8173116958814557,1.8378712401164732,3.6450528277273238,3.2238063175983656,3.1293514249771524,3.4171510539118177,2.6768590235432157,-0.5173674166282674,5.379581792887773,5.489815526558503,6.506408281715524,4.779411708094404,5.12161619612029,1.4421678861317522
112,-1.086957648290065,-0.5905796143458195,-0.4046473391973713,1.0313894016467664,-0.19928260503141285,-2.258909875720448,-0.8330407718557211,0.024133562903086072,-1.6934637201362708,-2.345817726783998,-3.6073877795611287,-2.9332769319041203,-3.6415358102619138,-3.711295134656001
113,-2.2273054027663495,-1.0610403778288744,-3.218812731202049,-3.638924891446663,-2.6422604496637234,-1.6316381268898215,-2.12429309665765,0.6226414144765431,-3.9983014073477117,-4.367257910867281,-4.807290597774657,-3.51775137781293,-3.6068020082890815,-0.5720185745343901
114,1.9805227809111843,1.1726579277242575,1.1873759792430612,0.0216992573991314,0.9323184284552115,2.2325974371932573,1.0493187533873034,-0.3440004972778898,3.1732047891327055,3.899602830581965,4.846465041145787,3.8872634462746407,4.323834025389184,4.170132486162104
115,0.9769588484990032,-0.27942341585007197,2.1624573823616013,3.4002508762547716,1.664085318795768,-0.19825712055664285,1.1287770207722327,-0.523761342657912,1.7995719941590436,2.124022675295265,2.289079539985011,1.4615312215808107,1.5081992504973576,-1.0807991773751202
116,-2.057773204623909,-0.9401068237317158,-1.3893036800628042,-0.9114073776411145,-1.0854868000472424,-1.2959143140645637,-0.7187373214888398,0.6355273088141707,-3.2801709623774644,-4.106243302339978,-4.708609542558246,-3.733445156214157,-3.9572575763550972,-3.648093683414651
117,0.35431478933686705,1.6098483280954838,-0.8802992498109998,-2.679421190145194,-0.5928743817001909,1.4994366934743597,-0.05945942872077936,0.2315111810336565,0.36963759624178094,0.3525228554853491,0.22243858017409335,0.6752512270229153,0.5527644631245806,2.856105332334824
118,1.3460347526363616,-0.06726034519332799,0.922745191158435,1.394265856521607,0.6746670785403036,-0.15797212026414484,-0.15586519008540692,-0.7598552769200535,2.1663421614241396,2.9220162308391533,3.295790928013522,2.4734730271470564,2.600904503475536,2.071093892573875
119,-1.2518692051027172,-2.4202294929101185,-0.1855193182013481,1.7854060248324257,-0.2134294459845721,-1.9949499292092743,-0.7247952001412505,0.14263217136179857,-1.8158761188819483,-2.195805452715426,-1.996624417769118,-2.2067428774357096,-1.9953748902554813,-4.058108221856841
120,-0.19910818691943435,1.484155707865796,0.01890064902221663,-1.442185635262262,0.0719669803712536,1.6165791027527232,1.3472233228256265,0.648585334561903,-0.39168260275184597,-0.8320663996779825,-1.124066806223722,-0.5179764918421531,-0.6509546879719527,0.20087092063689418
121,1.479556683309376,2.479293493008201,0.7392382443294383,-1.0125236223744754,0.5679350874221853,1.755511337251356,1.019754105253678,-0.43413053255563416,2.2362267448399087,2.8897835248964574,2.636702508348061,2.7302965098861214,2.488474565238804,4.239906240311754
122,-0.9258611107272112,-2.840862396691079,-1.0784022335782868,1.215608014334252,-0.8431965194286392,-2.690161283578432,-2.5244245675458363,-0.3473793301724872,-1.3656431396873112,-1.4166160183918028,-1.10985023367924,-1.5210192999626941,-1.3348483454707103,-2.566200593404264
123,-1.111424895875855,-1.8680669766170785,-0.7208648315438166,0.51792639988699,-0.4874117221672126,-1.0731809154138146,-0.8240926328051515,0.5080901605631294,-1.7388531437898993,-2.3918076001686774,-2.1516667537920204,-2.221461414483579,-2.026914311895861,-3.3320936330654347
124,1.684890795099091,3.779070997476572,1.8983096146578031,-0.9554840856379831,1.3793851418917162,3.235109308297157,3.3922011470492395,-0.0008620643080873181,2.5755994923918766,3.1269069389113775,2.7774420938910964,3.072669173528947,2.8428129319381337,4.431929334294507
125,0.4098221544141397,0.8590667382555194,0.2820453404413855,-0.28030203320397135,0.1349000285876713,0.26314711498535576,0.2928079535945814,-0.33140875962870764,0.6946511800107638,1.0497011257991706,0.8765405401112439,0.9687821941265127,0.8726035490808178,1.5979732111166116
126,-1.9450965227801789,-4.149184985632813,-2.249067034166794,0.8553153881635767,-1.5512772834290691,-3.3172764470583425,-3.780040711501975,0.2272251837644762,-2.9872496673865996,-3.8684986010584437,-3.487374202784129,-3.7756713865217395,-3.543113293099001,-5.396479911569403
127,0.33969541472926584,0.24715100435389603,0.31164762169085747,0.14644080333081105,0.27676807501759637,0.47702620084037456,0.353777032570958,-0.0073509854602819644,0.4596460508762678,0.5926695951611376,0.6846767049090832,0.5759557288247792,0.5719906970958399,0.5099215005946329
