,AF3,F7,F3,FC5,T7,P7,O1,O2,P8,T8,FC6,F4,F8,AF4
0,-0.1280978370024936,-0.12986511556966757,-0.09450942205054332,-0.11042019077534257,-0.08526664255590652,-0.04823317174645673,-0.08400110772758343,-0.01820498012655479,-0.19135576368518464,-0.18794431440145265,-0.16676766856714528,-0.14857073663486844,-0.2017760273754718,-0.11458789858245329
1,-0.41912833196295335,-1.8886783333435175,0.8609737278402575,-2.1839427146362334,-1.2504900834918808,-1.082474347132773,-1.5515151249952976,-1.523772352052572,-3.727298410749309,-1.8534352141878663,-2.120892825032001,-0.9105166786858873,2.3045736979596807,-2.4293552858688585
2,0.4275845390354355,0.2168700926233453,0.15565664819134972,0.8544708167111673,0.4176597934830232,0.32604940373412095,0.7671882873575864,0.8957866058018349,0.7258754329781767,0.5657436984947299,1.8083679526046168,1.0381098039000913,0.3951353498777185,0.770112301486589
3,0.34900777331291427,2.028449425711119,-0.6937824174915739,1.7961043971719688,1.2467116159636313,1.0273774854467357,1.4086191570516153,1.1062916363483088,3.8691593031413825,2.0508709611808356,1.383247366105944,0.722997893425317,-2.1760422917706865,2.2093596639204525
4,-0.6453179649105372,-0.4004981805713165,-0.2965537780065959,-1.2761290462726218,-0.7714859728528087,-0.5350661875964537,-1.254554480783679,-1.4586449922546854,-1.3221308121991564,-1.1910723142528434,-2.9439770831595093,-1.8234320842490113,-0.5258022898208085,-1.2593132049046756
5,-0.26938641366169586,-2.2676224672987293,0.4066710496624891,-1.2585138348619014,-1.216289738546841,-0.9902832085290124,-1.2932120088671981,-0.5150823094745051,-4.143708602867962,-2.2434613290316237,-0.25138960815680605,-0.3806811665382566,1.8434992920750437,-1.863395310590191
6,0.7660972334151185,0.7416604175579168,0.5754598699403465,1.2390144997205572,1.1558458161901222,0.6789387827614823,1.5160406302111082,1.5812364852054623,2.0951975223285957,2.1838991124813263,3.3420107093018574,2.4271324947432227,0.6452738553668211,1.5134747212624047
7,0.24052534516505206,2.4761329749555245,-0.12001241616271968,0.8892009685966571,1.0957148592424208,1.0292249324717047,1.3809021256162541,0.052810338496394243,4.425382817966083,2.109328086292902,-0.7887428684861956,-0.08039196813284413,-1.261554209937078,1.5285333014486215
8,-0.8189979357947916,-1.2008112738716974,-0.9640920734400398,-0.8365965938992138,-1.5258257222297396,-0.8118686753415106,-1.6866222489039786,-1.3647572780514505,-3.1041107427955725,-3.4250267566117505,-3.1172219888307366,-2.76157753518406,-0.8856105483666873,-1.5588419215044533
9,-0.29798802074319164,-2.563384449988461,-0.05079255229462923,-0.9392856838744528,-0.8350503658682219,-1.1497048970484276,-1.7222775682603428,0.06664323417923446,-4.50595441326761,-1.3795697131263467,1.3764922288549737,0.5808367257542489,0.4981612899747086,-1.2977474704701877
10,0.8623963899578527,1.6816672080274242,1.3464172408051764,0.34722877416313064,1.7870652014917976,0.996305558383282,1.9653166312048158,1.0655269646090157,4.273870034905467,4.583009350477789,2.6130016035971315,2.7554106917238506,1.3758717421761426,1.4705309215239533
11,0.42946889462507715,2.518475506965,0.06448086091822171,1.4640819230790973,0.4392689982634377,1.288623628548604,2.1844446104705955,0.17019495256903236,4.17854681177561,-0.011615022424575057,-1.4305282849014154,-0.9841601551399219,0.24262476921653195,1.1942316101254866
12,-0.951205562768132,-2.103699094363195,-1.5691415373142272,-0.09603398472595882,-1.8304908278166774,-1.2454850506452604,-2.4602307421208365,-0.9408054869524961,-5.363737347938149,-5.239051288540753,-2.1733982685899296,-2.4003395245479973,-2.1252430314510105,-1.3106902790273092
13,-0.5728041077836364,-2.382898411948841,0.009232094173576693,-2.289859052359782,0.012303158468024754,-1.348393307860231,-2.522889895574694,-0.5835565148477045,-3.3654580916352796,1.8615777216627591,1.1187805724372188,1.124041864944204,-0.6969839618612781,-1.200042334699922
14,1.0987912786492247,2.441408945971614,1.5236230659576475,0.2910455586662549,1.5835560397101862,1.4910266386837059,3.089004329798916,1.1052579967382699,6.0322646709847385,5.053452708835836,1.9580346029346305,1.7849332213232492,2.956041812755498,1.100334977867034
15,0.6403299103943425,2.188713435618765,-0.013005247002451691,3.095995134413665,-0.38162936159655025,1.265406410613454,2.5404427083523067,0.9148307188640539,2.2147883425102277,-3.7419259045237334,-0.6904524463487689,-0.8664961886850664,0.6825403209355189,1.3042449583722098
16,-1.2509015293953742,-2.6997564976582877,-1.214724800357111,-0.9173418026466622,-1.0541337316460777,-1.6056938098071791,-3.609457281137131,-1.478983997005218,-5.9911315705881885,-3.9078950061921076,-1.906182902590279,-1.0863489088713574,-3.544060924974882,-0.840934349859284
17,-0.565642973454194,-1.924841788799421,-0.22063483087199015,-3.5726579652348707,0.5192169035683727,-1.069417321828326,-2.2260772912448012,-0.9762750231358159,-1.0903506606781166,5.130370070588981,0.2974345628135841,0.17407198468343382,-0.22179131348022307,-1.5239066944094652
18,1.2906624425749014,2.8539854163107,0.774613556660737,1.7456242146135732,0.3445499935058068,1.4786824792629518,3.767334943122099,1.8502037724244897,5.173328256368535,1.971952382345978,1.8460692845273763,0.5169138278703161,3.557596506970113,0.5584353243366206
19,0.35471936294558604,1.5690161328159749,0.7778711269247643,3.571879188250385,-0.32330088749031843,0.8874989756438465,1.7751629262176438,0.7493340481072065,0.4342887721930941,-5.5845364736752785,0.08003422412332568,0.8645517677764338,-0.4305304550418508,1.8778781898218768
20,-1.085044834188577,-2.8195594187245017,-0.4103018276568589,-2.451764167184906,0.37324191358027464,-1.1015949493581647,-3.465936126514844,-2.0094097559559496,-3.816211860531316,0.3316886098009862,-1.6540569426122893,-0.250866574819656,-2.8246013974503654,-0.32406244910250687
21,-0.11050171002522435,-1.1608760412217842,-1.608027287993977,-3.1708408958010876,-0.21509608286918072,-0.8760340862957381,-1.4703194378463584,-0.3794022319892736,-0.5580372928738438,4.8974579728203285,-0.5732399155516349,-2.0552432627626747,0.8812636816873727,-2.3347162414221065
22,0.5595276147305105,2.4985117407323933,0.3115804054006115,2.782478661049677,-0.9120741983680895,0.6045717219174842,2.8429760313254646,1.8745983997078695,2.39770504851552,-2.4557785750767236,1.352319663394545,0.3665889401159408,1.4382881741830316,0.22490556222938923
23,0.00409246804731145,0.8441251535347628,2.532704618019076,2.613612374462771,1.000597455596493,1.1139135500161064,1.4961910220500632,0.07591378105167117,1.4664870244519805,-3.177011102276765,1.2911157722172792,3.156483799197012,-0.7714214879152217,2.7803517079839417
24,0.23904141641145057,-1.8821160311303258,-0.5655665552185665,-2.675326509752195,1.1315323875292966,-0.2043767733341157,-2.197846120411739,-1.5367013622082335,-1.441897860561607,3.907694970438788,-1.09077026213057,-0.8264778852442854,0.25615926685288914,-0.29676352844491055
25,-0.19495093115769282,-0.8171535458451311,-3.3136150243869844,-2.1668360734660235,-1.859818970953524,-1.5268803779710869,-1.8085171963269877,0.020492277648685466,-2.812027814035409,0.8147724652165423,-2.211437956553533,-3.946754210729577,-0.0568325808370125,-3.0417739342619847
26,-1.1363477386528293,1.1284078746115247,1.1165139752751756,2.26740359139359,-0.9838207475336032,0.08279613995078908,1.8094891126807446,1.202008465589515,1.2813862986637146,-4.4111324408651384,1.0408244075373112,1.4936739037237163,-1.7896980045724733,0.46340638371772247
27,0.7411739382869657,1.2015008856140597,3.746968875772356,1.9752402444046995,2.5950723936315803,1.9043075652151247,2.1463165224714773,0.07442325182998781,4.014119852876498,1.6473955557885953,3.1659483178380063,4.278543326809193,1.479347883389771,2.9677491745841866
28,1.8959908377467527,-0.5319978424919491,-1.7855027977082647,-1.7934607612005062,0.5278286486235102,-0.26804407035823485,-1.7579868932334348,-1.0671006576634048,-1.8896436179383174,3.9851578179692293,-1.2797579417760576,-2.170813843242748,2.7529130510166877,-0.5299853352304258
29,-1.556382389528604,-1.914861249752031,-3.74527831513032,-2.0016865591214223,-3.045953685431298,-2.0131815861297633,-2.186504720979094,-0.19651562157088368,-4.49992507428109,-3.6995517793839467,-3.920469897390599,-4.111278242963066,-3.132530039479488,-2.5288428433961885
30,-2.323006288199965,0.37495712278210724,2.3405786279116683,1.4408228553609055,0.09212956990918802,0.6015527552848898,1.8647434348566436,1.1996718903453392,2.8678184996683904,-2.91122091920545,1.7390818780738426,2.6480648883607887,-2.9517981062917964,0.2521931606551647
31,2.4434020894044717,2.6545788006984505,3.375271396578086,2.08223364469578,3.1381708456017443,1.7455994116269173,1.749769501079157,0.13151273065172456,3.962166894922233,5.019903527785111,4.293559716773229,3.5235997719492342,4.558525350205635,1.878906837051605
32,2.3443528986930353,-0.743354309315872,-2.591758626266449,-1.2528536701928947,-0.695008208777826,-0.8236241367045432,-1.795005759531974,-1.494367264996483,-3.6027414959279174,1.6094453794179187,-2.2424316926476435,-2.75624059939115,2.467516308411511,0.5390039580118546
33,-3.184318113188728,-3.032574709330401,-2.835436974416975,-2.0532168331336336,-2.903876779738041,-1.2049142780081556,-0.9310559674156157,0.2540009555925703,-2.517009078042245,-5.5469035418836325,-4.242053570252806,-2.7015306299961575,-5.386370059663994,-1.3305820272107736
34,-2.0216279517798514,1.438153518523435,2.476119420594899,1.138004524044754,1.1232087627433167,0.7338228350303108,1.2660677714577893,1.7285188555329387,3.5359717891944986,-0.48212286335199406,2.604024671166666,2.42060768222991,-1.59628639847733,-1.814209396756205
35,3.631317887772018,2.7938636139487993,2.375869141336954,1.8625454362820457,2.466253104757706,0.667287508219729,0.0699558160890502,-0.924622925176274,0.682297981182438,5.452145141460527,3.8686960091386706,1.8940483825902403,5.466679342424382,1.235979323469028
36,1.4980766180310139,-2.0587003746481103,-2.096150547762657,-0.9699443564343417,-1.2943621162262033,-0.3287972745069315,-0.23701426870964057,-1.6846757396522012,-2.428573474620495,-0.21357220485698677,-2.728513662481034,-1.6991679196554952,0.701481065704926,3.2937546223805456
37,-3.748758010482417,-1.9795854874951273,-2.1863185102659353,-1.591050345821383,-1.9917494083981846,-0.43195612880230716,0.42826437636250125,1.6807683591612683,0.8278082398668065,-5.040916876485267,-3.352716521845049,-1.3359208099836217,-4.898974638572921,-1.8145172898826747
38,-0.9208787854004956,2.2217549183655825,1.6858591808584202,0.7035081584359164,1.2257009703734294,-0.17138831168933866,-1.036356289300298,1.2698774322248891,0.49801600867069956,0.4254516361736076,2.6569207149497855,0.7799606102967674,-0.053113735026707555,-4.513614094829603
39,3.5943573621763973,0.9207711050788354,2.2992861189248934,1.372886562553049,1.6252236951675316,0.6452942197675464,-0.31895332639248414,-2.2517339814723014,-1.4107270789779287,4.627090579285417,2.843734086309027,1.160298383652666,3.9436604075189003,3.0079879492526826
40,0.38456765837143847,-1.7820023674528702,-1.5078106775591709,-0.4219706057569975,-1.019301378013655,0.4313966819433469,2.1184617176362974,-0.5666091358244836,1.6474226109622552,-0.2924854536948591,-2.5333150633431454,0.07784185463507444,-0.2632652315003119,5.001547088139908
41,-3.26409311228761,-0.05800317103664825,-2.5591507547082872,-1.2744944791763266,-1.4328376835919427,-1.2033954263870767,-0.34033897396546803,2.4247616955585025,0.8491002386707361,-4.4252596660365855,-2.3776707153156442,-1.3427442586009721,-2.8720046186699464,-4.444760144752123
42,0.08215742060604751,0.9133893370437343,1.721392604553889,0.2797499071209499,0.8109981585492635,-0.18424705824789417,-2.617215259451459,-0.20848210079921778,-3.2599278715650564,0.0739351785201006,2.5080712263766154,-0.6440181387340914,0.3246125282171279,-4.495737555215938
43,2.8375590378620714,-0.30226120046472094,2.6841583181863045,1.221724822007603,1.3785217622329873,1.7926173820496192,1.2145307352301298,-2.1418446184891082,0.5807010057463062,4.487482489616784,1.8640957931948487,1.7125294686553358,1.8423496348537707,5.552705715142513
44,-0.49209628790292936,-0.0006873676713052539,-2.2866367668090097,-0.3787158964213598,-0.7036484719737937,-0.6147386839951129,2.385980550862466,0.8115133195271529,3.780185671938003,-0.04808326661403581,-2.6295207441989494,0.8131767675313943,-0.2585374531717977,3.1040491084506874
45,-2.349589668400401,0.14357386032383013,-2.4016961744797056,-1.033330738878875,-1.3471638596332074,-2.046483299191121,-1.8652292262932224,1.517513077509458,-2.2242507833025016,-4.696074612600932,-1.1587736389599836,-2.032960919638835,-0.8735464291705084,-5.790598964265582
46,0.8591070835148509,-0.5860809518170548,2.959271091893166,0.6659295541159755,0.7165049009052054,1.7508236847042482,-1.5922960017783694,-1.086026609124353,-3.0897814216513084,0.4092603643966122,2.789119719344917,-0.6455652968212511,0.12092546630795904,-1.315114716356877
47,1.7956300185319334,0.282591273729508,1.5938964353544998,0.5462297778413495,1.204548274952162,1.7311790312515585,1.9735742820851832,-0.77366065071281,3.3416166694267098,4.811778934494733,0.18614786842404643,2.1119568834832836,-0.07682139632074343,4.904009100823658
48,-1.164905134940859,0.6906701711806564,-3.3898398394910827,-0.9312827598244092,-0.7762330055921903,-2.847823111563152,0.62195856036811,1.0283716788863015,1.5664709730122717,-1.1909878385223036,-2.762946795740929,0.32968263661476577,0.1507782950020557,-0.16849995223176123
49,-1.1635125109835363,-0.6301924310424986,-0.37840113569831163,0.24802729765674722,-0.863921154754671,-0.8596591128462147,-1.4896705447216987,0.12808829445835287,-3.4422212407696775,-4.56646266196407,0.9602380317595949,-1.8861392452097587,0.9925216494479291,-3.0854922864583156
50,1.350704383539349,-0.4261587084437846,3.2842909936436415,0.9193389477753169,0.7518692322049276,3.5438796918419113,0.12013170422634252,-0.7742910409239399,0.08755624973454257,2.239889241404045,2.3388556047566866,-0.08737389610131238,-0.674354863024103,0.7221871718186972
51,0.47397847808783355,0.6647927256323187,-0.9214114957049603,-1.1505811153549548,0.3272413543993757,-0.3202980917943768,0.6354397574543512,0.30619535402738446,2.504818425471116,3.7778981204832416,-2.009230707228441,1.4386314803116615,-1.7300785512112749,0.9462103130033868
52,-1.340557539388975,0.07012140208432506,-2.5479899491290396,-0.4919137183197215,-0.5115490351761848,-3.6502068639305714,-0.4001879784779104,0.5159935412512378,-1.1665230035743637,-3.2570155836621737,-1.4619950796563117,0.07201784130339975,1.4936185517856382,-0.09234697721522216
53,0.19339298729700172,-0.37635046406106376,1.9063966310330087,1.8323886196061616,0.3120425636096683,1.4472325107196142,0.22759118851822727,-0.5607864061078344,-0.9789849618931048,-2.4507918561120356,2.616969174936116,-0.9492926941001312,2.0603422622610386,0.7159578750683794
54,1.0876601001823165,0.11701289759833837,1.341641097535699,-0.26168846984327554,-0.027516908322204645,3.2159513436669593,0.23978323711931177,-0.3927804395689587,1.281641985720595,3.9067067499847625,0.30980533512643244,-0.3079471673389004,-2.4775020889069728,-1.4549628116171802
55,-0.7082895705604488,-0.053989706755179126,-2.2703263986295132,-2.0042094695384325,-0.8947253884613728,-2.205046323234649,-0.7833648462231936,0.7712048902624274,-0.4322999286154235,0.8189616257251403,-2.536408365797032,0.6097324919312876,-1.801582986569878,-1.2643690735191828
56,-0.6192846853132685,-0.03218811664170984,-0.022190271594552897,1.0429294728029403,0.8693978291448821,-2.47963887059624,0.13678857020699892,0.4128947603200435,-0.5317766088744453,-3.9661281597595335,0.7583303604077356,0.6909786222165831,3.3273633180081377,3.223625823169236
57,0.9344110237794792,0.3888083486900239,1.927833483624892,1.5792526491498518,1.2329581217656365,2.439031537888642,0.8972089859511931,-1.0775613659315295,1.1064049657848134,0.7097002732440751,1.7559229727666101,-0.5450183367821121,0.9581241533535448,0.5239264664744491
58,0.05146070136947074,-0.24469353399202132,-1.001771247473466,-1.4879186903329598,-1.925417581727665,1.7479608412312881,-0.44642143557118824,-0.45074564680253837,-0.5548352607593844,3.457231002611393,-1.3581482005216121,-1.038485026289139,-3.7019379837305326,-4.3947340661518615
59,-0.7906285218156207,-0.4736502802259118,-1.0450806647617887,-0.7285173995835136,-1.1531806952818262,-2.182522522434308,-0.6387194579951109,1.5212470625132062,-0.7949355123780816,-1.7105153049443287,-0.5236871280286658,0.7701079069300072,0.23058788778766617,1.1264076754511665
60,0.44116696418027995,0.5302996164420944,1.4324796847584438,1.3535141523173433,3.0099200030103863,-1.2722950942032996,0.4927812025873108,0.32468272336155707,1.2799923848811166,-2.6863256850482937,1.259489889567826,1.1612881827837758,3.3908503476775698,4.40891090042161
61,0.2951012106321969,0.3012496448720607,-0.035212814041193155,-0.2045866774930544,0.5508525348442924,1.6021550708467442,0.198808701357393,-1.997573769482905,-0.25812875540778285,1.9503722602305928,-0.7586820305808609,-1.1874632868960904,-1.3703328106179553,-2.930294165198043
62,-0.6882138754191329,-0.6532439247904391,-1.1924841394232781,-0.6352521827846092,-3.8560220334545736,1.1796632971714667,-0.23553417926510584,0.08542221694821449,-1.1160075503111717,2.139199797495433,-0.4887952921773244,-0.9316485545237434,-2.434746036201062,-3.2277447567462008
63,0.4331838695788309,0.01539137559445713,0.9355993829018552,0.8749457185237061,0.5453652358310598,-0.9103918776870664,0.23241877399599647,2.2957525167121204,1.4284067417597301,-1.5445784267458733,1.7129496745471753,1.6185325823551802,2.081856690162037,4.115826753970346
64,0.586751493928585,0.5332051565167679,0.4388791407280881,-0.44673581241920307,4.172471804161162,-1.4714688620808913,-0.238019429286223,-0.7472624787306472,-0.02873880796663538,-2.2489508296491847,-0.6953532177595084,0.3317495295587124,1.1229965247446656,1.3371619504685832
65,-1.2160926098422855,-0.32011397378926143,-1.3885469773532917,-1.0872325529352724,-1.9276438451793767,0.29768216358019856,-0.5493139564534398,-2.208914801504832,-2.004455163886252,0.9559064367256359,-2.1355968328193256,-1.859204910789208,-2.1691038784859913,-4.254913304615897
66,-0.13321558863615246,-0.19383635151264947,0.5161911694235332,1.571121263409376,-3.7470485053100755,2.0611303149481905,0.7975003577185329,1.466249670272457,1.7416331649154104,3.1399967810789207,1.9293890328095662,0.5265464560777999,0.12808697601208865,0.5038949308247274
67,1.8777869642754814,0.4846965584169526,1.3243930924895158,0.8474174185815057,3.225093527750961,0.09436335153245923,0.7383966585788658,1.6555366239933114,1.5331374977144587,-0.7979857272438766,2.0521228522230373,1.7498884540803217,1.701498542195289,3.4375452529727197
68,-0.5874701908648692,-0.27290568860471487,-1.3383109923053524,-2.4622369489706744,2.5632874249199893,-2.80904927141449,-1.3429165619532863,-1.9670764665040195,-3.2725245314386275,-4.496140528894591,-2.899062943295961,-1.4198019219347513,-0.9516189473180536,-1.6308149892324812
69,-2.2952532153292027,-0.4425718061061194,-0.8723336050156048,-0.30777106904654605,-4.007822280096846,-0.17621492136534173,-0.8305155980089711,-0.7445496966645382,-0.06127370413329707,1.519416736041582,-1.6641487814913836,-1.2452845705415092,-0.9771628023184635,-2.1856851667695674
70,1.443082225420931,0.7533386935524841,1.7979716951792688,2.97730006712811,-0.8656575728411781,3.5362543755753393,1.8243031092971373,2.026548757837381,3.870835381531547,5.655532889735003,3.4444764489203923,2.0754455556659437,1.1775655444114934,1.7677341478442732
71,2.418584632191841,0.1891061904496428,0.28335368813937356,-0.3358391891824166,3.954528640444754,-0.077438526396647,0.8503425672522673,-0.25443104427424346,-1.8432297808714713,-3.133353649332532,1.2349188180956219,0.45781040294024683,0.3930764815486686,1.170497925653659
72,-2.300582155027601,-1.1439846615907077,-1.8415642192619301,-3.1077816609603923,-0.8840525975883541,-4.034299613071352,-2.214552837593461,-1.588748295364549,-3.1477699453248285,-5.9118537218243405,-3.5793399358236684,-2.270001669685686,-0.8919768540103974,-1.1139587545888476
73,-2.2608637620428267,0.2306367918190257,0.18480561904190276,0.9245494106488334,-3.008658693554897,0.5947996565249225,-0.8039528711887391,1.0238512169587317,3.3151542611851887,5.152327650793329,-0.978735004002685,0.35511623826363475,-0.2834880882243892,-0.886800205963433
74,3.056335903086731,1.3673865873863613,1.584555519280943,2.927947564487339,2.163816145078134,4.1049018803961,2.4766918973821004,0.8015162073330937,1.294608596718187,4.8739302828851425,3.43777266425264,1.9301102006847142,0.3928609364534275,0.20228723604600946
75,1.8722431549788268,-0.7330287052108219,-0.36995876383354237,-1.364165586004596,1.4366120919850631,-1.179513518672247,0.7047819160788813,-1.3380099767890268,-3.572663564310428,-6.7814679982307124,1.0010692949240743,-0.8723503905526944,0.7907350155917572,1.4416207997153834
76,-3.6422243753081927,-1.3830007976387435,-1.2394951261536642,-2.5413655387933196,-2.599031517954215,-3.6411044185611923,-2.562947339694436,0.04624734700591822,0.9571322477687323,-2.6921024212491362,-3.193309186195397,-1.187693586350375,-0.06802113973550172,0.38097803593963164
77,-1.316612129018202,1.208578309007636,0.2559841382298953,1.6156562068685876,0.2559278472589455,1.535016701105628,-0.6041630509920999,1.1591541493008655,2.2842683976118505,7.279034241216629,-1.2972000403637214,0.8356860969811952,-1.8122682536740986,-2.542812632517509
78,4.014859082425303,1.1987461614305968,1.015964701574945,2.0516753879786243,2.1207412162281063,2.7168945051675886,2.4500594926426826,-0.6546113914638529,-2.6295859095751286,0.030137908375528072,2.9949478937205467,0.3526553570627864,0.2448149204322643,-0.26922130575183584
79,0.6622091141483714,-1.545563614800754,0.04202215558297436,-1.6805122389605116,-1.5195770897203247,-1.365656507887754,0.5892922788147169,-0.6416234383571013,0.2536219791041593,-6.303050383538277,1.7843480952528492,-0.1676504684771713,3.03729510770251,3.6712089944673987
80,-4.143794359720521,-0.8758945051123268,-1.0364825817412846,-1.5506299658491138,-0.9944431377325507,-1.6209703034366976,-2.181388068425333,0.8419429849427826,2.9164309043522985,2.2013750378596657,-2.93923826880529,0.19475544409509957,-1.066857951669355,-0.5455154140941586
81,0.015179099528533744,1.6651289786389347,-0.3436623592671285,1.5960225523297598,1.9789564911657056,0.525849713279427,-0.7378853454824048,0.04532298734900808,-3.2180245931726184,4.078500089194774,-2.33494391886246,-0.9760329086890088,-4.056001991990904,-4.3343533729442205
82,4.012059344919192,0.514704352100939,1.301147876389761,1.1050909402219424,-0.2950204846102449,0.7840247462113549,1.875757165724516,-0.6069434834984295,-1.5305140108109818,-3.2178254889240057,3.065883173034575,-0.1485762861279346,2.4388663788444034,1.7567838914979628
83,-0.6284690785252556,-1.5532687044925395,0.485659831179349,-1.4312783073040052,-1.5724696867898795,0.8599273166604582,1.054708079840921,0.3905059237379168,5.5929385690080835,-1.3192379884513163,2.7978099419016753,2.245239638600563,4.501352378989906,4.270702093895786
84,-3.62989503338402,-0.2171505067903424,-1.7091453927200808,-0.7381171462287466,1.2463664989811143,-0.6067331310615713,-1.6823687103050884,0.09703071847344509,-1.177027183227517,2.6726320102204144,-3.352435761481503,-0.6014148809455448,-4.054417643427818,-2.922079096822599
85,1.0881004197356379,1.268135487476909,-0.3817708890535278,1.2684140656045062,0.5557522667548361,-2.3879505330387625,-1.4359233236375764,-0.5426641232693864,-6.577877995285161,-1.046140709546124,-3.020026759853017,-3.208970200625461,-4.1746795445957385,-3.51495729315739
86,3.0490860560799615,0.04098543147641197,2.117318076196373,0.4175829371008371,-1.5392027567450552,1.262099934112288,1.698427536092581,0.4876592887515353,4.368692566312596,-0.7883126546968553,3.701166322608092,1.9172112134672767,5.493347339519685,3.6638986459234633
87,-1.3256867331300832,-0.9104904683403743,0.037059606001298255,-1.1677934244256687,0.6237110416199257,3.5080434324958256,1.6971505225113945,0.4218928918742188,5.888338776485009,2.2239396005173915,2.888983105122008,3.4991611109181573,3.1144958619403877,2.3228043150987103
88,-2.3612514245056997,0.02789309401659851,-2.3994526788359227,-0.06881820329723905,1.1425670431098092,-2.575800759015967,-1.8978051827577733,-0.9902248051557733,-7.058322786965863,-1.7293776184909135,-3.9392123707788285,-3.443660255769632,-6.355154629847862,-3.7916268307681436
89,1.319699008102372,0.5676094496766425,0.4776049962335166,1.1342500332861205,-1.5181116754207462,-3.7513035919030653,-1.6628261508408204,-0.11889824394123208,-3.830726276904281,-1.8484512927192553,-2.392362189470096,-2.936794562046275,-1.5882996938503156,-1.0294073084479305
90,1.6732814657444417,-0.06308552451591122,2.476437797495543,-0.387169460288984,-0.2970844845347069,4.058588130277253,2.122243222728328,1.3374341922440316,8.476989863900254,3.952124190738412,3.8600061926890223,4.709444092051258,6.3860614093908445,3.3107509709516796
91,-1.1043684938197738,-0.2622540971805284,-1.0625611672300759,-1.1068338037204457,1.8521500357917735,2.9470773676913034,1.270376829136642,-0.2709831513005688,1.1467610237652601,0.11780832605479705,1.6630897847889645,1.6041639698744872,0.01106218994992933,-0.0689041359126218
92,-1.0706721954631118,0.1470400500041346,-2.3139760714267785,0.987265057459931,-0.6103065133057215,-5.089744557883897,-2.153682258847801,-1.51466412322037,-8.319429875821408,-5.069969338423138,-3.3077478818952355,-5.268331885357953,-5.559958126728933,-2.35933575543497
93,0.7523347342365363,-0.059202147103113875,1.6109356578032026,0.982192103593084,-1.6078574155373275,-1.3207282209602107,-0.6239304675211386,0.6877932066066466,1.2809235338830167,2.274306357006009,-0.9684588226244907,0.15769957373543791,1.183910148085913,0.7663845550610483
94,0.5908797592604466,-0.31030638897147245,1.9100269639442038,-1.696147201826142,1.2169368094088324,5.172045676644097,1.834488749127395,1.5134188707118097,6.795742478047487,4.693432533782371,2.268741539144126,4.843973671757409,4.086404026120807,1.1382128492913572
95,-0.3395449188813024,0.48765806394662403,-2.0110092591447866,-0.661669074837208,0.9954710425524594,-0.5800727664277638,-0.043498225029362375,-1.0905679606214664,-2.7318674373117577,-4.392632442789995,0.6296446080608527,-1.8322409106774165,-1.6794778385014928,-0.950326043244972
96,-0.22353988495503513,0.49894968748931895,-1.2962337682947442,2.408130655891246,-1.3248442643955691,-4.140910533452474,-1.166477810979142,-1.3051689427749187,-4.502653995294985,-3.0046537933774977,-0.9176132974332224,-3.4372924417665707,-2.3418501050968725,0.1277184066083984
97,-0.08629633419248342,-1.0823489981075332,2.149181036315413,0.0994448634656531,-0.3356989630712468,2.098541880598967,0.48538559239980983,1.4124316751818573,2.8530112437467436,5.414432566342146,-0.8992820297736286,2.8779818751519435,1.3682085024476682,0.5973591438049828
98,-0.06398240274767722,-0.5930312130797836,0.5549697977666109,-2.979590812519649,0.9562375054096149,2.2333495636256804,0.3273018746553478,0.8681470879933697,2.1917123763013526,0.6906605196571582,-0.41390048454368417,1.3562783658337507,0.7485820132743846,-1.2079591669269618
99,0.5148810357940322,1.8134611689622515,-1.9346733371799811,0.6692647427534535,-0.08560631448902979,-2.7233976923783887,-0.5712775964603904,-1.539510941931157,-1.718553039648604,-4.950012356800582,1.85008051071167,-2.908530788003794,-0.37358342931429384,0.2144803312624306
100,0.2941621289723562,0.4680304209376891,0.17146692077393386,3.277500705276142,-0.3126759859164807,0.008449911584093259,0.40908874997487665,-0.2456419213587737,-0.5279927813284155,1.3276082669533638,1.339711605551574,0.8577234476695638,0.35396234394056925,1.8980346331044264
101,-0.9569474863997378,-2.551087310536248,1.3439296459304544,-1.5294620877672578,0.12543386934504894,2.273063446943198,0.3573438499785968,1.347533960096552,-0.24393136758363476,3.1951876743263283,-3.323702663355873,1.841392913686774,-1.0030027424609627,-1.2959824808540472
102,-0.4613091674012943,-0.06547578341012904,-0.7055616251812884,-3.2264410523331035,-0.3297198117084886,-1.947267721594397,-0.8050292631258161,-0.41723742831316185,-0.08882867719430844,-2.2673374887257625,-1.5563581803922113,-2.6000997104533603,-0.8017323005501709,-2.0782219485421005
103,1.415805280013558,3.1076063571658805,-0.4565814963813526,2.314933440691663,0.18364664858826268,-0.938895135262684,-0.05973887876791631,-0.7825786734127446,2.414148913605774,-0.8432291196334248,4.964902160815977,0.04954365934717522,2.3839027558417034,2.3755249503109788
104,0.5373291829456254,-0.5651767943537559,0.8946213858432701,2.840217862599421,0.7350273171821723,3.078536088005303,0.7736589311506322,0.9017030378903127,-0.39505204310157593,1.799362186130458,0.9628116167596097,3.4177232748181803,0.6382445155973743,1.773216455248289
105,-1.86562112257636,-3.311133876813234,-0.5489064544015397,-2.8556939350128414,-0.6740254905814156,-0.8139878559070642,-0.052638468675106895,-0.06776691675871073,-4.170284148056272,-1.2104770269929654,-6.334828792404225,-2.2163236066437078,-3.4295257065373836,-3.1807374574513214
106,-0.4945045295719914,1.2738828949581282,-0.6765452716256981,-2.2286512538813734,-0.7858408155338026,-3.18502841678565,-0.41783269144776664,-1.0072541664067756,1.7106064771199405,-0.16719045299544516,0.28636020854175726,-3.182381131436833,-0.08454975317543863,-1.1644661007659134
107,2.2483151324140307,3.0741010874422527,1.4479423322587506,3.0330590250990275,1.1252699742699608,2.430973416231851,-0.21107980157415757,0.9685636746378016,5.059326443142636,2.2401734433877625,7.066523769162881,4.037062503991169,3.9343309120414065,3.543031299447928
108,0.3303040865714279,-1.8608874254687358,0.11198160082476698,1.5733234079882765,0.5049571874314651,2.372389062445138,-0.021869000748833117,0.6593001917323924,-3.375382450851916,-1.941218781299417,-1.8252758289445423,2.1388745714167943,-0.5414487491123363,0.5266695858997325
109,-2.488967383756828,-2.4274632599981265,-2.046506356202436,-2.8268581270126014,-1.34914879598325,-3.4577750441313344,0.8734161493819416,-1.614587766432718,-4.905147805426199,-1.971690453003675,-7.001486710196484,-5.055587807671066,-3.880916483145121,-3.4656362204181232
110,-0.08155718106343395,2.146382629813094,0.6363410366199089,-1.072038177966358,-0.02663724690873059,-0.9933147211850054,0.2800845248395195,0.03142425520500719,4.85340474519381,3.703255700549532,3.2115823303810207,-0.792743353651239,0.9368621616367857,-0.10973830730845983
111,2.5217201847457926,1.5096449217298313,2.242973553454873,2.334239752802679,1.249298548953749,3.6709530160084656,-1.7783953756315853,1.7568046389726588,3.8286430481306866,0.6552558297723701,6.243631459206882,5.150728346316557,3.433196706264258,3.1091208091549545
112,-0.1775464588615878,-2.029597331991588,-1.3637712289398065,0.8648276726814993,-0.46192491509910505,-0.4947551860805815,-0.18394244923618464,-0.7955256344449543,-5.714505872767787,-4.505706950519139,-4.0984699895147445,-0.3190354713523023,-0.9255642545570065,0.029018096923466193
113,-2.3167392850742914,-0.5189713886520109,-2.049351234499529,-1.7419237050170815,-0.8434856112020996,-3.117610228690945,2.6614858494146767,-1.3147981918857397,-2.179101316384826,1.088510728316104,-5.099289898953617,-4.550210119462507,-2.8613854968051537,-2.6982567618168627
114,0.35320133210297605,1.5156634892963987,1.8908888012663205,-0.971268399165242,0.7861274852613876,1.6828529494390936,-0.28030832290395874,1.3076807934041565,5.741613749128516,4.168639262930961,4.362640564802069,0.8645465734487857,0.5258887813657813,-0.2263387989122121
115,1.899672328261512,-0.34862302866869643,1.572569817417915,1.2515427946847915,0.24910364906372073,2.06592830366588,-3.26273525524784,0.4198536156671623,0.40682253939689744,-2.5637171574380497,3.930226445041889,3.6805617266476465,2.4188749591837957,2.4037962021276096
116,-0.3615660148480472,-0.7035123699396207,-2.110661855734782,1.2758064149177852,-0.8376859526599654,-2.327231328970466,0.9789272395174088,-1.3170630858887786,-4.956993778654916,-2.9599701775105056,-4.124187102882127,-0.8397150367454052,0.06450572235354848,0.5210023679744952
117,-1.355269718638091,0.9513659392463071,-0.9737953024040252,-0.987028795467921,0.3593654518118282,-0.8929509082966276,3.4278176515929806,0.6295584491766688,1.0712130122500232,3.291596997396678,-2.9964808389553754,-2.9335460313310096,-2.2235621358733955,-2.2657914229722
118,0.16271739212303862,-0.2550025766437565,2.007810999987525,-1.580672235949244,0.6035303558815449,2.3990725439838174,-1.7084445343954644,0.7476782500296159,3.5746948977077495,1.4136891841134351,3.6536365347003654,0.5157717208185917,-0.5702996592205922,-0.7153332851193249
119,0.8087873936849383,-1.224765245672468,0.42301859476333287,0.9343932053373151,-0.8068281372244387,-0.04883283696466378,-3.150570428430256,-1.4772881546798604,-1.9652207933096753,-3.166510593858382,2.3709258113048763,2.477801143676873,2.2070069928141187,2.1948927984589512
120,0.2136569562722702,1.2028489951918082,-1.655780461264036,1.7073471149114765,-0.16386592431220298,-2.058636491378863,2.2947787506357074,0.27073434358121357,-1.915290974703625,-0.0564232120401191,-3.2253377714905995,-0.24919407034618116,0.7803279902315399,0.6928333613994063
121,-0.38578939500994075,1.17405517233177,-0.05606701779121417,-0.955128414806502,0.9711921993160069,0.5407017238160763,2.5430814483880657,1.8375362622802631,2.1483976409894727,2.4157274665994164,-1.9605757097630208,-2.216705275887632,-2.1647310238691917,-2.0394390142405276
122,-0.6659507909073513,-2.0108858564432768,1.1960709883052583,-1.5914151006510149,-0.3381189204228529,1.5705390497266425,-2.660757022478335,-1.4487934826247948,0.3232125111951448,-0.813532889964117,3.0012079298117293,0.2707993117057154,-0.6529446225726487,-0.4612472532479443
123,0.16268954073613623,-0.8504279230134186,-0.06325124415677974,0.8722106546850555,-0.8186738006876872,-0.5485660294135302,-1.7583165623686952,-1.5934165822203779,-1.6496080406355833,-1.4075864722417908,1.6034218711904988,1.9029699289639794,1.8822408919801865,1.6730750083982444
124,1.050301463537449,2.5875183550835725,-0.7993542252860406,1.3118754865614328,0.7442845130218696,-1.196386298535677,2.8303700853841374,2.43907245032827,0.8931615864446413,1.1864828556824087,-2.9992953057136207,-0.5771831687290794,0.32464566249699295,0.13019075055780277
125,-0.13092264653257554,0.3304073014437885,-0.03345397453681564,-0.5789574778415533,0.41101552666690133,0.20610012244326814,0.9138261736013106,0.833069387105819,0.6296333035594425,0.43334504135127033,-1.171053886304053,-1.325294473302483,-1.2637351129489676,-1.0571586078702566
126,-1.2355506743279243,-2.873113636013479,0.6105246840563981,-1.0345368933409058,-0.9319804236154484,1.1045787352951961,-2.876280846540614,-2.954718321259239,-1.5037864353758632,-1.2310328053954962,3.1417377074494905,0.9758405480176092,-0.019210357111148657,0.1530950665118946
127,0.19718176891328237,0.29185666063398596,0.22629124643705545,0.10259411935783543,0.11675982872587178,0.2533641973994161,-0.05969358691699561,0.18653087619216338,0.6460078102111069,0.4051915326252121,0.61907723819584,0.4456551257612731,0.38841162993240136,0.25525864777623614
