,AF3,F7,F3,FC5,T7,P7,O1,O2,P8,T8,FC6,F4,F8,AF4
0,-0.03369053135309517,-0.0436407199106044,-0.016698234477479014,-0.03727994543757711,0.003929745594564712,0.006854062140823195,-0.005421507805124345,-0.015915461964301866,-0.05290837665914909,-0.10889029044963103,0.014333178765775216,-0.0035265877170704606,0.018219092817483545,0.024901788655241005
1,1.435239424326649,2.715849827588319,1.6824396498682397,3.6212525741599126,3.4305087690227576,1.47102536216566,1.6039647863076734,1.2880417473894983,-2.3134097156345077,2.438859160539005,-0.9154261173549574,-0.011097276116032635,3.1542615277800237,0.5507347201504803
2,-0.37622512684747256,-0.8781428199948372,-0.5588689177592427,-1.2969971728677856,-1.1997654574271168,-0.005385324831112153,-1.063726252339921,-0.466099943571473,0.4813444409688091,-0.8622702181995904,-1.3198409131820283,-0.8268818584156024,-0.9642043619435716,-0.6269367416275793
3,-1.3836097202965736,-2.369882905267933,-1.5287274755061637,-3.3153946041273024,-3.1672036568277826,-1.7565290404861105,-1.2257168220088879,-1.1951928115699197,1.7573188812000724,-2.104925859614641,1.2818879740338434,0.4496930316937036,-2.748110390442027,-0.6336490247421694
4,0.8268751343277227,1.6869768897509516,1.0769364551367808,2.582604254708777,2.3327800477147607,0.21980855522494408,1.9297443544965325,0.8679593314730338,-0.6927464136052154,1.5651731491940288,2.339275546964772,1.3124222204424796,1.642268458540454,1.2544630041672624
5,1.2171039571911344,1.6984969327013069,1.2255932257063946,2.6511739889351875,2.6324680629615456,2.139143839130236,0.550940382694527,1.020204993190056,-0.8167943584773926,1.5955575365027135,-1.8532327754238462,-1.0771348406685965,2.0963795210272194,0.7856562669471352
6,-1.2884458969135344,-2.218931198999259,-1.4519185341221468,-3.680221317954632,-3.3187840048026636,-0.7222183274329552,-2.4082858101187923,-1.1050750999627466,0.5684985361621409,-1.8363854160615358,-2.860416680091473,-1.2685599579783433,-1.884567660068406,-1.9249940150778664
7,-0.8728375761149963,-0.7933823668121109,-0.8200098915984926,-1.6163514907336936,-1.8149179168368097,-2.3716360029093226,0.23778595046731132,-0.8400830003440694,-0.3329058971917607,-1.232663549070471,2.35839422608259,1.5190406761416069,-1.4580944400735059,-0.9556518323210828
8,1.6648004927379723,2.321352420446112,1.605258158215376,4.38332338812229,4.037503683073294,1.3934367710490674,2.4137236478267043,1.1433057116067165,-0.05942451158655336,1.7729450634366475,2.848286348535676,0.7911681279395588,1.7012913234653182,2.6331931197188383
9,0.3552777983252398,-0.13595495312354572,0.4215984220405973,0.32934541488312613,0.7499937162923109,2.297057980928874,-0.8950551272841116,0.7584965247987522,1.5012277174697788,1.2737286386130482,-2.4843181323568326,-1.4578164074198159,1.0875338738211031,1.0829395228106191
10,-1.8473774548061166,-1.9557467878369235,-1.5229596939399555,-4.5149871353971625,-4.353271736886918,-1.9974378661717178,-2.015738570011051,-1.0250751859360834,-0.8207054015485137,-1.685234902039922,-2.504696196822977,-0.22932804689392175,-1.2829681946273512,-3.340443233793311
11,0.24444771845705693,0.8186669131520005,-0.16928010750770303,0.9480903754667854,0.4474828193651795,-1.941068042774165,1.2019694084042527,-0.8631632175517566,-2.5084094372033645,-1.7625351218331278,2.027551825861256,0.8170329929812088,-1.1197500851990878,-1.125363393876719
12,1.7867769306940942,1.2727293254013945,1.2966325731693016,4.048097247217736,4.162611345161363,2.3253776957978327,1.4397275663810247,0.8684250807560618,2.0074655566777038,1.9382224086412765,2.2242002087592674,0.021464826460804724,0.9235699718292686,3.980931308258085
13,-0.7909841063655968,-1.0597115672185249,0.151219569783789,-1.9023544770289877,-1.5814310109287055,1.4867834502735056,-1.076080730502111,1.1731065378045398,3.195233518253132,2.4907194922224707,-1.0480696623034433,0.16222461253255152,1.4991497864708472,1.0831926977618909
14,-1.5292681429613015,-0.57784142466784,-1.0996916334941622,-3.1607768396600386,-3.4510780852887444,-2.3153693070526282,-0.9829598004550113,-0.8266956372471516,-3.3902150120261614,-2.7673784582199126,-2.4193054584212925,-0.4661730109324532,-0.8906246093751522,-4.485632288838066
15,1.1799651998042364,0.8694450378027276,-0.3314279650630026,2.315207603642214,2.414725049794307,-1.1542927759711106,0.6375456945756052,-1.6036926884934428,-3.428702024789497,-3.082479078848294,-0.08289670624335403,-1.00429688839271,-1.987872917067823,-1.0053660531567605
16,1.1908224426338057,0.18242357210093982,1.095270631872313,2.1782831986282116,2.332715494826236,2.075294811749844,0.8699572185156876,1.0166210502426827,4.807405970709337,4.158205512599384,3.278849174083279,1.5393321099381427,1.29438337036796,4.815505572974283
17,-1.393634709889354,-0.4843192206342064,0.5452927440334063,-2.175622389984643,-2.7447542633791593,1.0655081145524017,-0.17434843566764363,1.9780012947814074,3.1190349145518694,3.1539029150478344,0.8166375794138976,1.2162185797371297,2.2605577681064357,0.970640020397167
18,-0.8854705479115753,-0.22350006635651165,-1.3289286245082084,-1.4264451756614702,-1.0457739210803538,-1.801167621818971,-1.1208461990103944,-1.4455526297914103,-6.045255213146691,-5.835832971872627,-4.600261614617055,-2.8566004867157893,-2.0153040417447152,-4.986906315289462
19,1.4984983452211829,0.24371478337136365,-0.583435839056975,1.683897481066085,2.4871870543927845,-1.1788246987803073,0.002920785853942391,-2.0935978927230097,-2.252406569883517,-2.4724329700042817,-0.708070086294844,-0.5430296897497509,-2.053927819867548,-1.047972003486568
20,0.6561613109854619,0.5709353492309254,1.6808661093414514,1.0797528199427784,-0.10764196739530008,1.6487404054908057,1.5158111205453337,1.9791387839613592,6.8567504989427634,7.356518433068189,5.825675126058888,3.816488585282921,2.7319388978149877,5.07181555739806
21,-1.5862939712429744,-0.3860678548302372,0.31942096523281505,-1.1413185540225554,-1.7278903897817028,1.3290328641997273,-0.28859496949451346,1.8220790200799497,0.9275748638265322,1.0556146334627887,-0.3049994430544576,-0.8642741699532274,1.3080790730908023,1.253467205967971
22,-0.4547558068063806,-0.8922655191924327,-1.9186749840316386,-1.0928269219482782,0.8634615497523306,-1.6410275591740673,-1.6935668860190793,-2.378102798697594,-7.0099260182924,-8.256572520604555,-6.299990001991725,-3.871816996125999,-3.051244495505046,-5.1661512891785994
23,1.6974725938880606,0.8875189569640082,0.19888066706223606,0.7885133725840613,0.7089634282230652,-1.3405556944972121,0.9269666082873133,-1.1930789673926054,0.6261731638406665,0.8178415308208917,1.8019497981980386,2.4621546946310473,-0.228167486247306,-1.52775124074809
24,0.18569073859145027,0.8473742845739951,1.8255882757004172,1.254460626041684,-1.0971048896152478,1.6664565991380635,1.3452256110896328,2.3990309384892723,6.358848447199363,8.205277062485814,5.62416177906472,2.8077935607275526,2.692162240263288,5.337149465093859
25,-1.7783565435162223,-1.4468685776891312,-0.7547173489527813,-0.6865267566151068,0.25650055381674597,1.1393619622252096,-1.5642443594015,0.41288265191199375,-2.071402429991464,-2.680258791030565,-3.04352617298383,-3.522120249546105,-0.7772067202985601,1.7516156177729278
26,0.2136555806937904,-0.3019665712940954,-1.328872481444284,-1.3298620134514,0.8738369487921104,-1.5623143345493582,-0.4031330155919802,-1.9166608457549648,-4.9155201916523,-7.117476118108074,-3.901871561978303,-0.8895106978474738,-1.6359447917784982,-5.576018757779244
27,1.7022229285325976,1.6345261650623304,1.0650883359597159,0.7081449631558877,-0.9076465613563912,-0.7955180484572785,1.7610167927290612,0.2041659623162418,3.0341843494067007,4.006725950033606,3.326854706953902,3.4502448344092023,1.2655642987204987,-1.7993051703788032
28,-0.7071657532654368,-0.5652086995904567,0.5532256221469626,1.2050890939900278,-0.4180991994495998,1.2260280099672274,-0.8826867990688896,1.0067344488293146,2.891813343637239,5.196173954107693,1.7302871948680654,-1.2059391718137775,0.16179517709424712,5.785055032311402
29,-1.3443418430504348,-1.1262617553989462,-0.9233287202947915,-0.6401101958410271,1.1394733717019323,0.4762983407581042,-1.2212609929795735,-0.36880101815736427,-3.213852234450304,-4.372176642413167,-2.340510889776693,-2.0739459162003024,-0.9612707460473613,1.6058503919543359
30,1.1517249956359712,1.3246010260857697,0.2292976740707321,-0.9493864161801004,0.01265048985261653,-0.6849953188940769,2.031890271345689,0.0581180853536232,-0.6821259659450187,-2.8908356233351005,0.06700646508968636,2.6575725520512345,1.258450451418514,-5.814121387970793
31,0.6672510070645805,-0.10497282826356517,0.30524407270009063,0.33148291997157037,-1.0367679818867794,-0.3452269626533144,-0.03357511678060229,-0.04446158807356293,2.4986195533162836,3.5922928921387016,0.32845763647576737,-0.24348976025408536,-0.11261061347025891,-1.2109244735188067
32,-1.3547118157796187,-1.4957038129261235,-0.7231422589850272,0.7628032881200543,0.1252301079408876,0.08744607697783073,-2.548550343946958,-0.9074816308157371,-1.2270319181870073,0.775516698642223,-0.8221462760385071,-2.854804345036575,-2.157438211271229,5.533668366415712
33,0.23366116920444863,1.7396297880578848,0.6124958351119941,0.2008468663069027,0.8237282840116182,0.46989302383489434,1.6406513646780754,0.9201421210585301,-1.0405615717063867,-1.8032987935245286,2.0176758913213426,2.7252716626123425,1.6368082007899898,0.749037060654432
34,1.1673688424289472,0.7823694248966673,0.7428735459884552,-0.844215837961774,0.0673373340992253,0.373366060329402,2.157957785835743,1.229498633111369,2.405975040253239,0.6253890180909184,0.32344568692195586,1.6772301547579203,2.2650885299170884,-4.905339153782259
35,-1.151067358850544,-3.228109908877931,-1.5255527280056798,-0.7698445287771797,-0.7561987204947432,-0.7880332888886525,-3.039805427763225,-1.929015839326082,-0.7549463153703149,-0.5560409319265913,-3.87291130124484,-4.495840697873734,-3.1275895632267683,-0.3855104328894827
36,-0.5656931469266514,0.7698613111529546,-0.2948311492985649,1.2584939436977125,-0.48291508362916014,-0.5546363605937757,-0.9480938312954742,-0.9164318466492359,-2.6419741784317807,-1.0116902249578739,1.1061611921771313,0.4314864993421457,-1.609766321986748,4.006740680817205
37,1.8444604949590928,4.016795032811985,2.129085139449043,1.1186430934885727,1.0082344326745978,1.1426559789865918,3.718428120942102,2.657182827169851,2.3455100369690602,2.8701198484420187,4.639279476103376,4.953290712600562,4.131669477955204,0.23327668710465357
38,-0.3213828665975882,-2.764782821880023,-0.425828612194287,-1.8790568409345179,0.9022120595168405,0.4295443559011837,-0.6540016619807384,0.1304470451709577,2.04166737194585,0.4173936683725272,-2.774117018557985,-2.637037624181624,0.4913766600351851,-2.992775725852708
39,-2.1409041227342063,-3.781963533781068,-2.2421083607841688,-1.0658595794401153,-1.6022895443632186,-1.3606387282404806,-3.441774372174214,-2.786670146120527,-3.2478807428368546,-4.5478833695700605,-4.185630265238562,-4.034721041693772,-4.397736021914533,-0.30095276611382243
40,1.2515099959269687,4.597276429579554,1.1176282553733057,2.4387109684889725,-1.0948782100581362,-0.09608219306572487,2.0618326319356846,0.7489669846090243,-1.0142113993403412,0.7962821675059358,3.935840202591777,4.067481640074485,0.6525919989353309,2.016961463651065
41,2.0129317379932448,2.571847740167656,1.8773023867664662,0.6146986420113087,2.4075614323446546,1.333746632479961,2.3610961737280163,2.2476846253683886,3.238716621885584,5.227999714492708,2.869191353806886,2.2513378309289043,3.957119498175764,0.50329345068731
42,-1.9627114101534164,-5.686425785411987,-1.4981673073850974,-2.662444630020872,0.916203547528862,-0.2684211877585192,-2.7839933827625427,-1.2828512100292853,0.11825572195371187,-2.0757101438585552,-4.115456028721941,-4.195547396230038,-1.428362381929349,-1.1623968294641158
43,-1.5969918609235902,-0.7972732120453409,-1.2282473988389186,0.03542970008507231,-3.1989393322204873,-1.0669408980334105,-0.947538351635014,-1.2675269464130672,-2.4624629960253412,-4.901802919182778,-1.3435245028182599,-0.46676578748897296,-3.086312853561613,-0.7236279704251724
44,2.284862166952313,5.7048915060186465,1.4191757061571924,2.4110949503709027,-0.36191875688822445,0.48398423975045524,2.6372013303057296,1.1708337404858808,0.17576545086675988,2.8909141372869533,3.2892775896758257,3.0782360653569514,1.6407841633812648,0.42334331069446673
45,1.1372574832640912,-0.9279499867936983,0.5802070682700984,-0.5838735234940641,3.745970167222507,0.6762110363467682,-0.22091516404535141,0.28362913194716804,1.3783522113445341,3.895056340604319,0.24985861810981244,-0.4929130902397039,2.169552353186547,0.8851640161541978
46,-2.2192333595774607,-4.708655579918366,-0.921408316810001,-1.7571505788686403,-0.43380030904383926,-0.44413280545786443,-1.8169574969485194,-0.3976700641444401,0.2996321066804097,-2.9413739435445327,-1.8583106135399925,-1.3351302679795773,-1.3576950566222252,0.25800359442748905
47,-0.8706524071024793,2.0343221898193824,-0.18378892796553023,0.7815116192095354,-3.8957826081861637,-0.3377390834058238,0.7210997578991019,0.247999227412468,-0.5545539255291552,-2.7113588288548898,0.06439482045094991,0.22381422542226279,-1.5198693440506057,-0.9870091401803425
48,1.9409756798593731,3.1073496002860708,0.20426940905454313,0.9486710904193737,1.249149643178391,0.16081178025370266,0.789344609771707,-0.746797111638824,-1.3288895037120916,2.2561251498417074,0.43233956906252596,-0.13872395985009467,0.8531992658674474,-0.9307863628837985
49,0.9019313877374605,-2.22789843516141,0.14926639387016105,-0.559313713811386,3.622642815586201,0.20758022023059539,-0.4682363065625486,-0.06313588791791262,0.40105580278247094,1.8081477613885868,0.3261645770527136,1.060612191954622,1.2391701709487826,1.0887680551616654
50,-1.7089073857625494,-1.4809927048597729,0.47594476850263157,-0.27788855807682594,-1.8525146108226427,0.24300159204969093,-0.056018852558777615,1.792149952231926,2.4183150847751973,-1.1397295285734612,0.4668628492893368,0.6005052711047927,-0.4521734445507347,1.5920800152406807
51,-1.1357944986055966,1.6008976399254107,-0.4117620713506489,0.06157112205217001,-3.0305693705503907,-0.3437828867118009,-0.26958515086743823,-0.7827023304186386,-0.973458441799205,-1.41398060134504,-1.0017389086709851,-2.6282364961011395,-1.1873299870820415,-1.261796940546976
52,1.716623851890124,0.321395282668185,-0.9291477516974957,-0.07502939718274185,2.080050672592998,-0.5951596113542997,-0.08772123241543783,-2.302847662032497,-3.039847983501945,-0.005532927718566784,-0.6410354764823133,0.17573941535281884,0.35050280000540013,-2.1834769484558176
53,1.3164300217408134,-0.5661745546961336,0.7831811709830176,0.43596232302121946,2.3095252944332656,0.6669632765495317,1.0292474761556802,1.934728547893737,1.9491433943147307,1.477397884807282,1.433831928114182,3.5842534508897184,1.0818190795118965,1.5420486446998225
54,-1.963415909198598,0.18026249034981337,1.1132832307454459,0.1368875602797695,-1.8854893148074436,0.7682896884752776,-0.3227529402803993,2.0822437242050515,2.892125784047144,0.8822315414950078,0.27981477921319164,-1.7812867635717633,-0.5070989759115148,2.6208191367717983
55,-1.169584325921165,-0.3559865752412274,-1.061088240262244,-0.6788974278682709,-1.6613445793490897,-0.9853630807269435,-1.3938037036321496,-2.902433017823489,-2.7894696835819057,-1.7656773612133279,-1.260853282200114,-3.314967583062895,-0.6795336674570887,-1.9106866964979778
56,2.227832471192553,-0.19466877159331628,-1.1341088171917373,-0.12201129118154055,1.341698655237619,-0.7630863625484089,0.9730291731130513,-1.2638726464044365,-2.047452438256566,-1.4107998316132797,0.17131185054373319,3.368129994289931,0.6732592667759479,-2.8316528257796905
57,0.5753186514381902,0.7932633147693023,1.1340147468249282,0.5741893371383318,1.2267518073517802,1.0844096628031392,1.1866605076075616,3.2880767410841587,3.005753058122995,2.0428156498215193,0.4638904905892891,1.797089652518517,-0.06094008119497392,2.3045568874608535
58,-2.175117048056848,0.1350815418677529,1.1684381454301003,0.3087566003757353,-0.59284087064861,0.7342250968399341,-1.4569328631825995,0.2426566664648095,0.9136338994764259,1.6942359476248732,-0.2665614721114028,-4.064859997483951,-0.5495030671443808,2.7779534069439054
59,0.3318021612803044,-0.6899444703489812,-1.0274643777404528,-0.2407642389432752,-1.0489674771630952,-0.8463761511950098,-0.5223295759670561,-2.9660577609264362,-2.3956175773870347,-2.206296844499541,0.6457730686462778,0.38705961490219826,0.9364323826694329,-2.638844771001467
60,1.547563691944314,-0.42318112278979925,-1.3586089290432997,-0.8795543311679859,-0.21701305442392096,-0.9321546817462928,1.488172584304817,0.5192658288861207,-0.03502336563251481,-1.8743070957297308,-0.1988571606042575,3.403416933849595,-0.0196346470516427,-2.460328821496207
61,-1.20374415998627,0.30766659607103297,0.8725936007054972,-0.05611332821449178,1.09192477651008,0.3404421655544938,-0.29651839782924816,2.1223702129528927,1.135671841790258,2.292269622408254,-1.6159410331241015,-2.337264147541221,-1.6085995322229034,2.823230040808578
62,-0.3293885925503177,1.2640875314912323,1.737126730659581,1.811660610827651,0.9962659793965425,1.5747382934807492,-1.022152384278521,-0.7100556931127802,-0.1645396419486064,1.9955486188379195,1.0932280141832884,-1.5387481238324185,0.9326354038027782,1.9170539267496296
63,1.6462575543313023,-0.06827431568788468,-0.8243668144826362,0.049969529069717473,-1.2968419170420449,0.17388655473015538,0.9613694922266875,-1.1379817416057256,0.30717487569352947,-2.357447506942754,2.109027993314803,3.2752908779740295,1.8033163888307606,-2.7692534175982724
64,-1.2118525064575134,-2.542199281472938,-2.21584354484423,-2.8777979765732122,-1.707801327769679,-2.7064316332946854,0.2352943431925967,0.29437803171564214,-0.42805742676801656,-1.987485828392654,-2.047587908614364,-0.8470652588917846,-1.8730488211639238,-1.23126223823662
65,-1.4204815059519862,0.32856716508643363,0.9788145057697116,0.3820304035624036,1.633118814337431,-0.34969002788416464,-1.3107504181272367,0.3864496771809425,-1.3931121408675526,2.3454934940992938,-2.0746966143282095,-2.9069411486965713,-1.4777285732751773,2.404080795561362
66,2.6325287062516733,3.878364093576832,2.63402738306732,3.7555184939313264,2.3258658288252385,4.122704202765806,0.6059844466332217,0.5123937592337475,1.5762304771767115,1.7824181511199189,2.682770020785685,2.8954331676282967,2.4825203863548904,0.5416649304074803
67,0.5684484308255061,-1.200809034491645,-1.329581613769732,-1.1534086108485402,-2.1027820861964495,-0.07607680634817261,1.3752594032914502,-0.062086921431191086,1.7458256449017924,-2.0657083245030727,1.7428096601395062,1.5238727049838443,0.8520828236457786,-1.7052038714963802
68,-3.509116613033903,-4.806151227639119,-2.831544978729946,-4.184158987148718,-2.7896447540196503,-5.414697131152871,-1.2972515575834231,-1.3924113994074652,-2.8128441344465256,-1.470942786360098,-2.8211316580551355,-3.9827154202564032,-2.5589499372112887,-0.033378585109416
69,0.5997629295769233,2.4960271786220023,1.7749494672618373,2.0154716811537923,2.6943263555591512,1.1269754347818313,-1.3075591340806143,0.12907766149489908,-1.2995190823112626,1.3269563508086875,-1.454580382316193,0.1898889958273719,-0.29011818516505916,0.7472260597269077
70,3.6203178982712343,4.977274455484823,2.7105638441589295,4.083120519555166,3.001781317725167,6.129042069954656,1.7799722407642344,2.0977913678072024,3.651467714732299,1.3519984897310313,2.5572204448220055,3.9775815461714776,2.163486073885823,-0.1121516600485992
71,-1.640888744843778,-3.80082752907262,-2.159776522026512,-2.685804285767959,-3.3261625204905645,-2.5343820733488247,1.2573341706976606,-0.40067152303635617,0.3000832016358154,-0.13966601901699105,1.4507493857698663,-1.5218569615853224,0.10427682891497132,0.2752396052975339
72,-3.0305149652797505,-4.30909116086635,-2.2657779109602734,-3.570916727931129,-2.886754902596178,-5.972056013274104,-2.1202625288006294,-2.5471560104923063,-3.7890949385675836,-1.8027641440476057,-2.161060906703575,-3.228339162734349,-1.5830491828710767,-0.20035201722356533
73,2.16043230985204,4.643056883170806,2.3270665759379625,2.9816359040737197,3.836681304232371,3.8266233769507525,-1.2759386871146827,0.6780559746028838,0.8253059347964973,-1.1730319274131333,-1.7523695656018383,2.0611751375360328,-0.3979127627633219,-1.0855234513716716
74,2.049270235901099,3.0236204610302506,1.5835380108995383,2.885385701408762,2.47244948947248,4.956555461270032,2.413617327697086,2.808337414202991,3.2134049889529073,3.0303578567702956,1.897365050169093,2.3189119409080963,1.1818069302840857,0.9092343057972416
75,-1.957437212996714,-4.677434230057885,-2.1617290912599043,-2.885529360956866,-4.049485943847363,-4.52370913585835,1.3069538029517822,-0.8553507748604898,-1.6608417462804526,2.0652157653254744,2.193444417346501,-1.8317713684109445,1.0206670605745571,1.4244159199109339
76,-1.101829805605815,-1.5710304976765614,-0.821017391098368,-2.261685796455129,-1.9279042095992456,-3.4151320723569687,-2.6894337020921606,-3.0064330712745138,-2.177069985092868,-4.868042036369106,-1.886440086200229,-1.749320931704581,-1.2273316472982363,-1.7890313289572517
77,1.081620056335271,3.8245044399962165,1.6233248075261693,2.519556135889511,3.8845289664774882,4.343979245497588,-1.2581987215060684,0.9392903983326202,1.9683525422353443,-2.0330279880227047,-2.5564477978138203,1.190836539353176,-1.6425367950181737,-1.163556449533885
78,0.5750368929340363,0.46663038694251596,0.1733546499083799,1.8397767144225095,1.509356782166567,1.8723271755840096,2.8822682183927477,3.232857539309069,1.0620863664095777,6.7649247296381985,2.0844085458813852,1.7141453396497974,1.772132907841268,2.5248967571104144
79,0.20040011911021266,-2.313129968858176,-0.7705663639746023,-2.061176410518835,-3.4402958333857825,-3.324077369036921,1.0969643777736053,-0.9991060829580178,-1.7571809076865381,0.9052087439893715,2.7026213897610227,-0.5828255541929459,1.8982160347288128,0.36703024981759175
80,-0.695386631695876,-0.09795125851644224,0.1728702014216541,-1.6415785503803146,-1.428191954077914,-0.838735947069627,-2.887307943917151,-3.508755615421887,-0.2036987271526025,-7.9996257571022875,-2.3665246324180242,-2.074183969719506,-2.629798202625971,-2.831872931655339
81,-1.5012629447754609,0.6052831474444971,-0.22834457438644326,1.6600230135343212,2.976955224027322,1.802071711402723,-0.8968349701870395,1.1018688420819671,1.2348127459366547,1.013671799904065,-2.6147907983005503,0.29860049024266266,-1.5387766282642792,0.7329115585147677
82,1.4690448930170834,0.5748427693710091,-0.10205829298680454,1.6079368260158438,1.7169337260921185,0.6222583990023252,2.6584876322261977,3.803987339525995,-0.24162442671509105,8.011039098889894,2.6314111345847775,2.500914878985958,3.4435170234670314,2.554640256468372
83,2.435133905841016,0.77640922267013,1.1188418110708411,-1.3976465659932538,-2.7896165066294927,-0.2827839841160477,0.7989491436277801,-1.2796002437107905,-0.6725894346697239,-3.035188058271321,2.349214287116734,-0.359968690887876,0.5397321044645685,-1.8245496450982772
84,-2.6903690995192133,-1.688493126752853,-0.36688904809947603,-1.6539664574528974,-2.1852784979696898,-1.2322903618646963,-2.2771023618185944,-4.075511339832856,0.3240926280393354,-6.67305452701011,-2.848966543466438,-2.689349279995414,-3.820461968353721,-1.7043769500831567
85,-2.733926141030751,-1.4526157240283708,-1.6330089854317629,1.2927694049014895,3.037208349638141,-0.7464791669878545,-0.9097999147500004,1.5359908716618547,0.26213743434947445,4.37149827087129,-1.9578402600549274,0.5642306703000656,0.8690660871076696,2.616076144402137
86,4.012860467248951,3.005068450675939,1.052962079503139,1.7056865906390175,2.5093607914714635,2.4007117875523,1.9357443377649,4.288654730434326,-0.22060912677872552,4.375070312225829,3.0339575116141,2.51990092703358,3.49017902736097,0.43608648334478645
87,2.327086956254623,1.3324394899922154,1.5989616401270699,-1.325687568291684,-3.631949622757743,0.9741018385628495,1.203151210166994,-1.8683444288862288,-0.03980534638256512,-4.473282394177981,1.4477864008899133,-0.6374073305364154,-2.27003318308212,-2.9056891980086674
88,-5.064986752588125,-4.0570188402804135,-1.6584564473285153,-1.7092555919430477,-2.412740830930434,-3.692719160824121,-1.836032803251682,-4.410877460243143,0.10386246711944955,-1.8720288821925577,-3.1864668718640248,-2.097045768568614,-2.4300006837961745,1.0023593616414677
89,-1.3562249513537468,-0.6287522974646154,-1.03410586690445,1.4554696662300646,4.265516380453453,-0.3474111246224337,-1.4966581471622384,2.275484863064986,-0.08683579286599467,3.2640388024490576,-0.7992489886341152,0.40130017563257825,3.2112897785445353,2.618771862693471
90,5.575738233517048,4.542782564229663,1.8879493874543205,1.629084148610504,1.8345368049139914,4.655199462559841,2.0561840375265406,4.394748810230614,-0.04418873003721998,-0.023406623083248437,3.2551543945431516,1.665670437436966,0.8968066295613678,-2.328034564965061
91,0.11200779963926924,-0.26512590749186077,0.15916232806591257,-1.6246712817912863,-4.566470476026128,-0.9305122619337968,1.5322394569009452,-2.7407128539466705,0.24119422955897235,-1.1684269617106617,0.013208727837004969,0.1308147027197488,-3.3940621626540466,-1.8250828277366948
92,-5.461091362719432,-4.437545883281654,-1.5880434270621009,-1.4529793506129896,-0.9830636444656167,-4.953249690672883,-2.471359443647389,-4.176471948656557,-0.000621454542771157,0.7663097785227164,-3.1483152609458855,-1.4651154123132042,0.6669304463244546,3.289466792705233
93,1.0852413947147783,0.9735960509507325,0.6920527061098893,1.7652636982101708,4.302421591629833,2.4750153912411865,-1.1261653427526779,3.2033396758378836,-0.48285784088019923,-1.072950300672577,0.8540809505910202,-0.7679985662157641,2.806732874649461,0.7326991456703136
94,4.83169387847233,3.96329887308835,0.8282180449297911,1.2044791262040528,0.24079683425603712,4.4625413458089875,2.7880229268780816,3.7048418430137615,0.11755777373854914,-0.27876620980171357,2.776192636490479,1.6020460615915406,-1.8230344797752376,-3.743489246225966
95,-2.007567781911555,-1.3087507260889575,-1.227034095448565,-1.8191124922377437,-3.5129909357783653,-3.8386709756036153,0.3050097248675997,-3.5472294914325477,0.7796198925530791,2.7151177450123685,-1.690334284953386,1.2454589967322114,-1.7286371312344078,0.36315458704271564
96,-3.918655603718511,-3.441400442503009,0.12959167169254832,-0.9453590786485604,0.02666013976676823,-3.3005750381147623,-2.6909165485924085,-2.9908514723008484,-0.3558999365932287,-1.0614314725967031,-2.091876207634033,-2.003779335968909,2.3323776584285842,3.7159431280866344
97,2.585812136885735,1.3273032222655832,1.3291567745458641,1.7684954648531073,2.5016184797144976,4.64565688301119,0.6616059982899163,3.6303269856120486,-1.0532243366173109,-3.3026013854999077,2.35036118941568,-1.356779135353766,0.5915358852702378,-1.1832435219513133
98,2.9575996037555874,3.11204893657643,-0.9596455584169541,0.7528100120642818,0.346275506330577,1.7888574723153812,2.029446309527143,2.1450703449230026,0.6944428982751704,2.627440238673585,1.1129680690266397,2.466837957377058,-2.250057415545272,-3.3996608129489725
99,-2.8924339096626763,-1.2536202940746797,-1.0983468758996267,-1.654452448707985,-1.6947968285494281,-4.708672460696061,-1.3697135730205414,-3.353726456467442,1.2488314377103802,2.8115492388024528,-2.6830266168313996,1.0446133017312311,0.23046834522307558,1.5812893102997854
100,-2.0916137539365516,-3.0182893740143166,1.4288785267573976,-0.6757656648042846,-1.242571457327425,-0.3486126221618218,-0.9332264755786359,-1.3658479097464338,-1.0739566878282547,-3.8346196324692325,0.07109849518997716,-2.764734483981773,1.8694919789915208,3.066695265937279
101,3.058762133222179,1.3206335156914182,0.7792157843973886,1.5611148139002715,1.4451411217541814,4.0904110026631955,1.4846585590840073,2.735265334407439,-1.367689666955951,-1.58542080651006,2.5550897701310977,-0.4085468309247935,-0.5886683143685231,-1.6055416156783258
102,1.3391561384721669,3.0122760825767942,-1.4981144051294644,0.6967299148991406,2.314826161754702,-0.6464344270066794,-0.22389827850284053,0.8660140843104696,1.45434114640276,4.366783093698986,-1.2951992351552348,2.750962512145175,-1.5508916947187246,-2.930178955692426
103,-3.177703619086103,-1.6223018681240648,-0.6203290798025919,-1.5655886538987778,-1.8750729900133822,-3.0776068803251575,-0.9261580462496432,-1.936064789854198,1.4430120717064585,0.1202897916082521,-1.8817874491974909,-0.3614578577589602,0.5989122254395504,1.457239352745286
104,-0.6351793164336513,-2.871926789655113,1.3191235280110818,-0.7299774199737536,-3.1396546859278915,1.0099892052874577,1.0042134733184285,-0.768396972834927,-1.8405096154769622,-4.2339736258669545,2.3214218930353288,-2.4039416005758145,1.5321684078205409,3.0357405935222284
105,3.2456713924642115,2.0607771212312227,0.7412487332792644,1.6805401849424122,2.829710871819795,2.0636608128928153,-0.07858359013553962,1.207912924452524,-1.4912644034132514,1.168092645267235,0.6734563466539725,1.0768646874566248,-0.5433582853101423,-1.3638038847901728
106,-0.08492692652932304,2.454523359051834,-1.1351306930933722,0.6669406429317827,3.398452429501068,-0.8128804191318978,-1.1312154471986469,1.0314369759285014,2.256562618284652,3.664216102128979,-2.8688994109725265,1.802527349651777,-1.8209776389620873,-3.251225578986535
107,-3.1724581859793304,-2.414343598330707,-1.0750688051133925,-1.8285465070058782,-3.95290056630439,-1.3802642645807826,1.1113052942380195,-0.7780838281268695,1.4891395406343553,-2.072027914270876,0.9137145118056056,-1.6124997927923217,0.6997557646037718,1.4437172595205148
108,0.8100994153029066,-1.7941081953706517,1.140972042956553,-0.44663757513597263,-3.0026673790292158,0.34014550751106504,0.6270067018015174,-1.457950361834322,-2.6982197038635944,-2.926961195839651,2.688876222341001,-1.0645668882127528,2.213388442971657,3.36118283236634
109,2.8498773100399903,2.4802332459848384,1.4127872134289492,1.8716320906656514,4.84517236335298,1.154182915672634,-1.7815177932602149,0.7340428776609206,-1.397850709559604,2.576183066699587,-2.559471780382773,1.9141954303919868,-1.1913769336800673,-1.6458414920063154
110,-1.4326140087670827,1.0846171335837091,-1.377762508290278,0.10716101995710053,2.110551399887772,0.053871729937663516,0.2176390514520533,1.792009206425429,3.112003998683469,2.2055990772578475,-1.6758460735206568,0.2966195840569211,-2.4166425047995808,-3.205478642312115
111,-2.2372923649714966,-2.201966243233185,-1.5227470090860433,-1.6844793440382337,-5.227700363570083,-1.2639277033094751,1.9177120393454752,-0.978776431260773,1.2100898702833633,-2.7565707787681317,3.8345314529153693,-1.970151972487767,1.9283703024881491,1.7952172039655954
112,1.7952151441315287,-0.5618472841406699,1.7169146248513405,0.2181059650938074,-1.0343639765667014,-0.12372548483009961,-1.016419008124246,-1.8514847895683102,-3.4229371689337373,-1.574674267599701,-0.032829303786922316,0.4179124338631592,2.206931493325974,2.7772021218968344
113,1.4114603157542571,1.702226521608096,1.2788377472119277,1.2294287545170317,5.036722463348318,1.4239512499389702,-1.6225050545229056,1.2876425754193104,-0.9739505055657411,2.6891390669393584,-4.339473998908346,1.785565397529402,-2.6606370824035275,-1.7096853259272224
114,-1.7783850239872532,0.36092956849446284,-1.9383368818069378,-0.36188479707901366,0.08985305521892492,-0.1495587070436652,1.4945579339273392,1.6175620993165596,3.588224920593184,1.0516873440226615,2.037205974202286,-1.0025887570702796,-1.5430726270105553,-2.226233365614896
115,-0.5484220860572978,-1.20342572271379,-0.7273928613123148,-0.5877937791613249,-4.410620056441123,-1.3539058440934466,1.1720724596036889,-1.4339002187508774,0.7695546932770864,-2.423594304643439,3.8837103057669373,-1.3863444784777663,3.1090772589121665,1.313750815293739
116,1.3735033747407228,-0.4401784947895291,1.8545623412034746,0.207534811431389,0.5344023625218848,0.5666348921689042,-1.6083394076647597,-1.22809098573085,-3.6318002657682666,-0.6518867581622289,-3.7817503824761425,1.3772346074244683,0.5818335701074185,1.7746559543097975
117,-0.1525110383688094,0.8899790880426566,0.0597263801709359,-0.07135956770581164,3.5887456896812986,0.9397018530733331,-0.8345908815749008,1.3063304169246697,-0.6558414645151824,2.0088946048513234,-2.6142719065256217,0.8434006561384386,-3.105378705474438,-0.6867753136354996
118,-0.6965991948454043,0.6169866958114681,-1.4091972882941561,0.25143122510067395,-0.827477207357901,-0.8388914636356911,1.5191068861696981,0.8831773964655364,3.630709397651303,0.39839265677407154,4.771063682557872,-1.477862282096103,0.4092896603142835,-1.5979699790597497
119,0.5555935184042146,-0.8018337978230158,0.486609665514666,0.5655415561588826,-2.784355676794815,-0.29562019976712994,0.7224536252813258,-0.950064863443803,0.6297224495108711,-1.519118102276945,1.0035348026806628,-0.284231889339716,2.6659155888813912,0.025915366302879925
120,-0.06280506202272554,-0.6874912205364988,0.6996410359316985,-0.9071626703060521,0.9150662123004418,0.7638093058315653,-1.4560817660935834,-0.7261611955158354,-3.663150471302016,-0.29404374049993964,-4.800751976358343,1.3008982480132851,-1.1907970638644758,1.7370609980152893
121,-0.6346667292096587,0.8248273407061121,-0.7365657791161305,-0.7735715623093028,2.098427149073443,-0.3064958318527222,-0.759523502289425,0.51487069219098,-0.6292641693551699,1.043832076409391,0.3335150537473351,-0.13598654023781814,-1.960722091373072,0.45038644538318556
122,0.7213176245636436,0.549621449355438,0.0760836442587251,1.5842622935019446,-0.9641491087939243,-0.345479205885432,1.563772744027835,0.7729924840622817,3.7570454293908138,0.29486393772166086,4.074876811696509,-0.9371514375053959,1.6602343330876363,-2.082454364132192
123,0.4583504977147604,-0.7773809736160314,0.6394787841903532,0.6741889632854304,-1.5080569633868666,0.5978858229925901,0.7661623957903397,-0.1540359011416052,0.5782107113866621,-0.6486165282884057,-0.9230735684259282,0.3003284775238232,1.2006355806992295,-0.6068559797653565
124,-1.160123839948468,-0.2528800177272525,-0.7066374030282293,-2.106827396235422,1.0903663070320297,-0.20766269620817016,-1.8265578530378268,-0.9245576603568976,-3.8762510271419384,-0.3174178023695678,-3.1231282154450946,0.5592084251262839,-1.8687355814747761,2.4334763482062978
125,-0.13708181237173836,0.5312767618328779,-0.266145337138385,-0.33917359289580823,0.9181134448950037,-0.46920298490883844,-0.5938193654621386,-0.05964610051472597,-0.43846889705150177,0.33884604520943024,0.6714074786435466,-0.19684286917983376,-0.5172525110035737,0.4522640144090095
126,1.3356937275659546,-0.048728864773885223,1.0398621146131266,2.352570954084941,-1.3106572592845556,0.6033995473409475,2.1042640591479573,1.0418247790750288,3.952713647881138,0.28067334903987334,2.5380270396432887,-0.354065327934192,1.9421814776898916,-2.5996173223323367
127,-0.22505502636055788,-0.08844592835576764,-0.23692067725892915,-0.10320062366092614,-0.23655624829821706,0.0327657479109423,0.21963562503389011,0.1563751236540613,0.23211637552214312,-0.05667371072163208,0.08319062720508262,-0.05968333542443865,-0.08648173542460419,-0.12759626373694205
