,AF3,F7,F3,FC5,T7,P7,O1,O2,P8,T8,FC6,F4,F8,AF4
0,-0.0261946129710436,-0.03369469695350116,0.0036044352806733097,-0.002614175391311293,0.00548392506511478,-0.028302080125820306,-0.029021100857889403,0.04423940080674739,-0.04976552375082553,-0.09308620854213885,-0.06936247412890174,-0.02253718394371622,-0.02465784034479858,-0.132802524698204
1,-3.2596936535688474,-0.19072960445065207,0.26949985410283667,-1.4413367685461806,-1.2556622915912103,0.9747233041344435,1.2957762831555886,0.36583409466239186,-2.5222847944984292,0.6811078831568,-2.716637337069478,-0.9966070364990278,-2.2921596855460944,-0.5875544101440313
2,1.8428886355669245,0.1012307635326968,0.4536290166638263,1.7230559606740212,0.936637720183389,0.8984290441223043,0.20669403359444483,0.14191990373679086,1.3954027720433009,0.44887599696788527,0.8526515805625308,1.032996037238776,2.736220801848307,1.3318043876596022
3,2.1271464929002164,0.21266618509076463,-0.6177280643876853,0.5187803992866158,0.6568179837342127,-1.509964450805532,-1.3101545653767692,-0.6284872670378726,1.6948069770110592,-0.9696887426195073,2.5426383904399126,0.3173402968655455,1.1760754087692251,0.16454688349578456
4,-2.8914952390588033,-0.13977551650850226,-0.67241295405264,-2.8038753664800287,-1.4517757625247887,-1.3514794570058644,-0.3375814650580407,-0.11321588508377277,-2.10364455374054,-0.45552212274995413,-1.4831171684372675,-1.5266104902327764,-4.832723770926198,-2.1820492898829698
5,-0.37248775355627967,-0.27964821910148613,1.1434151908124173,0.9079415015300623,0.28439730050366085,2.3232047983868154,1.2971657845612699,1.0117230013792358,-0.4733910990724891,1.2465532177664012,-2.2546629086379313,0.6862260118674245,0.6983821299182257,0.4426810033160964
6,2.735409516047952,0.1256889318799546,0.5029884306593599,2.8711143132641017,1.2685883823365411,1.1431141236485476,0.39562847692666536,-0.25573833259673934,1.8446288708726206,-0.005228914121522829,1.8378520447789886,1.2157548029338685,5.891751537174559,2.5041314491897433
7,-1.2429014732059982,0.40314296718398857,-1.6311349645925688,-2.24081468532635,-1.1672555265291111,-3.0162672371591364,-1.2446753704818325,-1.3098986235340477,-0.5259892429162834,-1.2139830058304009,1.952902360316389,-1.5138700775721714,-2.793138910808503,-0.9452385253705258
8,-1.4401161654249859,-0.03826086645887726,0.07922531939241333,-1.9421626200731206,-0.3650622685317711,-0.29163022685289713,-0.35070433343039675,0.9564088697077602,-0.7226893768898376,0.8082580028689161,-1.8383472618338006,-0.14882856723861046,-5.795410705772629,-2.315348632670423
9,2.024455406503168,-0.6006342332051975,1.8594636017899704,2.9235459147852287,1.5835621256271202,3.215315720780045,1.1256832381793065,1.320224309977691,0.7898197046068309,0.6922524091076374,-1.7765481307851787,1.715471100680834,4.537417617562555,1.0985112575604938
10,-0.4839124294179695,-0.138236301865516,-0.976836549841916,0.3884167865179551,-1.0277805901707664,-0.9447960926669219,0.18104480075692342,-1.8459088491923634,-0.8081592592500397,-1.6777184063034833,1.4805647399326398,-1.3316116852672402,4.731979254290231,1.7900449547684365
11,-1.6284323267460188,0.9035408941943412,-1.661640727528825,-2.6565165293649216,-1.2611121558505913,-2.7129201761926014,-0.8906229129999492,-0.9201546823148357,-0.13191749778459633,0.2806853145593688,1.8789824293647797,-1.068531360687578,-5.486914650488343,-0.792942013528513
12,2.322652685284752,0.40058547252653204,2.0040194263448137,1.240225927503373,2.5062564727075816,2.17945937818874,0.10158565554500686,2.6933500996419957,2.182905725201178,2.357738876651118,-0.862850848353013,2.744256866709176,-3.111974686285224,-1.1612900075776855
13,0.17349470548589527,-1.3574942775394008,0.9619340348694132,1.485533337365222,0.1580536676015851,1.5324270796631452,0.48096056997721787,0.11706112509881095,-1.2621901233120858,-1.4887611157817435,-2.3762774561926405,-0.356757407028944,5.425335617722663,0.06982366217102623
14,-3.458351300999989,-0.7029234367130819,-2.9300403221047753,-2.4362746522092342,-3.6260698821847384,-3.038763575784545,-0.43228931250011704,-3.2562118634720303,-2.9783869653348223,-2.7452644883849295,0.18825948004050488,-3.653555722716459,1.441848369911088,0.6239934171517969
15,1.8476788822359982,1.999854726819872,0.20893284194842243,0.25429110441895497,1.5169977861912578,0.09502637728030298,0.13756404776641032,0.9468730380808955,2.967661533845735,2.679170539789811,3.2775369791251685,2.2515139696498156,-4.398218002694679,0.9272451181116387
16,3.59447883873425,0.9440217085885712,3.5230518444858605,2.9042943529868563,4.044826714524363,3.278754268092959,0.6979041180469308,3.3604837378319528,3.053798300619681,2.9044328816113882,0.2851576953743257,3.804168133789568,-0.19037995321618606,-0.2833706137200549
17,-3.7949261691184883,-2.817014411447936,-1.7127560240329869,-2.093720082044108,-3.3641486545659047,-1.8161118322972267,-0.9404959058435531,-2.036906533165867,-4.533316134289656,-3.7047483747614725,-4.434047229089259,-4.1952469414058795,2.683122760345195,-2.025417592450193
18,-2.8247592514716917,-0.9905046539406926,-3.5959142135861835,-2.622505705621495,-3.63343928036239,-2.8455175603509075,-0.7705518158274063,-2.956182276699264,-2.534140809388994,-2.968057854355749,-0.3470573695594253,-3.167734507455667,-0.3277420988889703,0.15688457779953868
19,5.136487327781723,3.710020369131612,3.3196631807926273,3.607108929986829,4.916353690551602,3.266544078002788,1.8315570480476915,2.900278574151346,5.655550687050059,4.576297760993424,5.555532157731463,5.793395445228766,-0.7023224870219158,3.081358136357385
20,1.540154097491775,0.7380612818437785,3.0537811437411144,1.7932366704797778,2.5193622168311163,1.8727075935013218,0.5543349069784262,2.127529502986238,1.6824466119025083,3.004426917164167,-0.0534781874581165,1.909168679509688,0.024942549512883466,-0.21016021829042894
21,-5.629269669111326,-4.504434316376237,-4.749173355358555,-4.542185192240283,-5.792035276946622,-4.173962161852501,-2.660001448095557,-3.3440995007826175,-6.2403474675042805,-5.40126888298433,-6.312879974924794,-6.777345782612755,-1.105213865946267,-4.00628114255107
22,-0.23192858263566352,-0.17759594290768976,-1.9303252079134328,-0.7216727048427493,-1.0405052506608112,-0.624638619269396,-0.021743585052503435,-1.0551816526281903,-0.7524068439796532,-2.9412316219868666,0.7587227714553396,-0.3054480864738315,0.9571022480254505,0.39968111605400114
23,5.361505137359734,5.0147307568813675,5.736673871663113,4.86207375281884,5.82177353456478,4.425174936298113,3.258395236108909,3.2854291312944617,6.356336723999338,6.258833373114647,6.487781787851049,7.045894678697806,2.4132269777911044,4.7577838118023115
24,-0.7174594051506034,-0.5815851126015291,0.39162111728754395,-0.3177210052960431,-0.37938017055763623,-0.5960271681155256,-0.7734660848741587,-0.0503021697649674,-0.10178286007237232,2.5939978209685415,-1.4633885189231066,-1.345528414235951,-2.3242224123725195,-0.701001953477132
25,-4.657090924573332,-5.131359609678295,-6.107232679626923,-4.699177273957656,-5.096220931433132,-4.078337792064078,-3.482994198028161,-2.7560703067083483,-6.136617616726543,-7.095020858512778,-6.08441549927699,-6.651074751545446,-3.0861604423022917,-5.310826476871091
26,1.1686221625422502,1.3558328056000668,1.3044033971300457,1.1723478244247583,1.3858865555768958,1.5457234729471392,1.7038864104077007,1.0118362451604008,0.8338375533994294,-1.779722129801898,1.8650160884864941,2.796521661969775,3.75467476878849,1.110547174678974
27,3.89664831964577,4.875267658937855,5.825843624123848,4.254305866579095,3.9124594301402142,3.315332363798135,3.246597667862006,1.8676074154757398,5.694555564725381,7.702104205944847,5.328956396040235,5.746852362709297,3.170546881478245,5.626252862391712
28,-1.2363695759622273,-1.976529722210386,-2.882884533919064,-1.8301633626675244,-1.8128241550955837,-2.1052325968467476,-2.5880798348861007,-1.7194394626247416,-1.4579718766932355,0.44854111438481453,-1.81793822077963,-3.8869412331382565,-5.010838005126258,-1.619652417635507
29,-3.3399156540472545,-4.382114579264614,-4.998544455120261,-3.6916652989858036,-2.643528564685243,-2.353631220367778,-2.5444138762384845,-0.7607704194292919,-5.088210998392158,-7.794089270204976,-4.550350562266154,-4.526519983206709,-2.810699029236504,-5.638321053725029
30,1.1853469875240241,2.370364276247139,4.1305073287211584,2.3698741796944724,1.7139681431313887,2.284263964717082,3.2213940177197973,2.1272609245303014,1.9914048196984777,1.239817792749467,1.3970438072655527,4.542490095753476,5.981809283145183,2.1740776829840387
31,3.027101228189164,3.824324773287699,3.821994436799417,3.0760268675824225,1.593302600322941,1.359982083726347,1.47297860021998,-0.43338853153020995,4.329662455259367,7.138902615229357,4.013278204706276,3.173324947269908,2.1445828169845456,5.277714797171597
32,-1.267124857042618,-2.581613678220283,-4.941828925784278,-2.8756071047785667,-1.3012448225355915,-2.1659504683797883,-3.423656673674119,-2.2278136363198686,-2.419112255399399,-2.935417836817608,-0.8356747437119288,-4.751482595725162,-6.644186242649084,-2.646870092391069
33,-2.7973562358468005,-3.31865844572318,-2.506690851272382,-2.375275157786227,-0.9022883629177277,-0.4114999317470492,-0.23096062390970143,1.605135028911788,-3.4153018396110317,-5.683327330962983,-3.8034512581364055,-1.8383061286096691,-1.2462409432244264,-4.526990341419914
34,1.5781451083420688,2.7247940285058476,5.3136187514101705,3.361427674663491,0.8287177323754763,1.8276913504296939,3.101100487046506,2.0268737542610094,2.686723157851625,4.205621223094759,0.3833822168379088,4.538062801116187,6.981047005352578,2.853995336520173
35,2.40798313211771,2.873650266464037,1.2137730267656293,1.5195444693878155,0.5380433855263874,-0.47702521007754406,-0.9160190767379782,-2.6540989432977624,2.356661795929185,3.6150927105872652,3.8261871063933452,0.6427622265918622,0.14748228605607402,3.478352612328248
36,-2.005311108170043,-2.897936474301386,-5.296682916622061,-3.7428605995655677,-0.48234177759812,-1.2919129062947041,-2.300022098667067,-1.5378260739591483,-2.711596769293118,-4.685621756366139,-0.17535009828415968,-3.9489482179165236,-6.9255425859940924,-2.621034716094601
37,-1.6922615364417826,-2.4053665154796575,-0.03715775462285735,-0.4819172089255303,-0.3588191168741328,1.2848274220673837,1.7121127017064588,3.4722149786158623,-1.2049286498762795,-1.336490138192603,-3.9037587692630087,0.31083387928196937,1.0844749113679442,-2.3504585309831416
38,2.2843484930889697,3.1085043445331535,4.940569681211734,3.8682525275829147,0.3230356725588442,0.5415084694267445,1.2173999630697985,0.7994124154038522,2.404525815305912,4.214704783153457,0.18836721532132514,3.057283051846477,6.377735088140867,1.8744208952701469
39,0.676716619331811,1.8108442712582997,-0.9657103027403475,-0.6624378522687842,0.20744009724247023,-1.9318078598068156,-2.006665258960783,-3.9434171252710932,0.06845329588006252,-0.6425345819806698,3.8992515721002365,-0.9376421487259884,-2.2781630567853854,1.4380432315587268
40,-2.1431368353903744,-3.256803486908377,-4.271745063451508,-3.5943587109946122,-0.297670344497109,0.41154255327899947,-0.14631248344112638,0.09633725169975935,-1.7038653289058803,-2.911265655318566,-0.2973762014663106,-1.9728845589983497,-5.292251627848151,-0.7072671148383888
41,0.40272980704216454,-1.0565603332345102,1.7247918797306885,1.729563547068198,0.012855651940613961,2.2884458512049495,1.8224473725507884,3.9718414994181535,0.8841833226225125,1.8593816549820918,-3.787911330352157,1.1868554133267495,3.1624206969533333,-1.0077234004374571
42,1.4605352903800186,3.190980444926192,3.322929928540564,2.871187866997002,0.29906218321127304,-1.458238038736726,-0.6310678199388735,-0.9900367282429956,0.6229056989783789,1.1604902357681768,0.3851462434496524,0.8417282844458907,3.7810624582072307,-0.6222411473486569
43,-1.19966029358908,0.22778194864582046,-2.1371021272521697,-2.4793379002279203,-0.31161065784254166,-2.2530281212387027,-1.3550924696842568,-3.5309464210093404,-1.4515531100079033,-2.056413991767456,3.637227975820523,-1.0684600691511497,-3.4655482449045767,1.187607703574063
44,-0.3591941763003518,-2.806355883561096,-2.1908383185578324,-1.7969885699107773,-0.23658429619217317,2.3861865708387238,0.9562940012096498,1.6762803722737247,0.7054350974477512,0.48925876996744755,-0.4297986748644654,0.17781539429270146,-2.153039487011484,1.7669290691641073
45,1.428651349477309,0.49834083235202004,2.1055478809248074,2.7095067652642126,0.6360644947632124,1.8479679796078092,0.8952000668804366,2.7074650495232917,1.466511613031497,1.2906006621484674,-3.516039047738651,0.6716286764568943,3.066851773642542,-1.9040635033673317
46,-0.8233076107676629,2.1294224160744557,1.068693836570911,0.6135112723643662,0.07937942671879648,-2.958941339157775,-0.8586520566560326,-1.9645469285051496,-2.0202659312297686,-1.502063234477436,0.5112544327839451,-0.9611283168892776,0.8377125345828743,-2.410308856447459
47,-1.024764072224469,-0.9494169385646646,-1.6220525199833569,-2.3538828357077892,-0.9238288426136301,-1.2628884090488661,-0.7051653255022708,-1.7084926596243195,-0.8856435922770237,0.05270704325860541,3.3987196392141046,-0.1535201824605991,-2.111640096931782,2.8955139277172566
48,1.6828614237415038,-1.326402329058159,-0.2064733906333491,0.36783360974286156,0.14675753906439906,3.0454490960474465,0.5385088238917501,1.7588688123615306,2.9897320706031634,1.554556253947035,-0.7286425288847259,1.4674249527789789,-0.20716399850971173,2.3801335096527483
49,0.20234591218991854,1.0681882601467323,0.8356964729976617,1.538283330420182,1.1464478266406348,0.7963695886367008,0.9056144460985401,0.8136941327549381,-0.14553641420215843,-1.3709146971583797,-3.138523779471368,-0.31191783584897026,1.0037425391753012,-3.797885682953946
50,-1.9486088385257159,0.6184149507444032,-0.19994377356115256,-0.8878188566532216,-0.3985488901273302,-2.719676596473911,-0.2757747256411703,-1.1176041895071884,-3.3276730973651136,-0.6850867354066945,1.081686747412405,-1.761644666892309,0.38216400856340693,-1.7112849371872922
51,0.6308463891409266,-0.960488147328748,-0.04042028801034012,-0.5568681925237745,-1.3157488570963047,-0.7109152515907782,-1.4216050080504357,-0.28229320840639444,1.3015301981070873,2.06499353411037,2.544876823054285,0.6104435134662414,-0.2506982878061138,4.267682216563097
52,1.6283396419225262,-0.14974534855297184,0.13023069108341534,0.8572100007198005,0.6570558597252972,2.2549077450786514,0.3014866255186042,0.25702361467790236,2.920286491549731,-0.6892050483673214,-1.4041774350116305,1.9801746510174323,-1.1381361060975825,0.6348207346665501
53,-1.0710099400836093,0.8373033125157754,-0.4377256248380001,-0.23550057933162155,1.4521840226995721,1.0791731330248355,2.0136898241518253,0.25086226722467697,-2.1755847132718356,-1.7930518052192699,-1.5285862543136886,-0.746840176540104,0.22635016503407443,-4.095833677367077
54,-1.0131944285421184,-0.10317615707302653,0.21301491622384564,-0.4077509380920242,-0.9378190268063593,-1.995614382130947,-0.6865011966726727,0.513851428828671,-1.8944942137128506,1.9274394566879878,1.416017407667456,-2.2433733726691125,1.9839419601745483,0.5018960133660627
55,0.9263347111347859,-0.8785141707820928,0.40356721369620024,0.5728740993583408,-1.5434436770811406,-1.7191729377272091,-2.385293313930492,-0.6676637581447439,2.431248230472799,0.6360162233829992,0.2193335025560349,0.8388482764298104,-0.9775293534231266,3.270256486987616
56,0.5282622998008476,0.31299699374487844,-0.48036963443319847,-0.16077517271915476,1.2592097081273608,2.169397810629769,1.2981737891412137,-0.9072166905926915,0.5845751143388782,-2.4465724110335234,-0.8839999637244493,2.5618952069129923,-2.3893442172039796,-1.3524748441104177
57,-0.32018297083848446,1.1061706607937238,0.08914116832627096,-0.3959453332909248,1.5313849246793332,2.271674947258722,2.324665310985899,1.2972101571541208,-1.9350949702391018,0.9274940130816832,1.0406431250688906,-1.0311894276471825,2.189554414100345,-1.965783459118814
58,-0.5026180918862174,-0.6754164386046122,0.34914723034423717,0.5198585659055688,-1.5926901219057565,-2.7485869307644926,-1.852214583797245,0.7749918475434335,0.5923430362339395,1.9985376877689074,-0.20283243932913692,-2.805113038771438,2.0448536067856984,1.6795423659461393
59,-0.37427495721158055,-1.3573320820779684,-0.7441751746646407,-0.12715444510836513,-1.346309628834137,-2.3868142910703782,-1.817714534161474,-1.801105966278314,0.806199521692692,-2.2490982707169107,-1.8503686481448995,1.3736993820021142,-3.339360369629655,0.4704784669732111
60,0.9821682388744615,1.254477283243015,0.29721261846439023,-0.46878273460725206,1.837428354937392,3.4491001032544664,2.0453349654915556,-0.1819360591227543,-1.2933062638193276,-0.7904343473003692,1.5654131540934975,2.7702164484076124,-1.011953337009725,-1.4123718815477517
61,0.7404509691194274,1.384381942595381,1.1639183146235188,0.691816239766308,0.9712870294813265,1.9160117734162716,1.0720470073682558,1.8696979705609131,0.6382534917736948,2.8339615244836636,1.972702818857607,-1.746463172495307,3.9566153000591,0.9157928649461645
62,-1.691103203100684,-1.903321022086102,-1.2870135619857674,0.025534283488327952,-1.8495879204070016,-3.873587106042761,-1.7103001674994454,-0.6021968946387438,1.3672462664191725,-0.6310008968648644,-2.7382309184128433,-2.321481373907789,-0.31834782441085324,0.6385805751615995
63,-0.5588034303743096,-1.025947399098265,-1.0556941531463013,-1.0121075991455375,-0.4914620339056322,-0.9982438323618797,-0.43022346236141845,-1.3551441758680087,-2.010059683931247,-2.5833484800615087,-1.4888447158458415,1.8953761364219568,-3.8509205553914474,-1.9660660951328044
64,2.1709406348702274,2.3201600340465753,2.227271786533788,0.5949494632423677,1.519382853151936,3.719044914031275,0.9146383534096146,1.1969625139757498,-0.8871891157181366,1.674745137220772,3.297907786071916,1.5110087427752867,1.4320275117378218,0.45354960684427575
65,-0.04872917889693456,0.34237391649949195,0.39459381450959236,0.9575825237599888,0.08631722590606535,-0.007132613218247653,0.20804000844762063,0.35028904867889843,2.989194378484459,1.8180078554863541,0.7818296888463299,-1.569033344196125,3.1856570338099357,2.5649106660043426
66,-2.0308839527175557,-2.2144957803606107,-2.6897690365148086,-1.0989475845986858,-0.8519530042515732,-2.93288812438142,0.05365731636936727,-1.2610237095918404,0.09568990627398322,-2.0141974270825687,-3.085738532683985,-0.5942031454541223,-1.9471645729492775,-1.6460878495105202
67,0.6535395983990655,0.3713966376508764,0.5425924524172133,-0.6033293643118877,0.04235435437515377,0.6986098305348769,-0.5387220952300429,0.8248986152001142,-3.4196925179353213,-1.0724431322495298,-0.35151910211080173,0.6735623055649751,-2.3696699344930936,-2.7007755025064766
68,1.1808423992597112,1.489812114029392,2.423389131932098,1.2617126842317237,-0.0010372728779023867,1.7368351356342975,-0.8119414797182636,0.6392280064813782,0.7010695587106744,1.7334019709879573,2.294371481478831,-0.07952110919355682,1.7828529961478554,2.7435359083150126
69,-0.7249824185755754,-0.7103979523425163,-1.2893156700137711,0.17652821693783807,0.2290850544528379,-0.8209980124360274,1.3054820027267937,-1.730946768761782,3.3359129786974364,0.787230989979754,0.5667530434691066,0.656086194260733,1.838586843497822,2.4356150658774247
70,0.07660954004788238,-0.33858946716346566,-1.4900373380360374,-1.029809025598595,0.7848332104201033,-0.5173405916348712,1.0567433653913307,0.5539902401525414,-1.2436236542990542,-1.2369273271834977,-1.373373245449265,0.2349528399983235,-1.1655038749381628,-3.595746054137129
71,-0.0931322166452454,0.35882850511602116,1.3931109983637364,0.0631283143644135,-0.8732260827717586,0.3692651593488034,-2.1976459181979164,1.9727871661191454,-2.924211643091037,-1.081108651774565,-1.4915011737368584,-2.1146916529956936,-1.8480790842595538,-1.87795365958386
72,-1.149407752910371,-0.8052179897904006,0.26291353108946985,0.5359974527291943,-1.2409504008534034,-0.34870212693110764,-0.6948981231688164,-1.95160601825526,1.398202932672796,0.9944136484209489,0.815141600537501,0.20726762024745887,0.48977626798287105,4.104304984120448
73,1.769497106782826,0.7366951154964323,-0.620317934765058,0.053060935907263296,1.7057501880691164,0.429626381803008,2.856433340670853,-1.3590913452399953,2.4429890569854873,1.722992534211171,2.866939686354349,3.3726719154454328,2.37827673882169,1.1669861359933316
74,1.412627989187662,1.437074920855275,0.7105098992460753,-0.03149917625319927,1.2128694738585317,0.6436463923278951,-0.13233317085410443,3.050091367296347,-1.1868917171668392,-1.2811357833241828,-0.940414375986108,-1.1248573882626445,-0.12265522868237033,-4.230192336223318
75,-3.8409963999756536,-2.304132959006998,-0.9231124914618071,-0.5271639789965636,-2.4474907225054543,-1.228281323089853,-3.0286318449238787,-0.0026563719267886426,-2.128329908723982,-2.294105221954907,-4.2368982413231295,-4.211132295152299,-3.175893833833904,-0.4541589882941495
76,-0.5047687805444376,-1.1999075731124522,-0.9249287260097021,-0.22744435459888604,-0.7106032752129827,-0.375245109476404,1.1322929749137465,-3.3883410820313746,0.7654586905151797,2.0575748169720085,1.7825060655028984,2.2896089445352965,0.251497100877062,4.003770667369487
77,5.565851598423779,3.825297784512013,2.803591892381381,1.1905764474237726,2.823425805223079,1.7000342195412605,2.6505200917450176,1.7150460987717244,2.112000651473281,2.4227263921644484,5.13572721864544,4.566064865445377,3.8882278717216927,-0.13195823233581128
78,-1.468062060685295,0.05509945513461978,0.12990019096290836,0.09347019684220165,-0.08710617889891174,-0.2485172865191226,-1.9915487866870922,2.7301020424469633,-0.35537635335722195,-3.028643646060013,-3.099404220938591,-3.4835832869053482,-0.8341151385564841,-3.517470512425649
79,-6.218298239701235,-4.729593008547205,-4.405735665195402,-1.7697346513154653,-2.6594646803032798,-1.6518013563166998,-1.8359763942227352,-3.2123238798273723,-2.3781645042131574,-1.9542469139937,-5.250185158601171,-4.476473032912168,-4.211182446415686,0.5276683110022783
80,3.915427699083554,1.6679867430458128,1.5443483413846082,0.39726539345065565,0.8868813418023039,0.9061467952698327,2.4794255499251054,-1.18174502860847,0.14892931500490572,3.8143436275063323,4.47790399562476,4.5541483798130065,1.647060852345233,2.8838799049336754
81,5.407874753518858,4.6276645137320696,5.164678165764399,2.0015291975770717,1.9480994101783176,1.079826286701681,0.8032597179623278,3.9646181802990954,2.7794793580293495,0.9847320083548874,4.506374880418165,4.0020897499087855,3.9891709757066462,-0.7488493144109093
82,-5.95634873616916,-3.3726811185955685,-3.6057787274806956,-1.0203465639379319,-1.3713287848379405,-1.2715401662294175,-2.486277292605468,-0.8121652017034607,-0.22150891908377449,-4.118071060482217,-5.4708186336477205,-5.387783586707564,-2.3867062042301277,-2.1738802481528112
83,-3.287130841956188,-3.489199146100736,-4.798175514165711,-1.7611152150573277,-0.8669618521479362,-0.1665249263788669,0.1999930675240108,-3.694223169633296,-3.114499048542874,0.2209892891093544,-3.0784836349454108,-3.189059546644398,-3.2452612386671733,0.8515871497868698
84,6.760950509235203,4.415743819709645,5.371905076003589,1.4432195102283782,1.3034157843428722,1.1154590339861767,2.013234265609765,2.6151323317617012,0.4930928503750197,3.812509324845772,5.72373931442786,5.854390642084592,2.7732166638039257,1.382418865355856
85,0.5437733278866309,1.6833920211016242,3.438353907991408,1.1486265100705626,-0.25763363050193916,-0.7715920184593439,-0.9391514944819133,2.5098940442361353,3.238098410217154,-1.3503247697299576,1.3379474392365955,2.1099674891188127,2.154078731845988,-0.855366828739598
86,-5.904953132600077,-4.363352066130847,-6.236087918388918,-1.3739819224323093,-0.6190144212550188,-0.38141890823781227,-1.1567871458535302,-3.644750297485678,-0.7679945702020369,-2.9358119726472656,-5.072423381578952,-5.798009381934036,-2.6281864062167,-0.4636473947569533
87,1.8438363889724603,0.14684089430652367,-1.592841449992687,-0.4812465261308393,1.042025315886581,1.3742048107789486,1.2153585694813158,-0.8830667548070197,-3.150239976589657,2.135181803466886,0.24064863810436438,-0.9320094876569834,-0.9812742284220813,0.6895353316545302
88,3.5769587770113853,3.1724962588119374,5.917274279885653,0.7211442365854605,-0.5233773270767639,-0.7795640008955095,0.11007094789552624,3.617090535435102,0.8450260669585525,1.6432872566506833,3.6008878204925083,5.1074277751080395,1.9182346441817977,-0.5752806782369606
89,-2.9998375942479476,-1.331628015826174,-0.062140035293604054,0.169612570299538,-1.175247175022635,-1.3523292907712254,-0.904714766089295,-0.5438791587796007,3.007140687561482,-2.396308666047085,-1.2063992244312005,-0.06679302210202577,0.007130998210885418,-0.22261863587579486
90,-0.5278055665743058,-1.213534164373604,-4.574690090435399,0.31934270428514233,1.76584659925821,2.0330800866927263,0.8421484797794155,-2.6700322184582306,-0.6449699948510802,-0.1600216993884026,-1.643314786970488,-3.8253525132099178,-0.7636791862185193,1.591644197406103
91,2.520635845958927,1.4367840885054983,0.9688390256796833,-0.5181097956933587,0.5485639912600465,0.6024578610295146,0.025217434567477832,1.2394546947583218,-3.034174990551945,2.0605407526265678,1.2722560434858916,0.5797847963299232,0.5545982151171917,-0.6234962803584791
92,-2.2330247205659464,-0.8793707032841735,2.725787915170041,-1.3153619448057612,-2.6589039434116915,-2.955454151890026,-1.3786399380858911,1.293148430127558,0.27837351543346917,-1.2559670795603068,-0.2903020005389572,2.2078491140141243,-0.5929375414661676,-2.3170784106188473
93,-0.6439152033480764,-0.4266928559562353,-0.918417500058242,1.544837415168438,0.6712697619072628,0.7225285723530658,1.207259568795973,-1.018342228874657,3.3791629462696893,-1.172333765562337,-0.42754717958082994,-0.42143819152140266,-0.6262722115395593,1.7467876886969778
94,3.860555571062656,2.4626331864972015,-1.0039629185669172,1.7873875549259517,2.8288807969601035,3.184479191346114,1.2609686919673568,-0.08906032380395802,0.0008707874314656631,2.3582515103149984,1.6650819603094806,-0.6664472541742931,1.8624200795920611,2.4852011684281163
95,-1.8703711766464401,-1.3413432686995599,0.11091353066379482,-2.927298639733161,-2.072807844872794,-2.230654493789228,-2.398643132926901,0.10620345674350434,-3.992479669709023,-0.1063189998190004,-1.0315503118278808,-0.3483776839098052,0.2961640268163432,-2.8286117700241764
96,-4.015909398930511,-3.128627292299975,-0.12199863172760388,-1.451356238744057,-2.1407489035439875,-2.5773670030062297,-0.4697631517963181,-0.5134867594812454,0.05550726939390349,-2.973607852678228,-2.1078439462204823,-0.39778564525709564,-2.813216842417213,-2.0135647470043083
97,4.090245571833999,3.2814120028128535,0.9806714727631146,4.124838419681562,3.1424912741199287,3.415241021104537,3.1059002712945567,1.0026483561321966,4.618649055520168,1.5307526746197138,2.5900200887437315,1.416974590066172,0.21868258233783394,3.4455634262760872
98,2.963344342711359,2.8378339970397297,0.5245632316200217,0.38570578632201397,0.7774315868384647,1.3022178777239142,-0.7300561382848977,0.44175538186199814,-0.5220158459351659,3.058033942882321,1.5518633109554978,0.7802911165785782,3.3604971612139987,1.1197243411546793
99,-5.318104444358615,-4.822602898708915,-1.8623866592817608,-4.631437744958183,-3.46916649940474,-3.8534073853280075,-3.0364200393709613,-1.8153359822962873,-4.922532888333063,-2.850034190464669,-3.7044501616868466,-2.351543824030255,-0.6750046381912964,-3.290675483898768
100,-1.3870426520226735,-1.8895735600129444,-0.4082083984307358,0.9802531485220064,0.8150837961110968,0.19808007084074306,1.8634229159363747,0.03926167155587434,1.220602931258939,-2.7073780192665913,-0.2632779763392409,-0.5680496039073796,-3.586666594355299,-0.2730973281452222
101,5.354190688495419,5.623077886297602,2.2480848988108235,4.229508505340872,2.9188114840513975,3.3948127999164237,2.214455582959496,2.0851459513417856,4.685721251276061,3.8954254974758578,4.019228339476177,2.8060625806796766,0.9244350042264281,2.3793247393590446
102,0.0368077502386818,0.7560662895110952,0.13827960643626974,-2.0649631090343874,-2.1036320726837765,-1.3750611133831068,-2.4504113774694396,-0.5235797652549949,-1.7928469628012151,2.1030906477917988,-1.2772516860372027,0.08235488131235084,3.671379064810204,-0.02049944027385575
103,-4.501928126024297,-5.665103335094161,-2.1475720730621166,-3.102983002130386,-1.6923847932962672,-2.2435070512765174,-1.0079602006796544,-1.8963181910572433,-3.95505669794531,-4.630824043025144,-3.50457327579821,-2.6862701042437362,-0.9810543396805482,-1.1032235678061526
104,0.6084346148427368,0.13743676688957054,-0.01951537584284762,2.419625428001071,2.686561505980823,1.8093434406896298,2.248103928108472,0.7135617422283246,1.8918007551085663,-1.4165248982772918,2.5885961853133237,0.30165250797165427,-3.7679919015661594,-0.5059128498263473
105,3.341281419014688,5.198889976253357,1.7859733240374585,1.7417972541092634,0.2349270003517826,0.8792286759532123,-0.02354925853930986,1.555424569111133,3.0467326263397965,5.1316220481382695,2.4441008342333364,2.1784003102183713,0.9889450065059749,0.07483460215964921
106,-0.4977755663075895,-0.5837154273520638,0.15239532236799352,-1.9442222945976813,-2.451220519025813,-1.397465631869012,-1.396073760355303,-0.5732506175905606,-1.3843914951434082,0.7261054537050651,-3.3945699963884173,-0.3567576356646578,3.90517174585454,1.7051697788065265
107,-2.4122391949768107,-4.573578029367603,-1.4253270636746458,-0.6886931749274424,0.9598766498770256,0.15328696376750722,0.39807442166144813,-1.3727994305658204,-2.394940811356778,-5.501330336528433,-1.2766939798153423,-1.6264732680600957,-1.1096669859423616,0.16998137462724502
108,-0.06426086482077203,0.6397064281066823,-0.4346802257054828,0.9164424191236973,1.5971581650654578,0.39370957615839114,0.3716673277712108,0.307358873376626,0.44479820384517427,0.0021641734258625324,3.7168431779509716,0.11282762907395993,-3.978888464113404,-3.054321207794835
109,1.9778201787897611,4.045849894581264,1.2063805096525768,0.26961288490947083,-1.5532773352388372,-0.48520680884537515,0.04002596380017975,1.4740730735281833,2.3275296381158816,5.77469280191224,0.3751177678265951,1.3299527118125376,1.4063465985005372,0.5487233122526125
110,0.6457256618089205,-0.5345287706614265,0.6810331379463298,0.17669988844134746,-0.5218527764104155,0.7164910679830202,0.23900389669845132,-0.1993930770001857,0.5176774123984114,-0.8559539574935301,-3.8097950913467185,0.18642088002362026,3.83678342933589,3.900176616482334
111,-1.9693538319047224,-3.6649364648540863,-1.0985553466180564,-0.4548020335691931,1.478049159747164,0.07457257923608179,-1.030326011666521,-1.7476561359716936,-2.8936198295355253,-5.8679243476760234,0.12269842297426428,-1.3780059598359207,-1.8016141662268692,-1.9513953748304869
112,-0.9289494683518377,0.49711377957762426,-0.7678779148436321,-0.9031915730698031,-0.3660813067028775,-1.4455428991656325,-0.042346449404904105,0.4215077701307977,-1.0567253469880815,1.871524820757124,3.9761724686781372,-0.2505859638931208,-3.3920046894959586,-3.784144661020472
113,2.106189741920213,3.290902983606317,0.9670001743036023,0.917975804074669,-0.9236697764482923,0.8041083410477183,2.0259257062384477,1.9412310449964356,3.8367284247365063,5.61473474340044,-0.3419567198299918,1.6147642755243814,2.130804348684756,3.4327093695212683
114,0.8424241736061451,-0.6038509991870208,0.7111723106090659,1.09671562219662,0.8120665832396589,1.5166788187292108,-0.951705342598306,-0.9310809914435608,0.9029666603360389,-2.947758567740854,-4.367798488852277,-0.06733014706203837,2.687208211406331,2.6698661910518524
115,-2.094762973192218,-2.7294205679386883,-0.6939772442467931,-1.246901629304063,0.2140564913874507,-1.7163133890489788,-2.482246979789207,-1.8328396920489065,-4.723528492075887,-4.879216099811452,0.546196631217829,-1.7538383132534026,-2.2450563658177436,-4.361934581876295
116,-0.5387413304926043,0.7354476124081738,-0.6413026972549783,-0.9037378374474365,-0.7868162958941869,-0.9567825040048992,2.331441715302357,1.5044439707550894,-0.07849123149389628,3.844428276679286,4.886753372549583,0.6737851178703972,-1.8711023191382365,-0.9499891457189272
117,1.790240173973985,1.8983506753358794,0.2705661151146219,1.1781717155379414,0.3499822801804913,2.2797048638224693,2.1496993625915763,1.3694083450833585,5.151953482200464,3.6841974203299315,-0.9324191590179991,1.5709661933435475,2.0911796866609476,4.3869585047359205
118,0.26137877189440184,-0.668446216784204,0.7073381672954923,0.6556162639158944,0.44694774090276906,0.03536432322407916,-3.5050286042644827,-1.8740843869745922,-1.1421360142418822,-4.287216180639979,-5.249488887471879,-1.2915962928120583,1.1136064374649752,-0.7684264704352973
119,-1.246191161297162,-0.919825075875081,0.19250661972742455,-0.7248154934324551,-0.6057010066039848,-2.319780630206491,-1.2039301105172797,-0.6969175717535356,-4.922160159104764,-2.267975696850904,1.4708403526168596,-1.0534016098636965,-1.721377014179511,-3.5779207898744927
120,-0.19092197936918798,0.24402728441249538,-0.9788537029772835,-0.652364998415359,-0.024094947905255633,0.8997084211151138,4.021378894377863,1.881936668370746,2.388894328248447,4.1327990208630165,5.181355080201597,1.6360111185821413,-0.5228787741065962,1.9768056145631938
121,0.6491918499143003,0.07476563309913908,-0.52948975456966,0.134982200481207,0.5567846024438436,1.8978522030460505,0.13541722356161773,0.07510113850020747,4.083182956009012,1.0106722097774283,-1.8961504712746555,0.4089162892968313,1.2401235467424259,2.3379736048386537
122,0.3541016255128534,0.49465730626481724,1.4027351692683512,0.9877142781285025,-0.2910210763020159,-1.5894675817550845,-3.806664251542522,-1.5624502221319734,-3.3713814774507305,-3.493264661677474,-4.622789274742931,-1.596197905765134,0.1156025599861435,-2.498890324438638
123,-0.19405742881608473,0.3568042014644003,0.612151029633286,0.28002625401019504,-0.32154099700403727,-1.2184383583813612,0.5390676337410937,0.2665057155463009,-2.8485191109003174,-0.24971039143486456,1.867872478053063,0.07266771348469898,-0.7354584135653895,-1.1431119401288994
124,-0.6318665662885917,-1.2892780796733234,-1.8314748795346605,-1.5122657506970283,0.41396387292229087,1.9453685843241164,3.1787582004253445,1.116106691839175,3.9713961152341652,2.724879241728704,3.8089888585383362,1.3011470610277793,0.15259665444424453,2.5163940938647054
125,-0.024677547080822135,-0.2711055691453835,-0.4160621866265617,-0.337734025493237,0.04568821796287543,0.49035896445567867,-0.572221750959447,-0.2485016984707818,1.4533360724926598,0.08587647664373316,-1.2044143047757525,-0.21275651488298788,0.24208895254409307,0.27269138966977824
126,0.8460838201792709,1.792772423680708,2.098406853141505,1.944760684786795,-0.36340900590237407,-2.0187102093642215,-2.6340696506428114,-0.7959573595329343,-4.215102269701015,-2.262102413663049,-3.1580681221250884,-1.024701163652217,-0.3298243118271116,-2.3841813989293565
127,0.050245223659148165,-0.1802533121433157,0.030224083127141466,0.08178608757229253,0.16772691105800228,0.16853744964330292,0.11291779897864702,-0.024337142406938433,-0.05241189656735086,-0.3058532946841384,0.03632647475146623,0.05982278468023552,0.24794246754819096,0.3056089794690383
