,AF3,F7,F3,FC5,T7,P7,O1,O2,P8,T8,FC6,F4,F8,AF4
0,-0.009025805518074291,-0.03279713016383202,-0.022804137708954737,-0.008311890275605315,-0.004837909494219465,0.9510440462497571,0.022023832348528578,0.08333454032596195,0.0535116841918788,0.037615695184857224,0.012282312070369075,-0.002388826839339402,0.08044767894725276,0.056220445198551884
1,-3.26915018862319,-1.3618007573487128,-1.7140129095210044,-3.7748728377116856,-0.8940562258728855,3.0506402816372975,0.20184524375156682,-3.090920760934167,-1.6911626666233222,-2.9652524009170547,-0.768738603882873,-2.6412178549546854,-4.6287560164056565,-1.9466117043278899
2,2.1880621765744612,1.7795595133388755,1.472176139517168,1.944535158396763,1.5204425334094327,18.240321843658933,0.9130030615077679,0.4392958212801317,1.5292493891691092,1.980222257643011,0.992504589980354,1.3257822622045943,2.4499249954871245,1.7470248268277895
3,2.1396207299965555,0.49982600664761684,0.892157132091093,2.8450281237947395,-0.010482884296171568,-9.230644683778785,-0.5890445342837685,2.8393900363410314,0.8344115228265185,1.9168420166416242,0.35309153922654507,1.8510874849826988,3.214997638740149,1.081328630835212
4,-3.699981220847143,-3.0153995694717266,-2.39239386952599,-3.4300365836938447,-2.4971075671067084,-33.14606685896084,-1.6497196603180126,-0.876247422049425,-2.6548031548461655,-3.368050947589581,-1.7045705125511068,-2.1655159348870616,-4.205301903908198,-3.00594502191642
5,-0.3305227725394222,0.8894192329224494,0.3649625543526299,-1.2430864374830353,1.4514684933804067,20.565886286326485,1.2637110624325045,-2.3824195734708695,0.6013276508492046,-0.2633726148245075,0.21106727477521187,-0.6119877249364017,-0.8882388255260723,0.28028756087381346
6,4.148038668644419,3.4298613133486207,2.516799208486417,4.148334723284835,2.6227428144153953,39.44012784683815,2.0254885956041764,1.1419111876266181,2.993011429378808,3.7690734027730133,2.001587526228887,2.246387287285765,4.688342810621428,3.3901966127855685
7,-1.5360165304624875,-2.3393315246516257,-1.556851711590194,-0.6261387138611618,-2.924339273459544,-31.2014082283729,-2.0730741777475012,1.8022054714170728,-2.1884711421301017,-1.3904723078525953,-0.6469387459168685,-0.588996403304569,-1.5997784826179318,-1.5931775125501693
8,-3.5101870342823815,-2.9843598960531996,-1.9045764269019436,-3.9885038170509364,-1.8968869888211604,-35.79891866057324,-1.933705628607547,-1.1808087257402808,-2.43976599029896,-3.2126256112147993,-1.9602054078504065,-1.602203507661028,-3.847842825388098,-2.9140746588740476
9,2.843014445661366,3.3712510898464156,2.247723449090654,2.305140849357027,3.9362341677596158,33.39741864273027,2.7986926067022186,-1.224181266077355,3.430254171851541,2.4779108522123945,0.7406867168211986,1.2852246159795413,3.473705875531478,2.31869393002258
10,2.132230929215228,1.9217156628186323,0.8870633555019198,3.0727960375574654,0.6172880351988803,25.588794455159356,1.3701213283253477,0.9996141277762494,1.1680396969062943,2.0826050358371653,1.812621047569388,0.5662977872100099,2.0939446189744433,1.9453768961335196
11,-3.2048395881114122,-3.6645765227453198,-2.246970087462153,-3.4148892405369353,-4.187462383099941,-20.178188374815207,-3.1977910056303402,0.7847758050730487,-3.9181882932864007,-2.69907739173183,-0.453258474646728,-1.2301991371759735,-4.2210898214803,-2.1596432442806437
12,-0.5808301362747793,-0.6733427815152161,0.10621720496138694,-1.713886233205188,0.747321551802566,-17.322394633822707,-0.46775889499346135,-0.6850047544078245,0.4089100077157021,-0.9363077715793335,-1.821865324632626,0.3698595254936181,-0.1336526575988083,-1.0589812530333513
13,2.5974935055522423,3.171647081240631,1.659665191098191,3.7623366525769946,3.67026343770249,-10.971282388362788,3.0808079546283014,-0.5776315689344548,3.4801693122111224,2.1261873359494223,-0.05782514112453974,0.5071832827388167,3.7769727980087238,1.2087095857999344
14,-0.5850923090758832,-0.30883179964355684,-0.7480523792872579,0.3101750741432365,-1.7448203716625497,22.656728388879557,-0.5148703698572833,0.386037497501967,-1.7692444095291482,0.2575776311189659,2.1395786128561984,-0.775765060673923,-1.3144870634689447,0.7796517528452966
15,-1.340014375211613,-2.1259573292720377,-0.7923802670446828,-3.385795002143494,-2.6477766938585217,54.9485125124902,-2.395455028127496,0.6039185038786655,-2.2546007985449426,-1.141956159826465,0.52083762005587,0.5090435999633257,-2.523511379277834,0.0756666629892042
16,1.0296985258724058,0.731705585424955,0.9381662615526675,0.7876038679085212,2.1112301959162862,-51.698423168860344,1.2675472552054923,-0.25765850881085633,2.4706513469388995,-0.2558295216890567,-2.721358622253236,0.4804234503431566,1.8068428570666115,-1.3279551139630283
17,-0.06434640874565062,0.9310371408530818,-0.023593473280861824,2.518361256729613,1.5239963604086193,-98.63947288026412,1.2695802362952662,-0.7587523366178722,0.6453747262482554,0.2432892521279867,-0.6962556627722492,-1.3296775736723774,1.1004844599122763,-1.0755402951491246
18,-0.7475926781072728,-0.5694443009959744,-0.7955476605910137,-1.3869236701461236,-1.8540040453482907,107.17649158550978,-1.5400458760857176,0.3881588284862595,-2.3178268142392544,0.8023597786550397,3.3487085889665806,0.34941547531940037,-1.3328017391796514,2.503270677314477
19,1.154823005184907,0.02631394517132806,0.5904808795967204,-1.4815502390609563,-0.6620167843175807,124.72603910272451,0.02058198214793577,0.870800711332403,0.836117996309806,0.1953037628022398,0.5106891691705767,1.5880139622469105,-0.11231739496236588,1.3112344340012958
20,0.01399489239526521,0.041312749751150894,0.5369329445102219,1.4928185323937382,1.2099251279818732,-180.53446793944013,1.237145486824632,-0.7504522823420055,1.428845810522099,-1.5322830093542916,-3.75272247916048,-1.2986567517138352,0.27105503679960247,-3.7791290587150934
21,-1.699669113660077,-0.5480119258613317,-0.9013266724607145,0.5545474273320394,0.2350207706514439,-118.9346962402385,-1.149281081366161,-0.7823993536551496,-1.7775342403439376,-0.08275178717732497,-0.10311260188538994,-1.2159897107317228,-0.12990753292204912,-0.6780432806126475
22,0.793858833692725,0.5361454422070995,-0.3218585559761724,-1.2588084523473595,-0.49934288727755644,252.8932051735724,-0.4460207374057339,1.2101185778136287,-0.161673308008749,2.0579624296920414,3.7775111909430477,1.9220300667090147,0.8306537067114806,4.5717790108448675
23,1.7510657122351854,0.6880402742906077,1.0767573143579698,0.1200771248593529,-0.18362598577166242,77.49193636413074,1.8591560825624913,0.4298598857051463,2.0238276731325904,-0.3832779751909439,-0.25000176086227355,0.4663829336107117,-0.29130277659972814,-0.5082064670590354
24,-1.4055194148026728,-0.9427015248665566,0.1586058705498769,0.877721929486301,-0.04487317174044123,-301.6395876396671,-0.6165488288710301,-1.5923666452404746,-1.0680556234676435,-2.179087004860818,-3.492146189347477,-1.9786989368912078,-1.5371717978539052,-4.540973781907737
25,-1.5456667884329431,-0.6677852630479811,-1.2314479248722479,-0.5501594624262539,0.2993241195590697,-10.563556282590987,-2.0384819248254096,0.122896389075396,-1.7063416159727547,0.8657244310294159,0.29958637030003765,0.2356081821365569,0.9999737483474143,1.6851838622057522
26,1.7789532007294167,1.1784192945203749,0.07539075894085291,-0.47356850126864136,0.37720178707512914,310.0664032800277,1.7030279529164183,1.7732679302973182,1.9853069475583545,1.9736187489871482,3.1785605586747594,1.5554011534722514,1.7228471439132618,3.758450618183994
27,1.3153654896547828,0.6918982751392935,1.3589843812585243,0.8270739427481614,-0.3803580602489286,-60.91280743409888,1.7244635692276653,-0.7208394743950264,1.125733368708596,-1.105185257350151,0.007101933034498284,-0.5340258140883571,-1.5654505031947457,-2.3430981998330083
28,-2.0675110550889335,-1.4377009637531886,-0.5153362992722786,0.05385257698884367,-0.6123712858639684,-275.15074145750873,-2.622980559236338,-1.7419996448540875,-2.5613200470566686,-1.7192714213177638,-3.184828752758102,-1.006450466349649,-1.5845383567855202,-2.652212370815925
29,-1.126964247235962,-0.780081301336912,-1.3109367495601845,-1.0236474667888902,0.3598151889928637,113.96569865493124,-1.045304758108602,1.2056422106172657,-0.5543712721725017,1.0774738289828125,-0.4538762505930916,0.34354067836374114,1.7453787641871177,2.283465068473552
30,2.458249448698602,1.94389582645378,1.1692253687750909,0.4545596168584018,0.8960248269333732,209.09181765142043,3.27723570410183,1.5949393834612677,2.964931823367455,1.6928058463823596,3.7098733254482497,0.7393727037843522,1.4730273937895,1.7612386032041538
31,0.8530867088750941,0.7277887586221765,0.8893068673270984,1.1213444552386613,-0.32309207785240496,-133.49579343739467,0.14725891182026538,-1.5019228408899674,0.07703709005473104,-0.9968435663509101,0.6393475507800351,0.10648833853140655,-1.5983005852588983,-1.6966130655360612
32,-2.9890427467044423,-2.745840966232274,-1.8482713422290933,-1.1118797451314413,-1.2659094816387098,-133.64095347784493,-3.6346593567881484,-1.463460540594648,-3.3891235432250078,-1.9681170683243354,-4.6365155999031415,-0.9648566354304818,-1.646290089999051,-1.440786256514141
33,-0.2945576936931956,-0.23232685510358983,-0.0015777519520472395,-1.0122517344205952,0.4074115655366206,118.1571797324528,0.847212982623102,1.6477347770483592,0.42781617646297604,1.1601590957898809,-0.1950179516673131,-0.4171275219916444,1.406725706014696,1.0217767691975799
34,3.468752047812484,3.6090239841317153,2.221731504401165,1.8735003276163233,1.602439932397374,70.37178585596416,3.684025434204396,1.4201761466265856,3.865133252735613,2.3387936394489444,5.52150928609045,1.5567803358321208,2.0914821142069955,1.6822009726783522
35,-0.6246231613069188,-0.8836900448094676,-1.2158730461858274,0.5765243384936266,-0.6585786633361562,-79.40561507125028,-1.8334656412360264,-1.749675238440132,-1.1502563542278466,-1.7243605790957686,-0.9681330404652275,0.27616752481362405,-1.4618212185887414,-0.6763546600405699
36,-3.562376689199254,-4.083240826470791,-1.9780154074829956,-2.5592912232269467,-1.7046640876520767,-32.106659181977534,-3.4045274199177915,-1.4242258848646574,-4.192513018413005,-2.419931221738101,-5.777336594234641,-2.1115838864245564,-2.521298470492911,-2.142018800162248
37,1.7205232747032226,2.4856955599067296,2.388946591933075,0.2087586534342357,0.949863823138671,34.846475604488646,2.6901976812049897,1.8914127479843825,2.143472609068608,2.5546152555432315,2.525663822197335,0.3234011114086978,1.8416898867079863,0.8100549633037988
38,2.9982176836508097,3.7254383090367362,1.00849054442726,2.910914282293043,1.4400663030007526,19.55077221150235,2.7804201308008896,1.3431016970593088,4.043792755402539,1.8766590905228668,4.973580082954138,2.1826452962847847,2.5474200100812476,2.356075512188967
39,-2.570397159354002,-4.098060069035139,-3.0321581275705567,-1.1940930664253033,-1.023864623690415,0.08398895540254114,-3.2555147628585424,-2.0549071881608207,-3.191667118285169,-3.2428651440795475,-3.8155116406854077,-1.0376889068489663,-2.317968357516922,-1.218874977193555
40,-1.7735711174391855,-2.3629100988566827,0.4876817819761292,-2.7157599983449603,-0.8667302041694245,-23.890174666566757,-1.8518118588018133,-1.040983022649137,-3.188632913253315,-0.6480243658791675,-3.106143609063725,-1.5593695923337345,-1.9304925736610143,-2.0148790812050916
41,2.6958730495658556,5.069144006468978,2.754878011617179,2.0666632525937643,0.6347125834535167,-17.839198788833407,3.3463385267063335,2.1070708780428116,3.8521247237178153,3.2966630668772012,4.113582920000638,1.337481410844731,2.449814676986329,1.4608665921023718
42,0.23138820425466414,0.252301346495381,-2.0386840949814546,1.93755890356603,0.24641412772459384,32.95992587398576,0.7653480539597532,0.48172491904710124,1.7002328655272225,-0.9654662114230541,0.6825832553041804,0.4285172797904237,0.7633361495154396,1.1500367074423592
43,-1.8136910830168635,-4.861424545137388,-1.4491445211544902,-2.4543683528375153,0.2951392086061877,19.73133342286963,-2.826984054430891,-1.8661475513798547,-3.665492203968832,-2.3978833433546383,-2.986282048149894,-0.8000047580695455,-1.8176337974136976,-1.1063183898273126
44,1.0466703310610177,1.9613740104022688,3.0643026599731296,-0.7844908777800099,0.06301056127911148,-37.32410132248407,0.21873879928826012,0.21665579866082146,-0.010138706673069509,2.4044570366853457,1.4421783159538912,0.680767964069819,0.5171780346203501,-0.13573870834187168
45,0.018475851505370643,3.327541483002638,-0.6282412317167135,2.0866160723605285,-1.59419331798985,-12.787298519209944,1.6991133181775029,1.2145414205599652,2.4239074132716816,0.5917352041548241,0.5444924265952917,-0.6337372926783554,0.27310210024254666,-0.011937048386945346
46,-1.4836708469104383,-3.482765977141281,-3.09902669534391,-0.3298603998961133,0.22184921068082056,33.49066445781472,-0.7883907852098136,-0.8141431686270788,-1.238601849789711,-3.0918781947362346,-2.418728197737315,-1.1452137081176115,-1.3019369637442915,-0.4918362991612897
47,2.201021256523318,-0.833366417994745,2.9160109163856545,-0.9410423363602247,2.881264006747621,4.957107445482967,-0.16234772334993003,-0.19462265661794362,-0.3472688915024007,1.6920113801846735,2.5371009315190194,2.578721369300371,1.9249052447556245,1.6767900049981197
48,0.7700278235270075,3.700439644054918,1.9829994871462768,0.9301365534007933,-1.1627320980475009,-23.53317982247503,0.698642049997405,1.0579621682269604,1.47898927204759,2.69160532213695,1.7842836437164313,0.5598288216499391,1.0847457430749472,0.30414068184543724
49,-4.124676127986765,-1.8425452005864087,-4.729383168030109,-0.6963827924886045,-3.7066514594225835,-1.3056797454694384,-1.402761331629852,-0.9716938672838416,-1.9387341660587347,-3.793785713080698,-5.26004982927304,-4.348023925597018,-4.160647707435579,-3.354240777618022
50,0.9772735439924758,-2.465935197976314,0.05364222889150218,-0.6751796166907007,2.5449704495961343,12.27768782462285,0.1023158715496387,-0.8142219619229024,-0.5100469345114133,-1.2634183666010916,0.3084812690984173,1.0456886330797333,0.2877922867295761,0.7937802794551981
51,5.071387895261478,3.8010328709085,5.4969855073407325,2.299165784767947,3.7325435315559576,2.668723261733004,2.545390205078036,1.9603411912413924,3.6314423997533667,5.079912345291716,6.700793071249258,5.246327803932261,5.681794597386133,4.418295170841809
52,-3.228417798228042,0.18611491131617408,-2.448099384603883,-0.4764043525666783,-3.9394775576262546,-4.050086806708971,-1.4076491113190448,0.1503623286408867,-1.3571440638994245,-0.7497791418637071,-3.12658285935252,-3.1914060548714334,-2.506816621378688,-2.4889236161026616
53,-4.663254342092969,-4.383625795065907,-4.968933691251858,-3.283719756248843,-2.8771841005256205,-6.696406640441563,-2.9141699221552217,-2.486640761078771,-4.092962953916139,-5.186514999559752,-6.3901903565752125,-4.872958710418723,-5.897096339822194,-4.429415809899847
54,5.2197484491986215,2.320945333388352,4.489279270984501,2.210151881739622,4.857259036510119,0.6408809442816841,2.7958087429536143,0.6803960161015568,3.381796517204101,2.689666066443018,5.64448866468607,5.134255469369914,4.883962160889518,4.1729161958332135
55,2.978818741572843,3.4443958908831243,3.3165484914719072,3.2408781374945623,1.3632592077909955,10.104688788331702,2.409752018681822,2.439469152823992,3.1499552760819762,4.153119674074998,4.503904578881755,3.2971003982686775,4.625866985548197,3.3398459810649133
56,-6.225804988935971,-4.149421113851074,-5.566084281036938,-3.9477577641747574,-4.936161339499382,-1.1093389884904006,-3.7805591709272743,-1.350140836585546,-4.684680079952425,-3.931289646641564,-6.956816546105255,-6.167119501569826,-6.595893072860324,-5.192180274930663
57,-0.5383968766553606,-1.4102273457668555,-1.078743339321633,-2.116745514938109,0.35254551800071404,-10.709405233520338,-1.2402602364920066,-1.9366584310453985,-1.2052248139323176,-2.3973191813135104,-1.7806180769818254,-1.0344302247928077,-2.1941321254348862,-1.5326629402270247
58,5.8217505167216075,4.669048572002128,5.385793622111324,5.061731973021521,4.085335479734382,2.9999193921846046,4.004357168747865,1.608909728353708,4.627612715480307,4.112160982516965,6.633707683432481,5.898423322028022,6.993524437083093,5.125939606277993
59,-1.8722099907424246,-0.8981064553086598,-1.0310164428338346,0.2562417271809396,-1.7452570737781277,8.316989432938515,-0.1567380080536748,1.2704125926976584,-0.9066850444435415,0.5452820512168887,-0.7913656536717626,-1.1565486079039888,-0.6651300716396304,-0.32538461719586415
60,-4.040304945478938,-3.7703010849657606,-4.074011852371907,-5.126555405692671,-2.5260589109649256,-3.982621802160908,-3.381859273592852,-1.4015326352828283,-3.108307723009846,-3.2518065530001277,-4.866402347299856,-4.398833824721836,-5.852356706189595,-3.9695765033676964
61,3.4757282123201736,2.6038361267263204,2.3827721778306636,1.7211573635316177,2.417478314455007,-4.351039736580678,1.2925878379933686,-0.7689055260793701,2.2698130756154473,0.8105969043495563,2.376557611166301,2.5684707624454246,3.071465336457714,1.5555423106070443
62,1.364785657502863,1.8880337258147672,2.1140140785640966,4.094153798620319,0.707684680905122,2.9910934571525165,2.121914904546319,0.8888911142069049,0.6243817755996851,1.716525648685605,2.347712164373052,2.1612547474883566,3.4624667755708134,2.140179830832719
63,-3.774872091315413,-3.1216942053758903,-2.647626984508509,-3.1658879932078654,-2.242520123121807,0.7421837205276876,-1.8183635734213917,0.6436346639264191,-2.2879857165431745,-1.325398708905674,-2.6057705205916455,-2.8080402068139927,-4.314632154046746,-1.7444837669846769
64,1.4424413589173855,0.1994778338583249,-0.15199494818100084,-2.3087065986536115,0.8680611573040833,-0.42336177618006227,-0.6207166582490188,-0.3625976114256805,1.9375547688214525,-0.04899513111630889,0.0490467057678305,0.10449216939560113,-0.5192895320035947,-0.29807278570004053
65,2.7176674856690712,2.3666189921336467,1.8864203257089784,3.653066611256208,1.3916028384491925,1.1670186031881562,1.6349575170455286,-0.8996001967692762,0.9442555378087738,0.997054466846188,1.6676382942351664,1.9219256063062924,4.10224179843829,0.9016594097154006
66,-3.6138933386592993,-1.7012629838215185,-1.2477528567329206,0.3497399302688044,-1.837217754649753,-2.4547395573587805,-0.7124040910415269,0.096529735344881,-3.6964424705754637,-1.257936376594533,-1.6412968776183972,-1.7551046483300838,-2.1422698122631965,-0.9371646389702638
67,-0.6899278734767006,-0.7424194207744752,-0.47949587126605814,-3.126974727564843,-0.23520930763685757,-1.149371907551321,-0.8780479358570308,1.3533532216754076,1.2148809394615065,-0.10825618736240745,-0.14967304430950018,-0.33613215524471973,-2.634823088498552,0.5777662723681533
68,4.645004397860866,2.1269921470647115,1.7946275872370376,1.220004126755465,2.092441110293804,4.400243999079206,1.6035786299088404,-0.2117920317021088,4.162580578455554,1.9388852847324003,2.188711185755906,2.4540836014401095,3.8585724111980237,1.2429508774212652
69,-1.661554177227148,-1.0712199202158326,-1.0620241155287697,1.8684255068750233,-0.8299769018215053,-0.07777406795235448,-0.1943255065404123,-1.7480277673901663,-3.366276650684625,-0.946245885793346,-1.2824111141453083,-1.3605969981547952,0.47899632021438093,-2.12561463809354
70,-4.444158267975582,-1.4494616315702167,-1.5342382741102139,-2.072678360483279,-1.7803913336457953,-4.848097767385549,-1.9685186587682244,0.626606586526519,-3.417132958529376,-2.0065533524723445,-1.9153988105035826,-2.2628213555105843,-4.356666682787366,-0.6966403326478878
71,3.695080294332301,2.42763907891327,2.3137223840666286,-0.31302367325870584,1.5418336631017389,1.4647125922805733,1.3342420833127293,1.9026019803461374,4.816259120082063,1.8531127737689126,2.203223015672382,2.6863640939598565,1.6978473127878517,3.278800149724854
72,3.303554606010875,0.055078043425469264,0.7652478255325481,2.1893336235070446,1.1901789383636945,4.047002044530586,1.8657531948265293,-1.1189599309475624,1.9950148748676302,1.6636928322384352,1.3076825001027628,1.5434819224423546,3.7865452314824664,-0.3240088996884182
73,-5.006379225301384,-2.9740874443822367,-3.086655627701718,-1.1687596674332907,-1.8459161607136756,-2.2582308318718742,-2.380978090831785,-1.812239769667709,-5.30476575551845,-2.4951679103283615,-2.5858123907350814,-3.457126274868922,-3.40004676689457,-3.8746404145848055
74,-1.7166200498841566,1.4796860250304622,0.13970170554502162,-1.766399575544012,-0.6003461523117111,-2.728372742625275,-1.4020417899409074,1.467408221879508,-0.5482589987744101,-1.1377816360512516,-0.8066554451576685,-0.7285097215063073,-2.5639209920126462,1.3811727575492865
75,5.523587006450371,2.7487842815609977,3.4460771828840855,2.401578797032816,1.8572340639140028,2.3107129346847417,3.254633036793269,1.6413328058007515,5.045499450617063,2.9352854372165975,2.7289506020245256,3.8052019132403854,4.449532451281948,4.060214947298375
76,0.1432777241110113,-2.6672434590285556,-0.9165678337204705,1.0334572049734725,0.1672412853495757,1.5955975461007623,0.6618880577556342,-1.5887895850983953,-0.5062428243443022,0.5384163623927553,0.5668106149762754,0.08360543886996412,1.1210903870240942,-2.2154319521104986
77,-5.436901849763866,-2.082285302216147,-3.6036551434878086,-3.3815765767051986,-1.749117481647173,-1.9785525612696486,-3.89692640704214,-1.611315143865506,-4.499946174686525,-3.2923010142853455,-3.009878832750245,-4.023731815413005,-4.943587732111303,-4.12193341891129
78,1.156860366506763,3.3028075735141087,1.5058226299714386,-0.11100535392900711,0.0949361244467156,-0.9530919363947417,0.2968423971479555,1.5906482866782523,1.1490822879367721,0.18017265806701302,-0.40909958500946725,0.40451743654058775,0.28972521850150385,2.8427653591209854
79,5.023201835005146,1.3718274852127839,3.750245052486317,4.140963317482687,1.6435184154652052,1.7606581200313887,4.221054392575889,1.8483472908666854,4.043751311038359,3.5933412912326377,3.6136133986437597,4.334081849922998,5.072950090104329,4.250443879092547
80,-2.151837112698551,-3.4841830194951062,-2.0202442487433467,-1.0004681017968502,-0.25165791064570214,0.6489094116739226,-1.3933538731403654,-1.7048428394371231,-1.6527673589191039,-1.1331143147152414,-0.01849437350337406,-0.956675778065601,-1.6347674020656282,-3.4607206436251907
81,-4.47397728534264,-0.8606872727757501,-3.9243787931038434,-4.616637020306423,-1.565363849842618,-1.937425774181866,-4.1182225964746895,-2.2818219000686026,-3.7398763224423126,-3.6998954501289587,-4.395707940887514,-4.717483685422832,-4.9290632435512745,-4.39343057121049
82,2.9369371506886237,3.46773581989409,2.613997194958516,2.3075511712434156,0.36055686235594414,-0.2954261281941821,2.4729915767407182,2.1390212796800934,2.3021098367383654,2.3519014419794173,0.9782561681003251,1.7962442720469871,2.975902745584753,4.235705938792632
83,3.818153528081649,0.5428398162852717,3.987069042627996,4.629471681601137,1.4736417201686878,2.415392411238479,3.521570392728479,2.655699221806971,3.3499128151484796,3.3611751961747958,4.9501345878858105,4.912246734757281,4.428171507214507,4.288596139814997
84,-3.5848884145055053,-3.4616060345695265,-3.3349591889023658,-3.684997886126568,-0.4222102007838965,-0.41392104401198887,-3.3082508264462165,-2.930951564982649,-3.1361686265476556,-3.6642670663254324,-2.4338838313991196,-2.9397973884948962,-4.2859361323338865,-5.116347794025518
85,-2.967603420215674,-0.23249036111311575,-3.7110285758613646,-3.9967460461765496,-1.3296918017960744,-2.82677891225343,-2.482644931725857,-2.649916308007242,-2.5548134706017542,-2.3722883240093076,-4.834594913466404,-4.578079715910829,-3.3985373078582466,-3.6518878402929658
86,4.04045127038835,3.4845032740029307,4.045880255329227,4.8278758846175345,0.39509254874794775,1.4907098698058086,3.667272668693754,3.88820489922851,3.8772039670051415,4.692675377452339,4.009785202526903,4.113229139020997,5.337767775614611,5.796209843755956
87,1.8445636688470892,-0.26097641104447994,2.930694788903526,2.7016880499413363,1.145155178538266,2.782572345186086,1.2027367920369265,2.0491024203891106,1.2284131754648207,0.7494525921578147,3.8258557165065823,3.531464857457928,1.7692218634723451,2.400102093089703
88,-4.118146020487261,-3.3678195484815356,-4.456782154600004,-5.348313577324506,-0.25012731562876367,-2.644147326120649,-3.4163525657160028,-4.648082726231526,-4.081453412660688,-4.9922204749130294,-5.1349025313156815,-4.848801967769499,-5.7522962290773885,-5.852056919000257
89,-0.5119998921282929,0.967991019969135,-1.6728039468813654,-0.9989542866305157,-0.9771059385412209,-2.1130098937316486,0.011379680833449743,-0.873155158325618,0.41133351716613065,1.1832028719584906,-2.0753440980068167,-1.9165854975654404,0.2669554308297574,-0.7709512485283879
90,3.603714570504477,2.8872541807136805,4.252254221737183,4.970412404057694,0.015020472936231086,3.4525013639154265,2.5971697218947054,4.83145390178053,3.4088137368217097,4.2688761855511315,5.296408381450097,4.716703431531917,5.187914169100801,4.978279670939968
91,-0.7694161403386838,-1.702544910768609,0.2020683931674278,-0.6288016420713547,0.8819853817857881,0.9658385016900957,-0.8511575176838385,-0.5953324439664958,-1.8602083931923303,-2.860625673972937,0.09398382421913505,0.21123221314131285,-2.230044129388016,-0.7318728692136894
92,-2.408123180116189,-1.9369132643556135,-3.2554073855312033,-3.70818905264462,0.22634749221323297,-3.59597719866981,-1.4330923225498766,-4.2205022970750345,-1.8480634744591444,-2.5678223142086622,-4.286765392001353,-3.572054632244327,-3.565614709765827,-3.1870807191340256
93,1.5997620439765696,2.143640051303556,1.044874984751391,1.657191746408738,-0.8680904333253681,0.2714426861653961,1.11934057617211,1.904643975368427,2.5547238536300063,3.685873023401994,1.4281648417987205,0.9484833469475592,3.50331958707781,1.5440926427191368
94,0.6943712436950664,0.6426504901302386,1.5564870435677411,1.9159887381123981,-0.37655734373792565,3.0220705287906604,0.25929106577427996,2.8793258134616697,-0.22567422023833802,0.3264038476018238,2.3377228793347093,1.6880006770537006,1.1982316558248431,0.8669753367261525
95,-1.603624972773964,-2.006940110185287,-1.6207290937669099,-1.7568038966825343,0.8813424888108133,-1.1654933582274185,-0.8000555249859717,-2.613596139967463,-2.1409524418787553,-3.2934346731632953,-1.8992167646001203,-1.0504640778802912,-3.5943414546903907,-1.2976894479802352
96,1.1001440509353047,0.6492671194972452,0.45642944863653173,-0.171267296099253,0.37763406736429617,-1.9680946964277055,0.590066615965993,-1.1586337777856675,2.1836366686615056,1.7537728208452588,-0.07857780558689828,0.30270919559729365,1.2603621403621714,1.3347584151628802
97,0.6334584133180878,1.2153886216487215,1.267788901618121,0.9568795341751255,-0.831454261987594,1.439793384376918,0.058645523435293404,2.4819231444930665,0.649630388980628,1.7416534268102541,1.092655550992514,-0.034622068269259225,2.3805012301255415,0.008074220059946796
98,-2.384789414715971,-1.506577144214412,-2.1979045857395385,-0.9594141344557924,-0.24081017906010024,0.8446492182091543,-0.8890547677158467,-0.42613208344295816,-3.3922652468973724,-2.973587970984778,-1.6815899309841242,-1.6467860759979258,-3.0395806896532878,-2.757584717486185
99,1.089869969890589,0.01972925015776943,-0.07228298891784042,0.3502662435348556,0.6393676997133989,-1.0889604831320092,0.8225519645366494,-1.5849598205358175,1.497990599760497,0.4680349244954116,0.7113261147042689,1.946880817026575,-0.213794274192379,1.8978816223359862
100,2.6510821723131373,1.6078057988675512,3.0996912108467334,1.1601148535069303,0.039224847587950584,-0.048015990356091685,0.5831659754325496,1.3963685512561375,3.4598908249057216,2.926934848343221,2.277170590368402,1.7920410199070549,3.556596776719717,2.9956370435759703
101,-2.99207759960733,-1.2542022883327066,-1.5125436121638869,-1.5700915091580472,-0.27826147315411176,0.36047922407678146,-1.5422422966772649,0.2951038531696267,-3.64430724473982,-2.570034662174524,-2.7917804041261967,-3.9486105372856293,-2.177369349298956,-3.73302630442342
102,-1.7219067877452752,-0.9097947390364951,-2.8612295540602752,-0.4983277232984209,0.12709128045694798,-0.2060540803234443,0.207257809544762,-1.5038109037810194,-2.3800652852125253,-1.6796544050323317,-1.4853744141493732,-0.6462115884952887,-2.665461932348696,-2.0703692332702133
103,4.342114329074902,1.98759938009478,2.8154024815699272,2.1586430926325644,-0.210279853217778,0.37497193433330034,1.875293186239714,0.8672217392244198,5.13599650783251,3.8408150922042203,4.260964834521709,5.219109405913799,3.957824950535837,4.8206358008866665
104,-0.11594391007899965,-0.2978205316231248,1.617750038064739,-0.6096300804792236,-0.17295079121192133,-0.04545693576804692,-1.236942850570268,0.828355029905828,0.5254961302490836,-0.25177193525912733,-0.3409484770946355,-1.3542130378910204,0.7358465831581452,0.42857912869291936
105,-4.559564618759645,-1.8877484505433324,-3.2263952284995723,-1.8531694351791534,0.7266351768832611,-0.7959849496949609,-1.736389261266589,-1.4483584820000897,-5.555487292586046,-3.8963578925375875,-4.445701443823948,-5.207048124886782,-4.515690384549024,-4.768951062609296
106,2.1855208888039375,1.4891397359849188,0.07598403488823473,1.5840854896999252,0.05902994329744296,0.55777217943387,2.2186511696105997,0.263707054066531,1.494234746892043,2.11788412309468,2.3929592999264035,3.4107832772178703,1.4814477860354456,1.2382722353324163
107,3.4895446415621354,0.9604793920137474,2.4850025970448133,0.7790263603186742,-1.139622655324346,0.7657911538070887,1.1976837618525418,1.2467276707955206,4.862677289178709,2.84527454065349,3.2052554760557306,3.878664660710949,3.711512068376592,3.629233360249531
108,-3.6896242032993527,-2.1194877862376833,-1.467296687394239,-1.9353993206916231,0.19323712427528245,-1.010180607334516,-2.9139364543869983,-1.281348347850729,-3.056454101894228,-3.2545124294368977,-3.7497046852230596,-4.700846814219121,-3.1533384667912947,-2.277831015791033
109,-1.501389929862533,0.4214360901499189,-0.8282892745982439,0.6122046288260997,1.3178511633917491,-0.3747728627691821,-0.4583652409232327,-0.3886999943082912,-3.4009292949776766,-1.2282619584297196,-1.0233245350640292,-1.7413786035053749,-1.9358060276089328,-1.8677684459735553
110,4.060199100472119,1.8728355897158957,1.9437239524741834,1.473910312937618,-0.499171904546111,1.1602984003667998,3.206517835716196,1.8189606906181564,3.7543440800338885,3.3594567548920895,3.7990740661936613,4.735771679802922,3.705225928992188,2.341409553246515
111,-0.6539275381586703,-1.6578459254503852,-1.093861445336666,-1.7445943882016959,-1.1624844374627477,-0.12151780230854094,-0.22617391900658623,-0.7357725666213256,1.7627819224962828,-0.22741845957677642,-1.1913713655733775,-0.3756289477318912,-0.05736728340822255,0.16416782843004804
112,-3.2178835641437176,-0.8243042151799852,-1.3229186165695153,-0.38469443727876673,0.7184849082800682,-0.9514756819958794,-3.135349703761757,-1.7241648849205473,-3.5490216481619306,-2.604616230228646,-2.5323366242310903,-3.5725256848762266,-3.055871678122061,-1.5150594676229991
113,2.1725956295923945,2.1798174145524913,2.512731652909535,2.170161077028639,0.6431372161430439,0.43564354379230913,0.6369482659568892,1.6492958034678813,-0.5560691871612324,0.9267701597988266,2.5173749805678236,1.6872874659431065,1.4761394142915876,0.8762732248929446
114,1.6070015210033914,-0.568137742372501,-0.060650233036923476,-0.8651679471642115,-0.6793015577965904,0.5275291307896113,2.8718819383651963,1.1498879952910774,2.7784507327457133,1.535615678043803,0.5565219288289216,1.776571344195442,1.6366519883315005,0.2613707719912729
115,-2.558327644254424,-1.715558803777099,-2.9032707723983973,-1.7592016184952912,0.16807703873573887,-0.3900368212335876,-0.6743708744173981,-1.9984883907647362,0.15539344553765091,-0.6561131990452682,-2.4507919079441454,-1.795850717427163,-1.8341468472145066,-0.9712782705812724
116,0.019612243392435315,1.6548366770416505,1.5270846335128012,1.7437187403058776,0.2273735774747897,-0.15092817897646282,-2.643662798368579,-0.4655756982628622,-2.004344025668762,-0.8081214734110894,1.193932806273471,-0.15196142739767976,-0.1790176916056136,0.8006128101140058
117,1.8358717021857387,0.43604613552613763,2.2277008132551126,0.7434862277419276,-1.0834801792360558,0.0011128435792262703,0.39496000995699665,1.7050365068516609,-0.5466370941086355,-0.34716228246805925,1.1384738964886776,0.8500468562312654,1.1517463280239266,0.2629172361650875
118,-0.9627993014060049,-1.8920951497218808,-2.396350978802078,-1.8946523876182821,0.7041419228586338,0.06494006919197824,2.6317993097506043,0.06634322752213047,1.7510236962707424,0.8847374890145059,-1.9085555096447113,-0.6324541677588734,-0.6345346927051659,-1.1778332144147887
119,-0.509695693683142,1.1017821850579643,-0.9307868585385802,0.4041905355290374,1.8317238217671201,0.5337137347745848,0.020520573579109986,-0.983256814110136,1.3462649184765008,1.5294151175350683,0.7060786858330074,0.5534430646227533,0.0837736384841217,0.7718411486899622
120,0.904239425209949,1.1087551684104389,2.325819538065351,1.2896691546438797,-2.0319604837583283,-0.367461570564108,-2.888827995559306,-0.17218078226869557,-2.2542126009009,-1.8323483033189318,1.2893264443726666,0.341143215104138,0.4879943804993668,0.7196141075034082
121,-0.7090063468608304,-2.202809130698884,-0.30843039392603433,-1.192409187229715,-2.1415891005698353,-0.9387925518650229,-0.3568543405428109,0.2135136364728314,-1.9984442390342996,-2.2898128332677996,-2.1617694907638976,-1.6738840813200382,-1.1802976868443324,-1.5575479843531117
122,-0.033350968317412515,0.39394047281522043,-1.4622336830025207,-0.22578304784800118,3.507155044446002,0.9592965273728595,3.3194395420925753,0.7209256156833167,3.34811805554775,3.3086235837908013,0.3186113884160913,0.7468155734361561,0.43949596072941427,0.3305181094713857
123,1.2629433232943137,2.3616140590392964,0.9311044522547273,1.3275820483675762,1.8520058455091566,1.000679790482899,0.4684507721613051,0.26366246066557875,2.057530336177683,2.253539976095463,2.5504030609326507,1.9833725578004997,1.5922361137684204,1.690867813437552
124,-1.0852724182637883,-1.9707093896705914,0.3344879369722505,-0.8221916187921999,-4.772880813580554,-1.5925383696580033,-3.7356431310850784,-1.4132624798891162,-4.5558188493915255,-4.734059570064175,-2.114918293465851,-2.0055759860179028,-1.5961563155676366,-1.4682674926165231
125,-1.0093228365766964,-1.508206926505137,-0.7687512464713403,-0.8265152502907176,-0.996761596779759,-0.6746123479476117,-0.3433582975890697,-0.32169770245311924,-1.4092406896401615,-1.423823570184669,-1.7512847713459638,-1.4010412265577787,-1.1806044721574716,-1.1166779245970602
126,1.8256578711786293,2.9346276619134897,0.4441319357212207,1.41671111333661,5.4842934855408245,1.9935174636863933,3.9570584640396373,1.8848454076657777,5.338972894345885,5.559588366265629,3.2479501554094536,2.7877439765484264,2.3622964857497455,2.1783976467136332
127,0.2500815330968897,0.04172639238911862,0.09230882826332538,-0.01651852465228519,-0.18551961550246981,0.10259771819982803,0.0936981682789472,0.09439303827705767,0.311058130506971,0.15134366501725532,0.22702456546889535,0.293967265420761,0.24958468354866392,0.12815319016417828
