,AF3,F7,F3,FC5,T7,P7,O1,O2,P8,T8,FC6,F4,F8,AF4
0,0.08775652443735646,-0.014603294274956522,0.08365775042893128,0.036101842932997154,0.020162258443812663,0.03815890301630969,0.1275893976721221,0.08752546448428174,0.09383621035685175,0.02892326129569258,0.0331266475554585,0.04237416231070576,-0.08405930947948737,0.08912362464039858
1,-3.4519674053500147,-0.35303578260698226,-0.3240595189600021,-1.3821526561464772,1.6031032238585792,0.776438292924358,-2.8941670423542765,-1.3683852122878875,-0.6517559271495907,-2.961174596943369,-4.5251379400342255,-2.2955684180984184,-1.406331215588165,-7.028197444929926
2,-0.1709499979278264,-0.7442833661946832,-0.7210172008474232,-0.6324854114875895,-1.180098246692015,-1.4736126904354556,-1.3971216183669117,-1.6364114011103903,-1.3910991490912405,-1.6209289183921498,-0.4889363128490827,-0.7878996726763655,-1.9955746825914145,0.4715477929728931
3,3.8101227524977856,0.8860883325552121,0.951674041930777,1.8207353153421335,-0.9009773093612189,-0.16356148722518685,3.712861386161609,2.127259658157728,1.1401038338878269,3.780973666318126,4.712648474765438,2.648285058700276,2.4653712355229414,6.940392325354268
4,-0.08754415838471712,1.1040920836058885,0.8323744193540928,0.9050974998836545,1.9283840688568568,2.4775536464497203,2.048483727996509,2.6145166164036793,2.293296550495092,2.6546183952615134,0.811186247775383,1.2417703694846687,3.393664754600628,-0.9638239784782265
5,-4.304281470491063,-1.728742480469745,-1.8706808716605778,-2.4849070178331782,-0.2865189506259661,-0.841405706049288,-4.9216129018065375,-3.281143114003849,-1.9315569921197735,-5.148349040575595,-5.061120821570608,-3.233684952680767,-4.234444923970995,-6.754208765502399
6,0.8437027170299053,-0.8417572103349321,-0.1590093127525396,-0.7056416496131886,-1.9947393434273015,-2.78477758435719,-1.7867736026466037,-2.7080936751435756,-2.548104060485395,-2.7381525936647426,-0.8884159326152894,-1.20903983583689,-3.639142177429412,1.3096423210231185
7,4.578655165023877,2.458898497046026,2.527630809860485,3.048719761579132,1.5565112702359847,1.812721024153105,5.917902309177477,4.271091400120747,2.6417540860448043,6.499993523908819,5.441784811587982,3.790008438784843,6.00321025380373,6.515232540904019
8,-1.9889541161510174,0.027731130640266808,-1.153670260522109,0.12299390354571524,1.350221971535353,2.412113514821503,0.7369891838069882,1.982784177399835,2.158106254972874,1.8266189017763268,0.6836374206545935,0.6631366785767826,2.71915525056869,-1.4414732674705544
9,-4.357864255239658,-2.721348153797153,-2.4761685063172614,-3.2676401245011513,-2.5020666441318204,-2.363539554428172,-6.205580333839255,-4.603388321003819,-2.897745138048031,-7.242651178677055,-5.71465761618826,-4.053013670648173,-7.062670645835195,-6.313005409032206
10,3.217445212513707,1.0384931874389725,2.6410920471550896,0.5887869780466239,-0.19538458147564167,-1.620639867470666,0.6399857875387668,-0.8328896020963489,-1.3792213480982574,-0.24397151493060906,-0.2317343841199678,0.2596226863583034,-1.0744022786202148,1.3396051202181325
11,3.5804326887631044,2.376703413194057,1.5948280492550486,3.0946448688216126,2.8461643377322177,2.3029264805002794,5.623411541867768,4.062921381956614,2.503294416108864,6.976335224280124,5.766245901059419,3.8447773690015743,6.993058385826459,6.271044177009575
12,-4.188536927575504,-1.9918311762431216,-3.7591170585421425,-1.1689721076843225,-1.1306845390669413,0.7735611059472192,-1.7942996792249006,-0.2137241573783425,0.6070312481282515,-1.432301712270495,-0.38269611150330446,-1.3186846934885188,-0.5903751762935477,-1.0751199372266336
13,-2.408266278602924,-1.5218941325199753,-0.12791899568876666,-2.6702899583842807,-2.510493622994675,-1.685410974044984,-4.3912830239620275,-2.786681299584969,-1.5315296273925303,-5.651468338143468,-5.527513296484998,-3.122557587256717,-5.8258269559014675,-6.49624355514407
14,4.684522531484973,2.5598420013375773,4.14212804395751,1.4935006595512341,2.2700384292661964,-0.17233539800076583,2.360179269506977,0.7336790800284917,-0.1967106033196695,2.584635717073669,1.047658529866598,2.249557823118226,1.5944194247666923,0.8212169752544545
15,1.1271370952502215,0.401643876570104,-1.45298787882906,2.2036111613565463,1.61239548255489,0.7485053115789096,2.9612635049886866,1.1743550557392644,0.2982653564584766,3.6008314469469473,4.982364800386449,1.983080279741457,4.02425852317794,7.008792098501449
16,-4.684319739661876,-2.637729937806538,-3.750128072791281,-1.616365028688757,-2.9495982022846055,-0.04960808981843083,-2.3106421498410916,-0.5751087252177048,0.2979216202474954,-2.792990209963408,-1.642901393596937,-2.8387796611266385,-1.553093778943428,-0.8129279940322904
17,-0.009310380900998796,0.7127593709526492,2.6777383449832937,-1.8286501304775058,-0.4101761076789057,0.21060054491109736,-1.7659296289984456,0.3067110665453145,0.7761292662513574,-1.4270501088628138,-4.176043521714641,-0.6312797940231379,-2.2974737413896116,-7.690216941322438
18,4.33578520727095,2.2711392776504917,2.848822660470322,1.692474255049453,3.0468758347921754,-0.05821820678688164,1.921520358280089,-0.11557994370380797,-0.7835775451634944,2.0085412624830816,2.0655713435156744,2.9780528175054193,0.5347095616031513,1.2650138463862461
19,-0.7884478413258734,-1.6061332439347609,-3.275460855402926,1.532057283986371,-0.7788949713073806,-0.9519933359851906,1.0051870703559103,-1.3209511971510375,-1.3541711184663132,-0.22408024184975525,3.216003881148073,-0.675343140049777,1.316484424136063,8.278523216837321
20,-3.8644594507643673,-1.5946477632337497,-1.8570297496836066,-1.8445013297684267,-2.61213698890618,0.3215047304191436,-1.5800512922950758,1.0025196808090506,1.3079208301367722,-0.588076478885044,-2.2656463860790637,-2.6894993948483745,0.9567670489873149,-2.277372964628379
21,1.2566997857572357,2.1430116332463833,3.255583689912552,-1.1934220341762976,1.6698503102392166,1.3603965885179454,-0.5809775415568376,1.7776434936946364,1.3318510441139182,0.9250806216716935,-2.247199963254799,1.6962321294022895,-1.4328822294013956,-8.418805916688742
22,3.474048000087667,0.7808395965537441,1.1525257580875716,2.0696153137116715,1.8448978744161262,-0.5285694816607227,1.5534924913740398,-1.7376403072415376,-1.4677357280141936,-0.8425176925184482,2.273856025676616,2.115742155433729,-2.1777192671034866,3.7593747182194197
23,-1.503558152775512,-2.2617801364879444,-2.857464314601042,0.6990274547065543,-2.0931508758558683,-1.4573715540415875,0.20049680399685874,-1.8185799465534467,-0.8843566627955834,-0.6537663873014953,1.3961637711827806,-2.2768979992941554,2.509281264090498,7.76128157681187
24,-3.2768683000061003,-0.01719238438458823,-0.9271973227920727,-2.2461706138349933,-1.0244251399347706,0.5114325032236186,-1.8437181616398275,2.117246676290797,0.9939308794696772,1.6575288677414082,-2.192306222265733,-1.4709410925385717,2.4607789443860066,-5.398867477729852
25,1.6926822596580087,1.9784445000974795,2.4165357793720244,-0.04092069937342818,2.0449467462628,1.3739345192957437,0.42241058227408523,1.7026939557558873,0.38652073992614544,-0.1913018246077105,-0.7085371720963316,2.3955025991057,-3.946206331375885,-6.089301421914256
26,3.2656889357858,-0.5142188389310114,1.1385846680242842,2.2236419453169076,0.4070591944905676,-0.20615243222540824,2.196528414646948,-2.1501016328238705,0.1106678187357271,-1.5235282248391704,2.1333142742407785,0.960194055178828,-1.531658803320356,6.698452758527812
27,-1.9744691973445512,-1.4050390571527664,-2.216576956571612,-0.6672525959219363,-1.6774195344283334,-1.2953884328051073,-1.381538609977018,-1.651989514328208,-0.2403108706082839,0.9779723736762875,0.12710837221403642,-2.16139601261136,4.923443060063571,3.4480902641288558
28,-3.323292706704064,0.6852918846238341,-1.5539471727051897,-1.921466959706891,-0.12581313195283178,-0.3139673695166303,-2.248725409062109,2.015643179884234,-1.548779269717727,0.5708060018920503,-2.1322622370251114,-0.6950984250722079,-0.31873814199403006,-7.095830226753626
29,2.424330799829922,0.7464017710893212,2.380652636847218,1.2569401197553864,1.2198204059313693,1.3811682234665386,2.5022217906168485,1.733071503388174,0.6801986699924455,-1.1603772777012884,0.45550181127153294,1.7535238941256592,-4.7764020247401096,-0.22567020422396086
30,3.2651853591219155,-0.49254592788572166,1.8547744543955702,1.3671714239466284,0.14193814168438942,0.8486305490288777,1.7300401075196283,-1.9398694602130278,2.8382729815153795,0.6610080171930128,2.0962298220597857,0.6492925931654021,2.3134954676763004,6.1606661477022575
31,-2.999360960124513,-0.23579311110753376,-2.825076543248547,-1.592868033285237,-0.8580962376753422,-1.673143803766019,-3.4059198337814327,-1.8286630063937013,-1.6412265298308675,0.5762339986042456,-1.0867562761327212,-1.3197163587456755,3.342648970358293,-2.8750388851627755
32,-2.911147669566752,0.09761165464661713,-1.7660234361711633,-0.6614595185183636,-0.2841471911721169,-1.1449217062607302,-0.6197458374893697,2.051353862260152,-3.5173077128538894,-1.500450859816264,-1.8448379519257778,-0.6891947908280627,-3.5184865910489256,-3.813309208073482
33,3.5308081293950835,0.016698685927312707,3.28433213696248,1.6175511386098802,0.6359055482261925,2.034898535404621,3.678881518849384,1.712633737219409,2.7576267068203895,0.44590204537041356,1.6605006202316164,0.8927333914750594,-1.097399931349473,5.01303424323408
34,2.1709091984712687,0.2206776569458943,1.1759389966180975,-0.08432264489773718,0.365740422880393,1.0296756408949357,-0.8119911938088308,-2.28990293972279,3.361053194723861,1.5149215806182648,1.241703119528935,0.6740387251175549,3.285963489663013,0.46478676526885787
35,-3.769505992956539,-0.03864811097156609,-3.4067747548186933,-1.3351452926195173,-0.4418373879747089,-2.178842355915081,-3.066939073628172,-1.193317620699239,-3.509860832698544,-1.2511642493027033,-1.9243319847883742,-0.3833977478290655,-1.0195396388480518,-5.5091328170881
36,-1.111847293334993,-0.2086144523223582,-0.20698792081519543,0.781947384999032,-0.3161977408863419,-0.5427066640431882,2.0934254474028497,2.418667213143266,-2.5066112560290876,-0.7734672596020302,-0.3388631772881932,-0.566885027752341,-1.5960812017231825,3.0252951584754024
37,3.482360154350983,0.05264847346178268,2.902517653361088,0.7712133841903697,0.10282556471580852,1.8041519080110868,1.6134928397178343,0.25243569695590934,3.4667781637247366,1.2271944635837275,1.613592358958307,-0.3330016595560514,2.0276105786807515,4.158045838392343
38,-0.030058087291923583,-0.19606224815690917,-0.8018267787943164,-1.3532533600539522,0.24115585703236947,-0.018808858239367385,-2.734088274817215,-2.1408090944391946,1.4117434977581835,-0.15985693714471896,-0.5753543669270181,0.4774648208598856,-0.8903115239520231,-5.609869104350259
39,-2.5665246664509915,0.2595285004064229,-1.692942748065773,0.04159736811288963,0.4670347410338575,-0.7934314095980062,0.3180572784099854,0.8979278640712268,-2.509757511987932,-0.18042935237116936,-0.6418636920922496,1.2904931286331034,-1.3787365454727776,-1.394229132441267
40,0.9164370879206352,0.7835374763028841,1.41556961581183,1.7010960548067808,-0.35960132658960353,0.20644282659359872,2.4294024675126353,1.2651304196947384,-0.6497758572519188,0.5209365517574676,1.0843236320631238,-0.597080055034188,3.1134132201419753,6.455492582243365
41,1.1270925502689932,-1.0786576658115534,-0.010113285187827167,-1.0349586767032846,-1.1612458851202685,-0.6473845419463763,-2.1539476028938043,-1.8803853700528823,0.9180005060781157,-1.5012449060337953,-0.7802881561768317,-2.358914679770164,-0.7631130843668195,-1.8069200751574157
42,-1.232108238360716,-1.1504915424033717,-1.2905017066497697,-1.711597589933358,0.8465029155246138,0.34884648854879186,-1.204320239264092,0.16709930023668548,0.633427874329668,0.22213336599986538,-0.8603388373612418,1.0648139352160992,-4.098280165562923,-5.304579257041342
43,0.5262696297583561,2.285802122871845,1.7497028196609212,2.0631497616148278,1.701616867651923,2.014861655506594,3.317662631521376,2.3144164793927757,0.7431624750427827,3.0111004205485843,2.1932743929246508,3.2835574066028976,3.5840700488656587,4.2851584952210375
44,0.8175265493093069,0.916712819736848,0.34538509457629946,1.3074326189551717,-1.6808223231229518,-1.700962415911109,-0.5700306006117819,-1.8668082214353419,-1.4099626165541035,-2.043678290016382,-0.13951147541463882,-1.860489643626242,3.39669270176642,2.6097227892327677
45,-1.9705267621344689,-3.45643270508843,-2.99021557213951,-2.898723068148162,-1.787593040217439,-2.720105452286633,-3.4563314471530644,-1.9942116507495484,-1.883192040476741,-3.5359114597501455,-3.0906605560050533,-3.8142408231048632,-5.990735373776952,-5.156466738803615
46,0.2519363659009384,0.03399460387984634,1.1708893177569328,-0.5246550908489531,2.607088711540444,3.4958315917497904,2.306507230827857,3.407618542712019,2.6403003855107903,4.336646644182376,1.624342944621081,2.8020939906393965,-1.2667556447845745,0.6447002518900428
47,2.8125189514258744,4.038573630043299,3.3366551098403234,3.2946536055433295,1.286216720583798,2.3875731320631464,2.588021987188019,0.9882116358379869,2.1615079800143526,2.689965526211819,3.1599691604593048,3.832494739425074,7.093737357304766,4.15639962982569
48,-1.6753164853891722,-1.4310040576351233,-2.7582851454988058,-0.443898741495363,-3.249973680376409,-5.100399565164126,-3.4342981488054996,-4.406985083621537,-3.775233463219712,-6.213522112939465,-3.10028362479665,-3.6452186823314174,-1.4846776679985871,-3.35318463914702
49,-2.8263250168711758,-3.6335681855389725,-2.7063761025312427,-3.0944660379969178,-0.3391058405925919,-1.0711711638072399,-1.0967815011936415,0.3920498689564062,-1.6301149869357754,-0.7227139261484834,-2.4226639163228136,-3.3914491936435978,-6.561399235344161,-1.7000060389918825
50,3.019318236139237,2.6972427061893542,3.862982247199538,1.2847790781227633,3.3200721348080284,5.900873250459566,3.6348651288044516,4.683756573680027,4.3305005780313826,6.963280481295231,4.102336356857436,4.207067395322074,3.8924621873266796,4.727232910958041
51,2.0335806776632013,2.230138952384404,1.3715066015146977,2.3309887385477124,-0.6895741897630147,-0.7475374371584216,-0.4328227431803323,-1.7343715617984916,0.6720385156919702,-1.6177927386408555,1.2009565292888102,2.6546713121742553,4.686939495169117,-1.3546852949010648
52,-3.85860879463364,-3.206129192846758,-4.106398974290291,-1.6802096631553882,-2.7858411406312062,-5.607752604580608,-2.97114566398766,-4.313248001445074,-4.1084053151210025,-6.403430597967762,-4.394699716593673,-4.429392995365077,-5.243643659159914,-4.550884905843094
53,-0.7010926888004595,-0.25822550561482827,0.1514073579130304,-1.248685809688778,1.4009296271955218,2.3894615050815338,1.472761739957415,2.701466054224582,0.21851983337016911,3.4815188498889924,0.05623618014352991,-1.7939266224763912,-2.173867058140901,4.099281695088765
54,3.9140610077936935,2.5872999264267107,3.4418607743141743,1.4524828192317838,1.9043174956417512,4.392727200736705,1.8429881847179286,3.560280110722787,3.250824628248674,4.9322820814702215,4.0381982645887335,4.353290420342579,5.311537901981955,3.1555971400836196
55,-0.7412678323669711,-1.5774710763543058,-1.3177191759824691,0.22125979688020075,-1.576968562345337,-3.309165428260189,-1.7808496332865864,-3.1502448400015166,-0.68131382715526,-4.340371462903184,-0.9828844368042585,0.9227744912957787,-0.21653091397594929,-5.919738357064142
56,-3.144873244264806,-0.9217226859091001,-2.1659944318856343,-0.6583486827018661,-1.0879974907324645,-2.7804132583637537,-0.7838826308872037,-2.736716941205062,-2.1127236906182523,-3.2686205520188163,-3.3080859842534305,-4.048029287885793,-4.3341715772930325,-1.170740038409471
57,1.8364389634825709,2.6056503158059914,1.7791284556107645,0.4036202299760936,1.298461580218391,3.339227110769451,1.4884030729436915,3.1442355430675533,0.6240258357253928,4.202213732979896,1.4309196336230559,-0.09888909514823085,1.9666405169067813,6.642131166046201
58,1.7650662984517285,-1.276609220908033,0.7787141019763614,-0.4244321943307897,0.6817143825793722,1.3642695181333722,0.19638020898153777,2.0639515805151323,1.0502949976968114,2.0479844932347513,2.526945319702844,3.5598945448435693,2.7979753746332547,-0.7896327875063142
59,-2.2480148429007825,-2.4838466626343516,-1.511979736100315,-0.4535988039042317,-0.8960518679522043,-2.716454618626146,-0.9980704638304787,-2.8701719677453936,-0.1878091361335859,-3.514748671302561,-1.4753815434457997,-0.6316372713331861,-2.923000189544841,-6.4540402145182405
60,-0.17575714819891824,3.282672723501019,0.2409961876628379,1.4172418793107042,-0.7747824728360886,-0.5159837776788387,-0.16231180494858183,-1.6071103326097056,-0.25812821819665704,-1.5148806978002896,-1.912653682152323,-2.915567072876881,-1.1725358589363357,2.3400269599803156
61,1.8713150532810388,1.336101255058443,0.7913034112772014,-0.005020196873554719,0.7602417874890193,1.8935218914560834,0.742745396213633,2.517293332024121,-0.4043968190746181,2.8464017463114897,1.3113341505406921,1.2015939330855354,3.221751001393602,5.696169006354489
62,-1.1689616590913772,-4.472101708954044,-0.6339873288012582,-2.003969389390371,1.1541321532462847,0.24949446805784462,0.43113178478554154,1.300467507206078,-0.2574117564301531,1.4728511223478096,1.517950997743687,2.1626874298393397,-0.26369534768679237,-3.3591612018027868
63,-0.8662425331942137,0.3257638428930164,-0.03127252390532675,0.7201910324497681,-1.1152435989194691,-1.263379442667177,-0.9368441730651709,-2.1878722936159742,0.9986199674683113,-2.5518074700555413,-1.1207791069137036,-1.5358168337592277,-3.107621121520486,-4.668388499772765
64,1.9186225653093778,4.569945337394935,0.44037191024343686,2.0503685567044174,-1.4264393940508,-0.29692657631910263,-0.5939962192279773,-1.0327116661193052,0.5817767311113811,-1.487624390086929,-1.2738364798884865,-1.400380670489007,1.4454430276958008,3.8859314839111425
65,-0.4046692981110191,-1.8445427235850382,-0.4191712130956109,-1.385009437528145,1.8834258650929039,0.9605725299021433,1.4609526138615838,1.8798718650943789,-1.5589569247165798,2.6154993886985176,0.9928219026892207,1.6013864041852564,2.770864729107904,3.553369134734013
66,-1.9479159178464447,-3.7272710978414434,0.06759080999525692,-1.6241599292208406,1.242897105399474,0.3266492367207269,0.34337466915772175,0.7336463941754197,-0.7690826874514395,1.1913168140784136,1.0836578279346354,0.7626246155821322,-2.4258734043093146,-3.988116543692313
67,1.5134716802106551,2.6969308288051597,0.4200201602404315,1.7679354864611176,-2.718340560268507,-0.8404980376907176,-1.945574103697032,-1.5364777835911978,2.101557883008318,-2.7393196376850257,-0.9317869375552222,-1.452903690991253,-2.285316999999846,-2.4624019334022735
68,1.3947143969990254,2.410309152229512,-0.5474952457329039,0.9243732093157322,-0.5007156821583434,-0.16199881142410993,0.3339504359526621,-0.4124450241800997,0.795137122195087,-0.49497300099164543,-0.8909853964525392,-0.3555368827342712,3.2572823550111054,3.7078563357573833
69,-2.1278632046718386,-2.6811892538914655,-0.06109698310120053,-1.7776020980440363,3.189325411810426,0.6248344580954688,2.001613990551788,1.1194049575763936,-2.59172886645731,2.5853758258311133,0.9196753316260081,1.2296191427855434,1.6487639308182824,1.5195081801968078
70,-0.5975580765276861,-1.1757087487580515,0.7494352680370387,-0.17734264650375206,-0.5930631734486882,-0.12320005504958773,-1.1417990727573142,0.13354590915982442,-0.616310291620998,-0.40350953854018384,0.6786101880861919,0.18822286219645112,-3.9282356658957505,-3.107913175413809
71,2.1333549959178013,1.945953634203945,-0.4284877408453133,1.449553798910585,-3.012671985065035,-0.11015891118348813,-1.4593056740718013,-0.6544213301808297,2.9073370623816026,-2.0033564338717307,-0.9626568285939244,-1.09216587110711,-0.8627746992298385,-0.8822597536725159
72,-0.04366779433075113,0.4449564136551308,-0.6002760225067997,-0.4403208258454727,1.6301291518481769,0.2724088830858548,1.640602309889294,0.04336080451369835,0.26960315120246364,1.1897207315325797,-0.421092426363715,-0.14939525539586881,4.37825546869941,2.3509018005013234
73,-1.6692618425629278,-0.8754779039984859,0.8141726077649009,-0.8901392287665236,2.1974731853061176,-0.6863343836894683,0.4778455866800033,0.22184710693208304,-2.909370326852664,1.102876622146984,1.0756720395657877,1.1304487677962662,-0.017502162348652265,0.6622932257224559
74,0.2290145828550192,-0.3706334733471755,0.18691921048699006,0.8272616504962055,-2.215036217136094,-0.0224528507317634,-1.4928485947240173,-0.11268636768037112,0.08865428799856612,-1.6477133034496594,0.05538128395764164,0.057591676344866935,-4.552732540805664,-1.7096107933279001
75,1.0659988954181956,-0.0944229279907824,-0.9559297759516183,0.22419366401899704,-1.0274116778553255,1.5224698221801178,0.5302455259631884,0.0954905479552196,2.5621303654334757,-0.1471043157910804,-1.2242799119304242,-1.3011490158792542,0.8900089850750459,-0.8052685709899211
76,0.12067937895457842,0.8293642840534478,0.3259726155161356,-0.9469489306551054,2.1584823314716,-0.7222011585117497,0.6482383185044578,0.12666175077553216,-0.25669050833687485,1.7746682312761382,0.48406137770838287,0.23563222327924016,4.445299503893314,1.458764385554085
77,-0.7090640859003734,0.6427770858246591,0.8333493837557554,0.43020793887667663,-0.10029706161557958,-2.0610520609041747,-1.1093585054902064,-0.2660648009236905,-1.9945714027366264,-0.6380079457612536,1.2916503553923802,1.4412206486980967,-1.646510390031998,1.0420063976285707
78,-0.8287757227952712,-1.5169551977099944,-0.7828635363321382,0.8113609189311002,-1.5431628929237022,1.817716992126415,0.6276125744697956,-0.15266207074296742,0.12585177155232433,-1.733399133917223,-1.1842781399823008,-0.7503002324376449,-4.103212634257981,-1.6997484011886423
79,0.8808225932983701,-0.6531798914357942,-0.5066047238303332,-0.9675687735848966,0.8755295624303405,2.0515961257014825,0.9865991889519546,0.3252703387009234,1.4359972905381957,1.1998458355701125,-1.1252243300493587,-1.3568681823493791,2.2094835258668257,-0.9850739985650765
80,1.5274236643079533,2.087328229490539,1.08357698693759,-0.47510993840105153,0.6393097572907793,-2.9475998489004036,-1.8862057484991805,0.21670319174395153,0.22776851091826095,1.6962287248736876,1.901355461960242,1.3521973251083126,3.608189308247974,2.241669583603859
81,-1.6379529593979438,0.2130549453924528,0.05755201108095709,1.3019580040544112,-1.199023143200669,-1.4563266466174136,-0.19553016322313152,-0.3404750397162415,-1.0615760428124457,-1.6527301564416461,0.6483040257757412,0.9373888385582467,-2.547328595348072,0.3415618923120743
82,-1.8012261775578264,-2.2756211321948987,-1.181991042428358,0.033972497644344055,0.26258122582058574,3.780559804506415,2.711483664387312,-0.2764230230751035,-0.5831158394303146,-1.7030682791827259,-2.403941490217516,-1.8165764764200447,-3.0562146770092444,-2.645311217895467
83,2.7717639580627162,0.4532682303206188,0.4468486714301371,-1.3858061852429961,1.1714742366611424,0.4522329313265124,-0.9579131762688424,0.3487103483874184,0.8625233484864135,2.1469874360711296,0.04654005902812846,-0.22589755105440906,2.676390345532495,0.8825973292660735
84,1.361014081627426,1.9683781446315427,1.0625151287244656,0.38832585532880964,-0.9943708812145413,-4.120045622233486,-2.9014139851440612,0.24856950692925023,0.7307154781518271,1.6373871193060043,2.508077759095301,1.9456650408278542,2.5431460678302256,2.4368983294996096
85,-3.8739567545188427,-1.0766259348364615,-0.9556163164218088,1.232093995682018,-0.9768856922120511,0.6793080937925043,2.0573554507281786,-0.311600129299757,-0.6461768731551859,-2.7179782536865154,-0.7104827364109018,-0.5939295627578297,-2.66289506165,-2.3277017356607286
86,-0.18239082545615906,-1.214315935437331,-0.7261214457410854,-0.6731178923888765,1.5503160477686087,3.958438586832145,2.5263357017989483,-0.07943715350237364,-0.6374503989061844,-1.3344425965486184,-2.21667995147783,-1.6735154842373254,-2.14476101108799,-1.3818737487936485
87,4.494171157033991,1.4248102042780901,1.417035387376658,-0.9209143411903173,0.7474037159447392,-1.6949978202400753,-2.7711075559369225,0.1253542921601087,0.17740255929961815,3.229352766519216,1.0741403819050361,1.2851591877270427,2.6206442521429176,3.4347522930165155
88,-1.45285500777622,0.19226970567778393,0.19897449147917878,0.7503821672721381,-2.0190842090420733,-3.418093643537443,-1.8477594176857177,-0.1864302606489056,0.4968103683709858,0.7402596207315802,1.7553885538214433,1.1036750307209142,1.8837651953635017,-0.34571053383941813
89,-4.334858770914677,-1.3575753498663286,-1.772393919951293,0.5770003597125113,-0.49507458874240834,2.4723382737327646,2.976417474660385,0.3100632029746753,0.6334711419022492,-3.4544147429730745,-1.025254174844386,-1.6693325941609327,-2.68533875989827,-3.7388483801349794
90,3.044118140566713,0.8409803480527954,0.44935958116559305,-0.6313471111486076,2.4686151060367436,2.6380047744013537,1.1590178878194208,0.3910360076261323,-0.6206706544509792,-0.0035754445831864953,-1.4610074223346352,-0.46639898793544626,-1.6996185418393093,2.2136412863541324
91,3.4008515661708745,0.8562677011523641,1.973981057136297,-0.32167481430122025,0.14291184720417036,-2.9927632040802785,-2.758976388280807,-1.0006587123576494,-1.6284201532931448,3.240267222709275,0.7045010276622109,1.7065264390410473,2.956020159586281,3.1350323496138195
92,-4.066213179721168,-1.6097573846870743,-1.1030731373576872,0.40990107306980833,-2.8658777175737495,-1.6934305773518095,-0.6449430998862732,-0.32436232119783803,1.2420046584943722,-0.5698179045425805,1.5844982333758943,0.02344565853340305,1.454586399856237,-3.588864440485181
93,-2.0270120908726037,-0.03433201139316383,-2.016210796402951,0.2190243561639911,0.37845184635057916,3.259764854861755,2.310769051632451,1.8069950647122026,2.458179520096864,-2.6414489914102237,-0.44543161488274646,-1.5117651024350145,-3.4260633043969975,-1.9555808765870912
94,4.192867801517554,1.8840067114079182,1.626292430240253,-0.22660992078921696,3.0821032634864216,0.5992018053910837,0.33186100108987293,-0.1643292466311585,-2.3602408823501384,0.6756613455658352,-2.135596691344037,0.03271787791168017,-0.9972113151387784,4.060101676580798
95,0.7561793577439547,-0.8737727160319755,1.955010903743122,-0.24197156082254234,-1.0401807618031875,-3.2276704473696136,-1.8025786379400137,-2.4734501617528264,-2.7599788138864243,1.9319153585730118,0.5917342039707266,1.3105247708266954,3.9532044155307475,0.8074250457625161
96,-3.445891729357086,-1.5472077070914938,-1.9081365681727689,0.20740461846929265,-2.9746008318156707,0.6205474821831086,-0.13449705412647475,1.0693081912485458,3.7272742577960134,-0.18331718812843878,2.8694004882879813,0.35371615024616054,0.2633313484591733,-3.641027506460199
97,-0.11269687565589351,1.5568911285289617,-1.8987936268453027,0.27676561178228026,1.6922343202998569,2.7984626293283723,1.3060510795936981,2.730156997009062,2.3398463342346862,-1.4865472051834323,-1.3076572996678075,-1.3600706906253561,-4.309997689600336,-0.2627670967434796
98,2.1926606634129464,0.6511816715023094,1.901968979980542,-0.40217631848370106,2.487954880822406,-1.859596042211604,-0.04981879640238876,-2.2046281704400794,-4.972147875763732,-0.7821842978836699,-3.418477404670426,-1.0839811922309932,0.6462463642341646,2.7423743924146065
99,0.3744302452614461,-1.7102893177781482,1.9749215348552454,-0.1685051248289255,-2.122453607513112,-1.8876464980403709,-0.7948060511658285,-2.412912606581778,-1.2497508219235596,1.6047991393488663,2.495624819060539,1.8672142527735733,4.307776819110739,0.5793977222494948
100,-0.9863990238236076,0.5707854574933571,-1.6407572616812005,0.7511842921559144,-1.708866163636197,2.912865483772628,0.2633755149872735,3.268195924120873,5.773075811591314,1.8889776141271817,3.4811614608754913,1.9307497987817193,-1.477113634456976,-1.9407086302927412
101,-1.4526354870152436,1.1401515700407086,-2.2890697185992965,-0.2078517016927807,2.1605318492576906,0.5109701271674771,0.20288512425331195,1.5367004038094243,-0.26936483754914675,-2.3757893226206277,-3.85731612633153,-2.922446864668222,-3.9285502890952158,-1.5985851152980781
102,0.32384756008403304,-1.7531843132100837,1.2286024052102615,-1.0982498274375052,0.8412989440778788,-3.53225052972554,-0.4647501086608784,-3.9560499098254236,-5.9689481386664145,-2.739379936452838,-2.9524779693766754,-2.593823686566796,1.9415248632505822,1.683507501949282
103,2.9372104762741196,0.1503670992960594,2.891662196584812,0.8806929821004775,-1.7645533633487516,1.166892554388669,0.506013519215278,-0.2905962678759445,1.9183787524546625,3.6471422870523416,5.043435574110765,4.458910474408228,3.375125989725538,2.856504623313655
104,-0.43706579097148307,2.502848952886688,-0.8185628149776549,1.2509759144187382,-0.1180265359802005,3.5252088987269627,0.559321103393136,4.067286328060309,5.561399326513317,3.0220269982277985,1.9364274231721572,2.774631981941444,-1.8937655432605838,-2.088536975878701
105,-4.282100878606354,-1.9339053178083503,-3.7544301911823923,-1.7522973845010812,1.0413591615628015,-2.854017628333013,-1.2980669661860895,-1.0314830071518943,-3.450017993912151,-5.094023020321198,-5.795622673063995,-6.24214962575095,-2.985784040633556,-3.828821479757264
106,1.2159724074849751,-2.523625758376709,0.5815140884601461,-1.0650875568336116,-0.2998100803078807,-2.8437105147764985,-0.45649801803566625,-3.5581278888640853,-4.640646659940001,-2.6074890498271994,-0.6601914802061017,-2.26247770067567,1.4545460571809177,2.9248560403817216
107,5.037453708068274,3.806381810197694,4.756673107556869,2.6267828629286787,-0.19263795170730103,4.215180673976253,2.073145421369926,2.1225331032328327,4.69942231217638,6.336980880040984,6.009890013732451,7.901172262977359,3.041390112613947,4.173567951868866
108,-2.288715119410087,1.7171631545742252,-0.6620720864072326,0.5131978163716446,0.380590661522325,1.619551646830665,0.1203598936322709,2.540008492193249,3.3120997682822657,1.5662651813895392,-0.6372600695147063,1.0183763126585132,-0.9900979282817309,-3.7602662690209114
109,-5.018048869584341,-5.2942403229754325,-5.689378605621222,-3.287692238381834,-0.5793944973690506,-4.980064260456607,-2.704356215783362,-2.7402971916301033,-5.546918533530988,-7.052398378806049,-5.714821201221705,-9.010959711123293,-3.571318631427113,-3.8598955026969275
110,3.208332071895814,-0.2282413728259656,1.1220378819391874,0.29934630555560543,-0.21072009781202838,-0.1306423761796831,0.41013438424983684,-1.2411476197458595,-1.6815846486723536,-0.1287685681225391,1.7757461580920209,0.7733622137002126,0.9312843709918321,4.1852873951152585
111,4.33807371539496,5.989522597393451,6.2937082320470195,3.5885639555472872,1.1533683480558068,5.030139124980063,3.090003047827242,2.7578316259867877,5.875458425876445,7.046995468443414,5.010141479328878,9.220053623818737,4.285613417937426,3.140136696316577
112,-3.648298650892121,-1.5783456159589642,-1.8905905572748565,-1.1831164536829561,-0.07298618127070192,-1.2859687692509156,-1.0380140470146435,-0.04829464275691628,-0.10247341980695175,-1.3821220503042244,-2.6443895203945593,-2.722803709639884,-1.5220937040155444,-4.003793058151887
113,-3.3142249111606574,-5.678918532592108,-6.341529431493003,-3.509254692973059,-1.515683663793103,-4.431690692354203,-3.191971534037872,-2.1897973140803546,-5.582238842302412,-6.296305646665234,-4.019446533947901,-8.38681174873138,-4.699437387432089,-2.397193434447895
114,3.5167759740244446,3.209513550223666,2.7562325579294997,1.9527250812276413,0.3641425672319737,2.3388994419874787,1.6510314337603325,1.0395945766590835,1.8052803371568757,2.628672461622967,3.179310159748378,4.339897421238476,2.64767605779554,3.309073290841721
115,2.301138367242901,4.432302032947716,5.736772557694971,3.148405846520856,1.7254002095817556,3.406275967359613,3.043080553610801,1.1958966788234806,4.6527179959559355,4.95314303605871,2.8789227504610477,6.663915710567689,4.399279128077483,1.9480711141812108
116,-2.9501390582317644,-4.192302182331342,-3.427739807883939,-2.5057128945318565,-0.6342064785229339,-2.8667804685791127,-2.1672149217802863,-1.5154779947539518,-3.125442237244571,-3.3420476979028795,-3.3487942178346737,-5.203894332675988,-3.861049259879109,-2.4201668765308426
117,-1.5447405098853522,-2.6126163761240444,-4.586543383675614,-2.659106805433519,-1.8450807082010499,-2.2532158608529187,-2.722004841389463,-0.053149697350980615,-3.2438520194212503,-3.3204220346923448,-1.7446530009327619,-4.476898309835553,-3.3002843164301647,-1.8956550999310504
118,2.209733290833557,4.244269832505193,3.6555793650750967,2.8498480516806928,0.922569138477445,2.8751909307820607,2.559960506022589,1.3964714756039533,3.8003732012741747,3.4034368649360847,3.1644064879205005,5.130102761955072,4.613325126716524,1.7149026673660819
119,1.115804231733486,0.7785532318099785,3.188418221986761,2.1674461301047345,1.8831660609635483,1.253623467652211,2.311165125924458,-0.9114581725720996,1.6975821844048489,1.7769838906015414,0.7866045738310401,2.3862995820902775,1.7324353505238475,2.095494509028046
120,-1.548166752432606,-3.402743766245309,-3.3606736255350267,-3.0692165519490904,-1.2808672463063364,-2.517976974779082,-2.8517237028019324,-0.779434959515898,-3.7502082819278226,-2.8963482325074206,-2.7047694690898365,-4.255355049365266,-4.5631706853825404,-1.4426089699131566
121,-0.9363952317217583,0.5095973000289985,-1.917851969228278,-1.7209198270551662,-1.7838853112289144,-0.5886333980341981,-1.8614453020202597,1.4198836966849737,-0.43874576807327376,-0.6614285503258555,-0.1534418374036865,-0.883103243946042,-0.28772818297532937,-2.250731999842737
122,1.1141302446407342,2.042193197693329,2.696400164234497,3.256525529388871,1.7104401318398406,2.033705415388725,3.0837713976784085,-0.0784290894788405,3.1659874305701003,2.0959309378453423,2.1235779605641185,2.9954998532499797,3.782656900512891,1.6108549747736132
123,0.8642342041461679,-0.9139536688425403,1.0593231488664967,1.2909787012665341,1.4696745228492942,0.2965326763774206,1.3816608935725054,-1.342090132431803,-0.21245026464305808,0.14911685185589976,-0.08031527706770025,0.20535117859186172,-0.49480011983037353,2.0844698066956724
124,-0.9316976873907177,-0.7452607290080479,-1.9943383788035558,-3.455757310480591,-2.134919961458598,-1.6612190634275175,-3.282260744691706,0.8391399709373498,-2.462306581465717,-1.3791641571632458,-1.622176866886766,-1.8877088461296518,-2.731080126666495,-2.0049781778335825
125,-0.7779306248313262,0.469966466907235,-0.6680635159192952,-0.8177535018345181,-0.9071447891571854,-0.27837909864321236,-0.8540120059918015,0.7518236094662865,0.2130446799573026,-0.1772573004798002,-0.04347737291350877,-0.2556692693233419,0.42671090178454163,-1.4948064430696446
126,0.943408028886143,0.06447412748451051,1.6067042330449575,3.6458282657957266,2.426627970863735,1.561927923013901,3.439682153852256,-1.2054234543909672,2.091093050850212,1.078376433161852,1.3884950226259953,1.3825857456865305,2.0044474584313,2.3269721736478366
127,0.6183063893904311,0.4205899846657686,0.5438145834332757,0.26133347929970296,0.15235799839674752,0.3459583286058943,0.261627114795989,0.09333626977867898,0.15805599486826052,0.4634370518528521,0.36187225166996645,0.6527914696423174,0.22401530681024126,0.603883020364274
