,AF3,F7,F3,FC5,T7,P7,O1,O2,P8,T8,FC6,F4,F8,AF4
0,-0.019754732833163143,-0.021788049369215697,-0.03697917823954872,-0.029771176944139315,-0.03363244067108702,-0.025014022687431775,-0.046290008045797734,-0.11086875855225227,0.011330760884526343,-6.936265322021143e-05,0.10895210896465074,0.06807297862191564,-0.014267395560490954,0.0017275607478539293
1,2.078154683701891,-0.7226201177637922,-0.20363003927871776,0.34047498291454203,0.38061522151329424,3.2258609170953805,1.5581637597850355,1.1207906140309587,2.0308224456005797,-0.9565556661995006,0.8619112027715768,-0.42979120112736,-1.347574370491718,1.2810344514183933
2,-0.5037080940001083,0.9363289114995555,0.432145186708612,0.07152495697091309,0.273260321356861,-0.23043391399769056,0.23906287949712557,-0.5753267144132862,-0.13846219165117746,0.47372209863144193,-0.19641826853456257,0.636335644100344,1.1961723552504684,1.035536402870038
3,-2.1093293724910374,0.07444232909043619,-0.14126730308341637,-0.6062990906265054,-0.502813720348781,-3.320479651438123,-1.6881948625264256,-0.9185354774981248,-1.9735528775239597,0.5734710397123556,-1.1209501172990788,-0.18869118435954788,0.41423819600983947,-2.442750215158172
4,1.162003945997413,-1.376409961269968,-0.5648360457131502,0.11347398974528064,-0.42363852641778554,0.5879033717514959,-0.3210258236029534,1.192218942180692,0.3343044554368656,-0.6826705023159373,0.47551257278810993,-0.9438377455596181,-1.7062675138639671,-1.1843799219025786
5,1.9859783471475225,0.9083862660284446,0.6418141209867033,0.9518715915619403,0.6877737249381746,3.404472779277645,1.88986971641881,0.5108486781650451,1.7472755745577162,-0.020245308918604547,1.5229123669369984,1.1738808993028085,0.9800660027881948,4.095303934115152
6,-1.9511940933717207,1.0754355711089336,0.3046365007564972,-0.6166275111776707,0.4428559192968091,-1.0614245306905732,0.21725289880150467,-1.644306509040503,-0.5713195446206011,0.5089769490040316,-1.064356515663378,0.6115544566443243,1.192382950076624,0.024128181836449963
7,-1.571350989211463,-1.737348647487563,-1.040395022188683,-1.1258007633859244,-0.8767293772091042,-3.3602053280202395,-2.0611435654488135,0.054323834286552374,-1.215303361578538,-0.4175647520822539,-1.8127554698898505,-2.0845922070968443,-2.1321824999800016,-5.265707211747677
8,2.7469032116574947,-0.09074881088093582,0.2955196155881921,1.3471887083628744,-0.32471498906072327,1.5685475885400555,0.08986950970796262,1.8517974836904367,0.6795634524011843,-0.031343803475077835,1.9121385398081827,0.31784533573526347,0.22308593465238247,2.180317302035294
9,0.7964542425474527,1.9574019676478625,1.1229306336181335,0.9325055736154602,1.0215053798859397,3.1282873562037596,2.0821717462399723,-0.691118082337656,0.3455699338825414,0.5014949920280687,1.7439271304658708,2.501504643532301,2.4192454343370007,5.151989128604429
10,-3.3400731002747412,-1.2142240038612007,-1.0337922936252166,-2.0746301385761665,0.08619264372384519,-1.9783188772331672,-0.5415058823827646,-1.7713551729542714,-0.4138883779752233,-0.5061445352452518,-2.8016460347717747,-1.5367897566644617,-2.000093113042089,-4.604105141034664
11,0.26964299227853644,-1.3472242597276292,-0.8175567309307266,-0.3285104212449059,-1.0942159851124658,-2.7461289431065423,-1.8594399204962668,1.2843444718027688,0.7060589076497811,-0.15722127821480608,-1.1903074898187276,-2.1979997087179495,-1.5774540424029497,-3.516726302341397
12,3.5302890473107364,2.3209014847865808,1.663966901077317,2.537632373444082,0.2509753779620985,2.1924569315080573,1.0099139511571265,1.4196428777276053,-0.4054547033063302,0.8070308018396019,3.423154109884646,2.6019764635175133,3.425217990423013,6.261053331844187
13,-1.4113916115967786,0.022573615079823247,0.21589959063332087,-0.5595794400726178,1.0793785884744589,2.320652142850923,1.374515179366267,-1.7146911399874571,-1.6192949876697988,-0.4856480216722108,0.21380731159067926,1.2228159190952153,-0.18841073730654342,0.7938315304511436
14,-3.236661376738656,-2.7780010158575785,-2.010581534879222,-2.5609106686338827,-0.6689446045132643,-2.205526940345667,-1.3436172468168628,-0.8887792072869157,1.757742694949284,-0.6659708576142699,-3.492381389844955,-3.1095184686923205,-3.9248760000035565,-6.466344941205937
15,2.3431562893119064,1.6096856080250896,0.4878411378790762,1.4977800892978421,-0.9568242342136609,-1.9509289167061594,-0.7060393980011879,1.9040492179696824,2.0416503883399493,1.1565447352785498,0.9436321751268688,0.1314607089177768,2.3096954746273175,2.1317728290513265
16,2.5618185342454605,2.3942653785556907,2.034345510187336,2.1228787364159416,1.1436561774185048,2.09986218700134,1.4340675206566602,0.33190080475085554,-3.3778241263370785,0.06841426386700089,2.862629798730093,2.8405928650466286,3.2988002731982613,5.130918458183767
17,-2.8447047066120015,-3.029946396270695,-1.099674596562864,-2.2505389832876097,0.6929344151682972,1.6542557261183022,0.002531521171102305,-1.8626308383995633,-1.7639304984391844,-1.580350658511024,-1.9400067151852238,-1.4483310887110352,-4.112852988514914,-4.343618409815461
18,-1.7565620705878269,-1.308511892890065,-1.8210550552555504,-1.3472381344104094,-1.6221155878509226,-1.9747890045188716,-1.2657491414549227,0.09255616881692275,4.842367858858642,0.8107172341226406,-1.5839580122310362,-1.825074718381562,-1.7703691166046656,-2.7536828433983986
19,2.8818720375605054,3.8304238747279222,1.5122639389198145,2.6749571663853344,-0.2546852509275367,-1.352389182126173,0.5843960350912925,1.7025022920008046,0.8409117928775361,1.6119125068510272,2.4474520871551753,2.3378403515232375,5.10095145474113,5.290624490159558
20,1.0869997179095838,-0.09544279429237608,1.5115935419663755,0.43121291876611006,2.0068606870588788,1.8594804029963807,0.9171790260846889,-0.2981413726967164,-5.749757724344622,-1.7101049060446074,-0.10921238478845785,0.3124490842687185,-0.1540046854957926,0.14114422346358516
21,-2.6298437204004217,-3.8736701455431635,-1.7341149646892922,-2.759802441868465,-0.3547879672044535,0.9354404529461964,-0.9669462417628027,-1.592842148015896,0.41504519005321155,-1.290092950100225,-2.25261641413041,-2.5591869638714213,-5.124581500461125,-4.968703954711036
22,-0.674552266287225,1.3793841948105112,-1.2180217084841278,0.44760535978433885,-2.168803457333509,-1.676875110417503,-0.5122178593037237,0.323248351960755,5.899952042171282,2.424182783241383,1.8664409734504623,1.3244552728889614,1.9306405345703452,1.9790450442598249
23,2.3666691874958143,3.3103252813314277,1.8568497153388661,2.5968794032000586,1.0596664978477324,-0.36314980527067253,1.1472157033754797,1.6692590405244876,-1.5691511618152636,0.7810355600021561,1.312099667978021,2.0799432522944055,4.375155943473275,3.8233400698272852
24,0.4126857121301237,-2.2432155155295748,0.9690383471959314,-1.19751168225522,1.9945657232180118,1.2946532744309733,0.1549204332008851,-0.3182153477213173,-5.379437087572494,-2.8957455263724334,-3.312810458822536,-2.711340807836772,-3.2009467016427737,-3.2473311315434015
25,-2.289676976532443,-2.46106793227005,-1.986258404442657,-2.3074938391694957,-1.7032143948351004,-0.2713238477308144,-1.1910044207116337,-1.9461764233759902,2.258320886216102,-0.2512998843066096,0.24187517601434202,-1.0641776635121933,-3.227945544273092,-2.4600000193718263
26,-0.02814207150890049,2.623183206170926,-0.7060363238195358,1.822031232238125,-1.4500078041238784,-0.636371019368789,0.11038582972366612,0.46264344719296296,4.510208682591712,3.2031747149992644,4.135716344660329,3.5804327974212877,3.8880543091975217,3.7365995263027636
27,2.3693370198687442,1.639515336102967,2.1737262582367936,1.9682268764020059,2.0859808233514827,0.7718182285032463,1.1744289195236572,2.28859262479534,-2.3454956624270675,-0.24278360565666804,-2.134462781100278,-0.19747416769961884,2.033482789188048,1.3357789902928547
28,-0.7369103462436234,-2.660604360157411,0.3259225835015891,-2.375178351703164,0.6240031951371959,-0.22462438944694524,-0.29496988819781206,-0.8544853160216019,-3.694334738573961,-3.4570138485334696,-4.152242640491559,-3.8350661270269253,-4.140980430768973,-3.797739997526523
29,-2.342893278176889,-1.0140213049013815,-2.3787700831864313,-1.5766564724851118,-2.0415491957652945,-0.9565844459339118,-1.1426722779273517,-2.4692350941655334,1.9623359178441373,0.7750195704135684,4.007034891359424,1.3896659698777736,-0.9692922227195938,-0.5881658228730072
30,1.9311482463713063,2.5786862202462633,0.2505653945547225,2.8944472872670097,0.27953353133249453,1.0641159340499242,0.43237756282097217,1.4353068058714102,3.2342236237007698,3.6809904129981583,3.3503209516303007,3.554133404871241,4.180511291137598,3.8027763282517855
31,1.8637323204541145,0.5704935292181663,2.47919107328472,1.0716217485369393,1.5145415373149818,0.7886069333785168,1.1032544115947265,2.286853971603744,-1.4291075886642366,-1.4659095098602941,-5.492413284020499,-2.271781995084443,0.01783771275271443,0.060428613067340174
32,-3.3141059401783015,-2.5458618295226536,-1.0150513643476797,-3.3521000281492284,-1.0068616633100524,-1.6150437689735748,-0.5473030503560545,-2.000022882871139,-3.2115278719701608,-3.7624537108712612,-1.897533343942042,-2.937365330926983,-4.144694478462499,-3.932467886842502
33,-0.7195003129099158,-0.1751795533675604,-2.327277599938783,-0.39069736717975323,-0.5984497886639332,-0.42550180166028984,-1.0455775163552057,-1.682170948028359,1.0976362949336622,2.3536340067781825,6.2970689470477845,2.7400473279695605,0.9390351164505839,0.5261605451856659
34,4.445950627600166,2.5960779137997316,1.8429988711623437,3.650721522166436,1.3494139806691783,1.7223859112930442,0.6470132194378125,2.292426153916802,3.47202499042363,3.510711290542619,0.1111154536490965,2.214517294956057,4.019200232313752,4.105718352862278
35,-1.0141874444875714,-0.3137658469641502,1.830594450243152,-0.47094034505653204,-0.49030512692754463,0.14432292688925033,0.9610611648658203,0.784973737426936,-1.1910603911710191,-3.309535345452788,-6.275996482437292,-2.8307423893791843,-1.9814532214610407,-1.3653444586558752
36,-4.896543866535154,-2.634471948153087,-2.5210599475950444,-3.662466715966544,-1.2233236215055334,-1.4428268654540253,-0.7311438054020832,-2.1374233249672394,-3.714010630280937,-2.7896267952337785,1.61308410366663,-1.557867451109461,-3.6805458749509783,-4.061810149739631
37,2.97531783893574,0.9505745766510427,-1.0200857155430518,1.4326635558040657,1.4920840737575343,-0.18250764338972575,-0.8461534892931534,0.13749065449065104,1.708461796822469,4.061513413735774,5.479457877250048,2.6689710771145267,3.058015688698716,2.431611461223532
38,4.453429140944041,2.5102040742775635,2.82727808255889,3.2888933273177368,0.6962676062012185,1.0192075091451795,0.800520061255157,1.5377426237247112,3.636073240260266,1.639653992489804,-2.903857703617992,1.0350787381307154,3.0121537121543436,3.5338913843587756
39,-4.666065943690577,-1.6659155809116775,0.06699749361798263,-2.344325919624186,-2.200079202247682,0.5966441089545876,0.6925608675558035,-0.8056181296653749,-2.4320097380501076,-4.320175340574112,-4.148597887515581,-2.3924698872150683,-3.991688194119847,-3.4744865185180265
40,-3.2178764408902465,-2.1102653455724094,-2.631341963730369,-2.5101879288089783,0.04839340057343269,-0.7433348833999417,-0.8513484796542653,-0.6813963628410311,-3.0783677605796527,-0.30726351140864566,3.5244127645778414,-0.6171373269162964,-2.012979709225529,-2.4211746135547063
41,5.662764167339521,2.2984867641246742,0.7692798892611774,3.0353428636394173,2.5292201675007147,-1.2296838485993395,-0.4833309405485315,1.0601634999084042,3.0309193251882998,3.9361033449332874,2.6466882891692136,2.0880550466657444,4.574371380905446,4.133319949747845
42,1.5514396331876084,1.4267395274831296,1.964037178679913,1.4009563323304446,-0.7906218395214933,0.7951280457981978,0.8599586016568711,-0.14497214253642898,2.0946511413965743,-0.8447471808764684,-3.448000648760928,0.22814816587019848,0.8290106274249446,0.878611530078539
43,-5.775754030826577,-2.6702465232805292,-1.2439218296588952,-3.3710150411980964,-2.530224124279503,1.8030407275802762,0.20784767234033294,-0.9334132375043598,-3.21381871974914,-2.9950162622492846,-1.3377713309241819,-1.7660373844464423,-4.684545275201421,-4.1141754996327204
44,0.08182421684347323,-0.5695560189589393,-1.0152089518111476,-0.10916089745515103,1.3590024641934473,-1.1572379224926082,-0.7770985931814189,0.6915019972205447,-0.9220708309949109,1.499778707766285,2.85951055315243,0.19241602915458048,0.308450816168558,0.7170816166735249
45,5.093361591066784,2.6658853126248863,1.2298856536259375,3.2905327714541617,2.3476964956838584,-2.0685034774403874,0.11049983249704481,0.623602153090809,2.856483543696358,1.7941898803229146,0.4558440255817907,1.376770866966583,4.352069454143249,3.3460339424523995
46,-1.2900571734845425,-0.27503117412593525,0.057134997679782445,-1.1861852329426015,-1.6861643974463376,1.6473253605147216,0.54705212279367,-0.859855646092597,-0.1353301496746681,-1.5335594375898447,-2.0693535071179006,-0.64372639898958,-1.1932186114905867,-1.912492853038836
47,-3.9128165276020606,-2.2806675189739387,-0.7679741323900207,-2.8159407474019904,-2.145355985820671,1.9243277360269644,-0.39634278100976444,-0.38800174387868624,-2.0422645278464886,-0.7132358994090554,-0.025358981416427465,-0.8570573243471682,-3.733779054647758,-2.0413415200368865
48,1.8698799829428185,0.9159380089509452,0.6672399952082281,2.3166154436945563,1.8140310649562428,-2.031315767125103,-0.14792095352719503,0.7406254253267474,0.8474559552881276,1.0674741275057196,1.370226129388133,1.0523790837566869,1.7316960017121454,2.3702822163219963
49,2.6107471044448713,1.6193425041591134,0.040179618583591606,2.0393108691090043,2.0337248525663107,-1.4364229447553836,0.5357836243692508,0.41054527862641177,0.9993939095549702,0.04959212018174007,-0.12051289894220497,0.18566286722341344,3.0237157026677566,0.6270402303806997
50,-1.8339478100816198,-1.2241279403946879,-1.0336337697230842,-3.1526754198895155,-1.8519772695932748,2.138095586463745,-0.3705903690284207,-0.5571950757952557,-1.1475523220209474,-0.40812972065391717,-0.9048623815901949,-1.3019763105531166,-1.957418809889099,-2.0195359246499716
51,-1.5164122216182132,-0.8531877910151958,0.7132666934238846,-1.1024876744131773,-2.0320314585891417,0.774423936756258,-0.4245494503305397,-0.7107929533878634,0.022060567704147455,0.09974462721864798,0.22434513993020677,0.577339734947283,-2.360471389467539,0.42621233244573936
52,1.364048906663108,1.1673711678594654,1.06411871617322,3.6215189774976313,1.9121067782302312,-1.9132854374234296,0.8813544052775936,0.5465686287015966,1.1267733417604309,-0.08896176211850165,0.6169528564948511,1.2943553172674678,1.974317013391208,1.089636827872744
53,0.8298139840471751,0.16042198982359313,-1.285670909532448,0.17637751967871426,2.078267162421489,-0.12009822699197122,0.02925184318546982,1.1385897672461867,-0.859136026909229,0.13768136662170058,-0.4489337207571286,-1.2917513358209285,1.7881738866406924,-0.7963943685103965
54,-0.7262614385881594,-0.8051784274460464,-0.8928744877197821,-3.7208186823259872,-2.055249575497273,1.4030608205720991,-1.2204874451864391,-0.838085138016064,-0.950658137246148,0.16518279357883753,-0.3180548104463486,-1.01489606650452,-1.874976897563695,-0.010522111647717502
55,-0.5963372148642189,0.321985239786604,1.562648027386502,0.564443021564223,-2.076932476838316,-0.3963612785812876,0.5744422854302992,-1.4549224118166224,1.4736922087128277,-0.4787370830649151,0.770353402451486,1.7880828730878198,-1.2869631404592137,0.431646429108081
56,0.18331064409210646,0.2569646800671772,0.700133490867564,3.527942695697843,2.273443438603882,-0.7025943022352217,1.260454810183865,1.3907690917315392,0.7593435400348331,0.24413038958473401,-0.16298097139394344,0.5630434808043,1.6904420880249371,-0.7695488000342131
57,0.7279206408367279,-0.5201596524734985,-1.5337114127764773,-0.9773296150239534,1.9551121138413365,0.7132860261957946,-1.215385136742272,1.455918767321848,-1.9138770413900226,0.6101423997354836,-0.9882855027933317,-1.9472507828366368,0.8429329256757726,0.4531309231263377
58,0.07358777037583299,0.33428784275020895,-0.6496369986032473,-3.1934062459892867,-2.5127579558244477,-0.09055353225171077,-0.9775998361861754,-2.019444163177294,-0.6116810356344307,-0.9915996315196611,0.8364248273617426,-0.12122407950019207,-1.4022214123788859,0.95827336707992
59,-1.0530622544920754,0.42322227542443436,1.2689290839261296,0.9924425248646253,-1.6951169774440509,-0.8227394074564132,1.6929657726666767,-1.075210069208376,2.2413450462989757,-0.32083091851932494,0.8556151937390406,1.7627847175177103,-0.5035822210029844,-1.4918500351468211
60,0.036823423625753166,-0.8278123251723402,0.8501525280291412,2.908923937067019,2.7166607864807086,0.9009752402338658,0.47454867819547325,2.4935613872151845,0.49266109396111113,1.780080766426728,-1.5070752476980014,-0.12770136489932007,1.0044799578847847,-0.5071632547902505
61,1.3786455728020468,-0.07700589537090381,-0.8834184833421236,-0.6427562901025439,1.3282230330150044,0.7460625047449541,-1.8644789442785987,0.411753001449902,-2.4762894334976426,-0.4054915603887674,-0.2531367694573661,-1.3430603150074174,0.3746400898668655,2.3273922873272896
62,-0.48026147079943327,1.1018333660951551,-1.3426930633998637,-2.853358892177232,-2.8593509719188885,-1.682424019487144,0.05822686018267454,-2.6543565672681275,-0.3606910260500799,-2.283430514281717,1.8662372768247406,0.08642554187759759,-0.5698045581250644,-0.4129066220642929
63,-1.5486176625455872,-0.41787478062851624,0.5076864083801863,0.06635956219495456,-0.8992883847085752,-0.5093737023176721,1.7084470098575324,0.3291192188290024,2.586690867591432,1.3719775717036093,-0.7004893985908708,0.8485181609117485,-0.5520465176446202,-2.737156270429352
64,1.1323506003281192,-1.07421466612877,2.102807268047529,3.1333099851458477,2.9473134014973623,2.412805981524943,-0.42381249628174666,2.486520790270899,0.19619001348418819,2.2846369266909297,-1.6726417381185605,0.22204070578073598,0.26429820854742314,1.5155599234729313
65,1.485927135992063,0.9099296607871078,-0.26949445416432183,0.5256568097909803,0.4302715404391134,0.12065631078402067,-1.331506639529259,-0.9454582682868844,-2.5146135279555946,-2.2369511281509316,1.6802794424464085,-0.40407283782289216,1.028945345257074,2.677564972248319
66,-1.8268118311967065,0.7346540453603455,-3.044611004178349,-3.739393892283326,-2.989739636416337,-3.0729669807743627,0.5034039339706353,-2.1071468445247103,-0.025647414855876724,-1.778008853679321,0.9139785449277142,-0.6915418884441898,-0.28430653826047375,-2.518383993026401
67,-1.2073344994931408,-1.2214260841103919,0.2799732919935191,-0.9095368715230366,0.08937579798535632,0.44165971329394044,0.9170071440908389,1.3352431514998917,2.2157634093572565,2.649971742823572,-2.3192580403948173,0.044613235607922616,-1.644442180225041,-2.2517958923152674
68,2.4113629438318647,-0.1764881311954868,4.020598792560805,4.534925221048575,2.9602742874247316,3.6083675505888393,-0.3048597821583224,1.6836050882041476,-0.08397397297022383,0.9874557141483993,0.15419758121867774,1.2127516113869043,0.7384830369762873,3.2239449142180185
69,0.8080684760569412,1.2058523630661462,-0.6099228696002119,0.921795999057077,-0.6752822091106278,-1.2081761251889622,-0.6413698542431938,-1.5253337136325016,-1.691277273501073,-2.404243864075891,2.4123516706994734,0.2728752738478698,2.1266297924859527,1.640712062420599
70,-2.793872075890901,-0.4016707290432267,-4.826347564656989,-5.286048898789786,-2.780971851557563,-3.8954849815402426,-0.0448460146782819,-1.334017945901359,0.052217010950859864,-0.2831355538107618,-1.124765937710553,-1.7389433736713045,-1.5466484081322167,-3.5449165806943226
71,-0.42298446256182043,-0.8243772289873372,1.2494323062041497,-0.5227985527397095,1.2985993293245663,2.157086262122558,0.5959157821759065,1.6210523506021075,1.0002853203980209,1.5376882749402818,-2.0378070125332175,-0.6049371638452175,-2.2266767881410034,-1.0400587009696496
72,2.9657885950209226,0.7509861089770659,5.231266467671688,5.732332840273741,2.3493397739102635,3.7542609071983177,0.3581993896752205,1.0725474045651724,0.17971130009760092,0.026001873559448822,1.6494461159331895,2.294411107114066,2.434481789256592,3.491262033442292
73,0.1776138441800011,0.19939026006606667,-2.065984739605601,-0.17483442626569345,-1.8479150834958256,-3.1406138275814914,-0.74656272283706,-1.7140731127425268,-0.24937102215093138,-0.3308120655780097,1.5202911676979605,0.9547599508195419,1.873491753075407,0.6233705816440793
74,-2.998436430176236,-0.6798897726941542,-5.049902731624681,-5.681345918016308,-1.6046009368034033,-3.033160200476329,-0.4715009632026459,-0.8311587654380855,-0.6199749938845589,-0.40959836181923326,-1.623391393679844,-2.9255991154916816,-3.052993527702892,-3.149224860883847
75,-0.14310412025455274,0.40244157506306755,2.7978447769282644,0.9345014359649597,2.137367217054408,3.8626799214631715,0.9474843175592961,1.8114570009702982,-0.43803504146479666,-0.803036998223232,-1.2527939585785475,-1.2504216656228377,-1.2471634087208765,-0.5217253608063599
76,3.0147975487079095,0.1673521017751072,4.238482934340614,5.092610205592726,0.6009753818736722,1.7399133128646131,0.3205074033992544,0.5392653939121619,1.2159772185699833,1.3741324578810428,1.236488033965772,3.6346768473900806,3.1679197517825433,2.667319612644559
77,0.30625556089032224,-0.6746276995211978,-3.1168263681065755,-1.4824630606291238,-1.9744767789956597,-3.961371225828394,-1.0039005704096955,-1.8336304303848303,0.9605796128676953,1.4843006956509899,1.4776535573108214,1.3806978522110458,0.7062836390171385,0.8004512055012988
78,-3.142811201502795,0.5875067731909949,-2.966757339028129,-4.108546378022892,0.45976430536513324,-0.1353343385521491,0.023905373421900883,-0.20443710643073096,-1.8687459988039443,-2.63157907472356,-0.8602114813676996,-4.343572529480963,-2.8041916445716986,-2.239969840054139
79,-0.5642246550446399,0.4251397330566777,2.758087565723612,1.6237315984466514,1.2645948738335975,3.1851110333465336,0.7597808542316763,1.6832122763234632,-1.268661232404913,-1.5119061297266894,-2.151209488933788,-1.2607168475845012,-0.5953620077592088,-1.426288908613807
80,3.4599022635878085,-1.2274491689642937,1.6067290856961456,3.0061907621256614,-1.2722706200639184,-1.2975796513151985,-0.37682297393071884,-0.06453684218364622,2.4658175678805607,3.7832440864278714,0.8335564130231811,4.910783597319835,2.245019725762401,2.0679646517180563
81,0.7519563859684351,0.3006436644825276,-1.664177883558482,-1.3328318300734359,-0.0972543779822122,-1.5721558528898196,-0.17484730986078262,-1.338417042995068,1.371271688347558,0.924565895067702,2.9686204884129803,0.8836785003232356,1.0442539672653692,2.2435954558249342
82,-3.9463367383968126,1.3976000100463501,-0.6141359321434966,-2.082287381329804,1.5439505599329757,2.0309370606906856,0.5120381349597706,0.11432825363898966,-2.916432265287001,-4.469098426496448,-1.2692117016187021,-5.186354040455092,-1.8738574085582607,-2.2887208025825734
83,-0.7023501672732103,-1.2066167917139345,0.06293123330138713,0.7686958751878621,-1.242852854263907,-0.4863317224180355,-0.642968937488678,0.9050784268490704,-1.319443380394852,0.034523637942744156,-3.534056871662181,-0.33052704985578996,-1.8870393267614625,-2.991569023259977
84,4.4720089782423615,-0.9267395845305955,0.34029719355558136,1.5246851398111188,-1.132473893817812,-1.7378635389064168,-0.2593134519363222,0.14771291265458966,3.1724728262673136,4.4849054356478675,1.9891019091680187,5.070089664949042,1.9524502298771054,2.8994141249593466
85,0.32169552654257083,1.8648051840028048,1.5808058306238322,-0.1995878178323846,2.362428057795065,2.364263001415588,1.4674216197462444,-0.5843598029515479,1.178882824294377,-1.0180549304697015,3.579431051919393,-0.26002343885112256,2.754879513247756,3.3805702334053103
86,-4.834852284616991,-0.07083901403414378,-0.8623580733675433,-1.336553356144667,0.13144734538378094,0.4694074861827096,-0.4142052750679875,-0.6672260517849331,-3.2292866897518806,-3.8322871083024355,-2.624295049826835,-4.5445869169906885,-2.4735106108805573,-3.7181458821427955
87,0.3547612785914972,-1.9119146641210083,-2.7370665346074214,-0.12565837693069523,-2.910976361721812,-3.4543098640218517,-2.0381936948738417,0.5664613302940008,-1.008097735587308,1.6920606655253572,-3.1084589880397044,0.7379043646763904,-3.2838541544169795,-3.2096980193872864
88,4.8438269916260825,1.2339806158070217,1.9238633922711277,1.3536265386683732,1.1468498361956478,1.345543291154718,1.3756094737824351,1.236921787517834,3.113564223635745,2.7018642421680683,2.820852337076043,3.676016480102755,3.1772238086075744,4.4219927122565075
89,-1.1629641642496826,1.2205486081803754,3.0335884821833137,0.09203297347652165,2.7246531870225796,3.423152967911806,2.1658602777125595,-0.9110664809986908,0.8497172535044625,-1.8332096930738944,2.386468745590056,-0.9814891986431972,3.3053677936763726,2.472895525056389
90,-4.408322019860328,-2.116035071151935,-3.0274790457798573,-1.3429051751797207,-2.288686333309761,-3.081423686869889,-2.366896607339243,-1.5858596290200087,-2.8703020211126757,-1.4091215429374122,-2.433874250784099,-2.59282704548145,-3.7114893391451975,-4.664726264394412
91,1.8759580730495364,0.04509836969217231,-2.4217019865228644,0.2411837997010729,-1.8916744310892433,-2.331133797520963,-1.811426889376815,1.4895981314238407,-0.7294417188961378,1.3881207610410153,-1.7847087932026606,0.9210180670319956,-2.90547671412592,-1.3920773627187037
92,3.5830353238183683,2.3822522729460918,3.643508869444506,1.1265129138518204,2.9404736321292995,4.175189052940548,3.099258656283264,1.519394438670728,2.5548173736535666,0.3045974260463033,1.6001502606666107,1.4564024844775478,3.825281937862709,4.2295074306465175
93,-2.3047619173006706,-1.5129785974699559,1.2010495221583524,-0.6902138004115913,0.7097383103264956,0.5645058599109921,1.1044043008508126,-2.031196295391139,0.6525943394262117,-0.48844927220805845,1.5708948156875808,-0.5476516266602933,2.3335507965604867,0.344281708218736
94,-2.5386063974606645,-1.9403755813126309,-3.4362387258220366,-0.6639559809174527,-2.9389804343228416,-4.323303365393896,-3.359746045999191,-1.03078922429256,-2.22514183570928,0.32416415467505016,-0.6502729309128285,-0.43210359685205996,-3.475147676607302,-3.141028630409788
95,2.3761408212551536,2.7728805396834515,0.11010015339617818,1.0530190274530773,0.43946711175724007,1.3590449544140482,-0.293162773673643,2.2531513362491986,-0.5974699124890629,-0.5823410287812131,-1.76834837479807,-0.08674377351559172,-1.8389180567579615,0.294700388417579
96,1.4746550589655558,0.9459855253957697,2.4011111787711283,0.053865901744783375,2.3550835846819513,3.529977953422422,3.0844654702097274,0.3182529678317288,1.926154814951485,-0.3400741283487627,-0.08577953917014122,-0.33731110603702785,2.7965758430990584,1.6712942062219742
97,-2.1401931129421428,-3.5372110571652597,-0.9946482480980104,-1.2106590802969917,-1.2370406331880055,-2.9889306259088584,-0.3464351934654852,-2.005450775711686,0.5169707101245342,1.4711763770218058,2.1657909338668384,0.8769094718887877,1.547704360805646,-0.315364577465737
98,-0.5319280803007438,0.30133946287096797,-0.8536016971114355,0.5366110315331698,-1.4416675090395965,-2.020605906618928,-2.3721558581581195,0.3057383168509232,-1.6665755136810982,-0.193446600639614,0.4622967568120904,0.7560497748459788,-1.986454135638192,-0.22674727407735168
99,1.7078666944844008,3.714925742994462,1.142192169603895,1.1708732672141944,1.5315315363235833,4.046199997370504,0.6030839146773266,1.349584377431996,-0.3605058737308068,-1.8725424064681442,-2.469591357576906,-1.6801646515558861,-1.4453391256060446,-0.24008419720910523
100,-0.2385201788265446,-1.4975027625371395,-0.7143019063834836,-0.9681304100593364,0.5200278079795349,0.1084510003336507,1.4421207409078576,-0.5646127866458439,1.4056791411976433,1.0287252587406286,-0.5783883385791782,-0.7952859270655098,1.1912373352818972,-0.8261146916991543
101,-1.1692814797651903,-3.3814374925453063,-0.5522703167041971,-1.037836110177188,-1.3663726365165556,-4.418799281866291,-0.3902055739300421,-0.5289722794244394,0.11289921152864064,1.6433115014646602,2.5014695502896402,2.3434149359031196,1.4466991486022707,1.1179538002381417
102,0.8345646839758327,2.4287872539839594,1.8350315661849783,1.1951921546961857,0.1405160329013051,1.8966977544999328,-0.5612148058842746,0.34658123993109796,-1.0697996482041863,-1.8263016733427937,0.6779820584697782,0.5023960429727983,-0.47017782508461886,1.3010806497699594
103,0.5574581644134522,2.6910368906313824,-0.4954921404146417,0.9350958142304135,0.9338121923263015,4.106409379774818,-0.2373442637339105,-0.15065365313373785,0.17279313075187236,-0.8628994125950664,-2.3127212050071027,-2.739221761413028,-1.48012533207477,-1.9894841020188638
104,-1.2333103541632353,-2.986009757517089,-2.2341942220554802,-1.2691911538636573,-0.40353925014123637,-3.71080312916297,-0.03314365504041906,0.25371547503838887,0.6005814523013918,2.294351514661891,-0.9549808001786326,0.008798468154289921,-0.16660952557276087,-1.2264322061229012
105,0.11576274697731505,-1.8035179134627484,1.5731923993806218,-0.9329047332750714,-0.48764687247325617,-3.187041322073713,1.104935891865499,0.4645316679853713,-0.3777833783912707,-0.20013905827756528,2.1366528482805016,2.8006307226219374,1.5197583530641519,2.5972291418498057
106,1.3599647178365835,3.123607021780275,1.9065623806976857,1.2865611697442172,0.28746315138630674,5.069350257151023,0.19598468661274202,-0.9956633675355221,-0.01031424904953001,-2.310530313137671,1.3953022250162603,-0.5897753340099117,0.7012908959036807,0.771963376476741
107,-0.7867094896081357,0.868633763507929,-2.2718826003846435,1.0224733136224267,0.2543187642304544,1.829692919661714,-1.968005751642122,-0.36182218178107367,0.36679052966788783,1.2087417345508717,-2.207735845127495,-2.53892060687838,-1.5567374226013926,-2.8285773987570337
108,-1.132175639829794,-2.824758679739495,-1.0875209841110733,-1.3227936054020315,0.06336023606237119,-5.75206775605284,0.08661381997974076,1.6153608613190882,-0.5932328692561007,1.9606792044795833,-1.76807468211376,1.1017695921375648,-1.0910113681291211,-0.13470932580329484
109,1.3006707522296,-0.05395262322295676,2.3385869934957415,-1.1448895659656582,-0.37025106476317854,-0.31510491004649976,2.580376249109764,-0.03216694158382519,-0.06339593175926433,-1.9066947844912525,2.5697915280499735,2.0332575054012403,1.5531257231693556,2.6928480586102275
110,0.5526366026045785,2.1173125164568862,0.14905949144153133,1.3970262961271966,-0.4354673480802974,5.657103168044503,-0.6924795602915845,-1.943687647087975,1.037002223367905,-1.4715837893747301,1.779645855836321,-1.4529725902908166,1.3035909528873484,-0.5361023100472311
111,-1.4555916258866735,-0.4406898426408758,-1.7433474032034413,1.24570816875679,0.8543830262768107,-0.9956555613556145,-2.7679856165753556,0.49434384037980195,-0.491923753977915,2.217131137513901,-3.0089630608083913,-1.3963766373089816,-1.4313570721958648,-2.2469164287382513
112,0.22355706488516433,-1.1300123131599191,0.532765475044053,-1.4857527432070734,0.6088924556980159,-4.880900064919608,1.399247179430995,1.964316191648904,-1.159596805686784,1.0769219971818071,-1.2904292448461787,1.6104135045476342,-1.3694416459335699,1.1387140870868737
113,1.113621191106093,0.43119367190075836,0.6679807735270569,-1.3122972444067187,-1.6112256253390587,1.7683414141944755,2.4867827610243634,-0.8149723316558728,1.1404139629692633,-2.239398143359734,3.166224790233562,0.7356458777492797,1.1158890510090573,1.5417650347172467
114,-0.9102828892083117,0.12836791428309594,-0.6949415208491357,1.567473353396304,-0.41273971360984635,3.7312570649372208,-1.9576776714646338,-1.7932059608625388,0.8947714461100305,-0.8941958305770267,0.44630084234858575,-1.5844033913067432,1.3982254178721158,-1.5722415932467957
115,-0.3092172690060908,0.14568290258312205,0.5683838626717932,1.367906511947929,2.456509767878859,-1.8359371456986884,-1.8398821226519537,0.8854180502159374,-1.6688938074988027,2.15405818356808,-2.7626147222276938,-0.13129359298439078,-0.5971971337776737,-0.6324188828198091
116,1.2039574931563208,0.5327283836252672,0.25785840365944757,-1.6587899264181898,-0.23190142255515073,-2.6326150573149665,2.1800250851513154,1.6007778629749443,-0.3121206520576548,0.8797676242282995,0.37028873338629337,1.4017631087777416,-1.5373638648569339,1.708689632481019
117,-0.7222402713106625,-1.1360457716984025,-1.6184003479260745,-1.430778215180461,-3.1601825846781035,1.2880649793173045,1.0403302468708016,-0.725573420888995,1.9071276578247742,-2.0976837957564096,1.7924707633134418,-0.3603710038991751,-0.03155007586175427,-0.3672580345752985
118,-0.9284421602756282,-0.5491227627455278,0.6673762183798133,1.810799175697074,1.2869576854514062,1.9534601734106662,-2.007521682488258,-1.5218091378366152,-0.41219279618055715,-0.8796025890944746,-0.7459375226039516,-1.0901602493149083,1.8943205558771994,-1.4295436800799874
119,1.6222760948023607,2.1654850678143904,2.2141449537456728,1.4739121000828548,3.501926261681866,-0.44243444394171527,-0.33090746378159513,0.44744487886409895,-1.802881655373516,2.080936338702182,-0.5588493723322204,0.6908141854145124,0.5962910853777293,1.248056128273293
120,0.12852738500192634,-0.16414650467370884,-1.8326798308532526,-2.0662552725724916,-2.5977957645622527,-1.844473723160704,1.5264915019762688,1.597950627705113,1.0798017011507777,0.7388958818978856,0.4737207130323187,0.6844409102184311,-2.4706383505331453,0.7148173984283788
121,-2.055274419317192,-2.767223163440837,-2.237252765783426,-1.421757923546252,-3.329359519548601,-0.3015170382728544,-0.10458219560666984,-0.18230471012460298,1.4301143135881804,-1.992509676058184,-0.47438847185826194,-0.8121389041041953,-0.9143984331432149,-1.7441373681272236
122,0.9387276112124615,1.3807631651428918,2.9440673959216412,2.4100903690971607,3.923984221554254,2.1800724607039275,-0.927096937728557,-1.7760391877427921,-1.5588498845922527,-0.404505923460253,0.3210560233679207,-0.2452687393394941,3.1478907031465866,0.28112194231660736
123,1.847719568243451,2.5960851323469503,1.7300483863535356,1.1926169926107482,2.603439942796859,0.6541150048030808,0.2005564226915746,0.013238668320946653,-0.9282309112761268,1.6801096559604143,0.9269233339411417,0.6924706564882913,0.8784977032522331,1.6490815302344193
124,-1.907025687574695,-2.623992154694085,-3.751056592707692,-2.7542122872908408,-4.996041485263639,-2.6409727284766884,0.42642003603448103,1.9541241359798878,1.822615945390118,-0.03778079944181071,-1.2397958902176476,-0.13297172169391283,-3.7341404522480204,-1.239528114959574
125,-1.0560865454049575,-1.6151677323745082,-0.8541928616126538,-0.7591257830819044,-1.4161926038441477,-0.5681528361276106,-0.01932387250901536,0.05355848531737752,0.41581309522036186,-1.057010492656902,-0.7021258516822118,-0.3465775679454807,-0.5074975698313778,-0.9460738547297434
126,2.4452584386322354,3.371290252376079,4.100989388359803,2.974049642953303,5.583648780975505,2.895226265151767,-0.19019369102304984,-2.0436002955918178,-1.9185315940427798,0.40967028152292484,1.818152907700354,0.3424531999402029,4.046376985659522,1.7955244188580601
127,-0.06005162589766771,0.14120181519160335,-0.17233855746008683,0.18195507915724474,-0.026077964256963185,0.2386245969668812,-0.2845204067145993,-0.07092781940723009,0.061738157054545065,0.17068073499995756,0.033388461152869836,-0.1426718237690969,-0.060056978130252826,-0.13765014859030225
