,AF3,F7,F3,FC5,T7,P7,O1,O2,P8,T8,FC6,F4,F8,AF4
0,0.037099463975155046,0.040460776869338126,0.04247464953362713,0.0835911926347392,-0.021325253722956714,-0.014043793996807673,0.07609749801972562,-0.01954706628534021,0.012181231178484679,-0.029602978290270553,0.08438839574775793,0.02985317421396749,0.1144718733464217,0.004717909151202798
1,3.043616700450064,1.909495466321224,0.4723783480842048,4.0939385549213725,-1.479364925230014,-4.980816045511105,-0.877610941568959,1.6109175915453795,3.6238526327733998,-0.11984892712071601,1.8421967701226054,1.0286605455554612,7.074231760023207,4.066417509630341
2,0.26725948622156964,0.2102835468985887,0.8553856037054213,-0.42921212727431685,1.9743201731133824,2.16580842304773,1.4935577420830797,1.1235633329118813,2.00514885300061,3.095903599813684,0.7993373597450596,1.675310093692727,0.5987172177324692,0.0968408143302183
3,-2.8992231330276117,-2.036335634363258,-0.8804661283846785,-3.7973309181711263,0.44061611611270424,3.83327673498471,0.2897061516851349,-1.951079152132592,-4.245379397783872,-1.2533620929065505,-2.042043013385444,-1.7078089935430625,-7.500848999324881,-3.8068552406915757
4,-0.6195894134301118,-0.3685996715214092,-1.4780289382853657,0.6398401715045399,-3.236767036429899,-3.646486040862021,-2.7232817671036087,-1.9943628383411847,-3.5585627087874343,-5.147178357316323,-1.5386127245725796,-2.882213572886,-0.8503940884950818,-0.25135724422380706
5,2.6623892560418074,2.2773680397655007,1.5338149615589463,3.3315404766572376,1.1976507413415385,-1.976218610708911,0.7253692750050026,2.516095424957113,5.190516221483671,3.4017435568675483,2.396158914822103,2.797206521672364,8.03425377971374,3.289791206200624
6,1.02737847072198,0.3352878517838885,1.645937091534685,-0.6813051656628948,3.4127971112716002,4.054353625084221,3.3434779362432683,2.46333343790795,4.363263602678952,5.5716605002396165,1.9923988926087894,3.2661642928434094,0.39403226213591,0.5219616765465105
7,-2.4157876192139227,-2.5313162270488503,-2.1845044700758,-2.791478729185735,-2.764253431135488,0.05164930717225681,-1.8452801555496527,-3.114294938977176,-6.037731948836183,-5.351000544644438,-2.77401246443256,-3.815894598739237,-8.164945110980547,-2.5981328053872317
8,-1.4599206061532581,-0.07669173334863212,-1.3491698737264144,0.5592770771518317,-2.566764112499023,-3.399083994614952,-3.2901398179639507,-2.4828424495441204,-4.434341708534114,-4.435016499688873,-2.1094237097982615,-2.838942307734508,0.621251700957243,-0.9712683512189437
9,2.2414307323203704,2.6766789021255715,2.5996905839245557,2.259991783729679,3.6648260084794675,1.3325893374541984,2.732808772241027,3.552163529898599,6.4146273245687615,6.224503827901794,3.016388789973809,4.319092563236596,7.482130740345902,1.8817931979597635
10,1.849995206264337,-0.3581502940068327,0.7330237894861015,-0.3031081057319583,1.1588877764500172,2.0670214065386836,2.7041567735029766,2.1216543723864714,4.050265083921475,2.4037034290087282,1.957938476359828,1.9233720002855723,-1.7117276890511006,1.6174118082093638
11,-2.1899040033088406,-2.620505789351907,-2.6530184600894575,-1.79705674506341,-3.639358049342081,-1.8392288545287887,-3.1480812657841395,-3.697044893062686,-6.170449827344643,-5.629599746052786,-3.005429949358286,-4.098416723432507,-5.906923852402241,-1.337868231252263
12,-2.1118290971825067,0.8523071841760457,-0.019446558953245287,-0.052481838701927824,0.19838851889961812,-0.6284933308762005,-1.8606591882201875,-1.518851111511282,-3.5899289046140033,-0.40073412960038596,-1.7081851923192715,-0.9860314961721764,2.2893066773283106,-2.3855435053862912
13,2.258348176967101,2.3394286102467334,2.3565316526380444,1.4429470835220046,2.8403381904978,1.502185298052605,3.008250122057683,3.5019066409998825,5.428181491803106,3.79382812226851,2.73240058713767,3.2623586538682097,3.76312357168888,1.143755702703963
14,2.1719887820017094,-1.2649822607608285,-0.5906160565881821,0.47808486117975735,-1.0292337965242468,-0.4156275965484897,1.071341231523539,0.8270831342617986,3.3331902752824827,-0.8192751344273329,1.5613964110374403,0.4146998920148164,-1.9440885617875092,3.09631746941521
15,-2.388149316739239,-1.8933074834362915,-1.8236280511355099,-1.2306834676886858,-1.7084017977263177,-0.6538228000400469,-2.390752080261061,-2.98981062897963,-4.489947467943551,-1.4078792213651887,-2.324405900387077,-2.160710041229571,-1.652706726946698,-1.3691218895474637
16,-2.0020344688203933,1.4871965503702853,0.980941600437191,-0.9453993091646494,1.182343590835417,0.824720598303033,-0.5960334490634521,-0.17711988622166608,-3.336311792067676,0.96733534123426,-1.648947094870591,-0.3548551689638569,0.6413146748782247,-3.5162986621731496
17,2.4865713861091083,1.4036524698324329,1.1951365389181123,1.1968043586712556,0.7291366763363064,-0.2705076966846025,1.4982687468132885,2.222720726355711,3.656103240287496,-0.7169424555093556,2.002740530438945,1.2018250964779054,0.20033690780420252,1.9169443360750844
18,1.637331492772087,-1.4848273844750546,-1.123496072432941,1.4083655284920573,-0.8393960022891452,-0.6621384961040354,0.5777733428543267,-0.3278067896435999,3.44639854145563,-0.2720202078976047,1.9513013774409482,0.6810493822925827,1.257330865472121,3.4571461048897283
19,-2.464700397365168,-1.0056049632453306,-0.5790399575623265,-1.3763978012549902,-0.20510150069136562,0.941612395065661,-0.6001141135647291,-1.283651058460313,-3.0669931611442007,1.9960685526158115,-1.9800443410435888,-0.6655692529157407,0.20925202912622964,-2.535851166961979
20,-1.170221546102897,1.3112645985842448,1.0384769391082969,-1.7812405441175878,0.3667607853528012,0.19040313347024931,-1.0040971105522907,0.6073181571437333,-3.432180102857391,-0.6958727765582725,-2.286655831245494,-1.098190427742367,-3.149386965202238,-2.875958421162274
21,2.274048135698095,0.7930641479528366,0.035473612424386396,1.7736279003567716,0.14959134982001934,-1.2540043041884796,-0.04661095030452675,0.27854933276270694,2.6538596166135417,-2.275239906855813,2.34266215372102,0.6032342596633588,0.41789085979817137,2.908878150063532
22,0.7179258605820142,-1.0860280633724493,-0.7536302028069427,1.9356739343075038,-0.10691011270666304,0.3053439801793117,1.7044299578128932,-0.6136499712840008,3.1421899243213476,1.3111873046510356,2.386403110691569,1.3000819516495092,4.4431862705848015,1.9220404477071076
23,-1.9234443353800683,-0.7770736546507718,0.4009887587934282,-2.3160795772670792,-0.33131295826894763,1.3077281633643667,0.2881720346988272,0.6625974539260334,-2.2115265361904886,1.835519629376158,-2.98154030471214,-0.8530373171005252,-1.7038859340458454,-2.7813385552063545
24,-0.3796230194496275,0.9470724421968242,0.29442444659398126,-1.7384826298414775,0.21699670926254983,-0.6611137181746813,-2.401555558249518,0.35801371901638784,-2.5977120759111982,-1.1614914324720456,-2.0259714618930045,-1.1002313537264756,-4.788630491015128,-0.9008486369052303
25,1.468278212148688,0.8725772063959186,-0.6960092934082096,2.824418862044989,0.423263317439152,-1.2897992968348406,-0.14692893256631925,-1.4091450998326767,1.5349293748763517,-1.2336650541778622,3.614774647408269,1.1360179133558699,3.065501921171061,2.069331706237858
26,0.2040440570525057,-0.9903549198635628,0.29805804256808055,1.1306756672137435,-0.6187399788878798,0.8753951327628104,2.820216164280262,0.0713429350490088,1.979896766580792,0.2005218611867124,1.14611563398812,0.48857081564475885,4.1928821696159595,0.16770797179724503
27,-0.9798881618349812,-0.9233073328923458,0.8142629725701291,-3.0392068516650306,-0.1723654963495308,1.3399553968245637,-0.17150179081633868,1.8766942289368662,-0.5385267850185194,1.0582003542857663,-3.8979459209656007,-1.1732828697069018,-3.9467762728485183,-0.9011702782380573
28,-0.18332849399126175,1.2162431079835587,-0.9497588097304742,-0.21038638903782814,1.0619890641436902,-1.0479283624989737,-2.816637647555028,-0.5271720487716302,-1.5346676766624125,1.24814058991008,0.09741600994880667,0.38335483894773387,-2.9867814134296453,0.003028374973153907
29,0.5139787639268009,0.7658822626394806,-0.7407700155077178,2.72334528189159,-0.48529790372798365,-1.4785923607273863,0.36537631058207676,-2.0683726187343328,-0.6953553721309096,-1.69040352601749,3.5726627236769604,0.78177260897423,4.020444121559831,-0.4234224748413377
30,0.27320020325375266,-1.5099911655538678,1.5601474774767896,-0.7453052899224943,-1.2574846126084895,1.2739803406352193,2.458846061072635,0.8593065370486835,1.4542190397078079,-2.6259541710612693,-1.3820094223788582,-1.2628707807221846,1.671372902594277,0.48008421616958225
31,-0.09585596272317243,-0.3156605548432231,0.5021952052739992,-1.8033603517850965,1.4031440332693264,1.6241080577996316,-0.19190388395860572,2.0777757224621003,1.947608270206296,3.1496846041713478,-2.5843329412528684,0.06867865990521826,-3.2850441208803725,1.5371823394240642
32,-0.4236703075125902,1.6810064742830322,-2.031379255770283,1.3677354637525223,1.0157289319986358,-1.5663269032778908,-1.9966368854578798,-0.979697119408837,-1.7897858144937064,3.36406913655098,2.3432108449131848,1.87987479457565,-0.7150302256933883,-1.4894470372627384
33,-0.272827366323038,-0.36695273770972797,-0.1688622612488238,0.46250465371083044,-2.2948450699051186,-1.670307388491567,-0.39266931124206245,-2.0459897019875344,-2.9488645920667422,-5.079935844513599,1.1145005217885169,-1.243935006611114,2.0311880870144843,-2.1325383834535
34,0.600164025846025,-1.5592777582858426,2.3009824797728977,-1.3735135454853062,-0.3350499407146482,1.8469849287579971,1.7213776879847076,0.8989901081062537,2.4253522323793684,-3.1174828049411847,-2.7207314498023423,-2.0369826469138825,0.3814001530159855,2.7176908816406757
35,0.597210739294796,1.0791409564855259,-0.1633835019996664,0.8973580574291797,2.8619583723039526,1.5658693256111025,1.1998798984860577,2.0963730629816464,3.4859793197727478,6.890387169235501,0.48830135470786457,2.487236153994702,-0.6999597388621414,2.0695636092022758
36,-0.7861422814455853,1.1042696305452413,-2.3611730963724873,0.7347756360626773,-0.5949824892800083,-2.002450175191266,-1.7931273774819874,-0.7170499749218335,-3.117867757578408,1.914145821911902,2.459994232102269,1.6814692509020073,-0.6501047851286408,-3.7777910028643755
37,-0.8794439920243603,-1.567797074666543,0.3998141281338356,-1.8344708343117349,-2.923563730832546,-1.347087018633246,-1.9153963690193672,-2.2817372003639047,-3.491121429077477,-8.00280377689302,-1.8493228517757803,-3.5110427787622123,-0.3063710568145953,-1.430917421486205
38,0.9756497641739224,-0.4547409263167323,2.2608846044513444,0.2738482331769441,1.474859738088253,1.9600551041297223,2.1456799787769834,0.5778704001948916,3.5914906778156848,-0.14686726423417962,-1.7227546258280413,-0.9252570783780109,1.2550444845323612,4.334025634937812
39,1.122177782624487,1.6721975997183665,-0.4725880739967982,2.0961143469686476,2.49195026549791,1.1095835425773366,2.2842348839041886,2.564229666225865,3.076800227259226,8.100370192648368,2.715575045623456,4.107963883710061,0.7859939707267151,0.5036587072559767
40,-1.171315329097077,-0.12987949227918946,-2.0939188111267297,-1.2026995952761104,-2.024925526932033,-1.7356592151878278,-2.5349457070971986,-0.6125575775596462,-3.654518149199226,-1.5999854351676042,0.8016096557407372,-0.007090773148117251,-1.8215202810752815,-4.225199645361104
41,-1.3334632359644563,-1.4294521154859317,0.36367965292416987,-1.7571832474948126,-1.7602258875956516,-0.9423863009002024,-2.2560159591918216,-2.827014266795169,-2.491725011560756,-7.258699931560712,-3.0404506168477208,-4.225905519083303,-0.8072464251524155,0.3152422926168807
42,1.3918713262162483,0.41707458309853895,1.974019260681348,1.6661469146080765,2.103305596434801,1.42413657896295,2.699454620212147,0.8886088684932634,3.289073240799888,2.814821827596859,0.019397471079597547,0.8823320713497699,2.04613335651194,3.5374362320171673
43,1.5160661192705145,1.062991811619223,-0.1222398585670624,1.1736644283370405,1.0085697795705462,0.8688285567066071,1.9965191610862243,2.9083946652976875,2.005188144693806,5.887605037310731,2.964281272343396,3.963279567456014,0.656340660899938,-0.6691169723754795
44,-1.6742945059184493,-0.3486445413487334,-1.995175853389436,-1.5496175923832647,-1.7557485618765845,-1.1410121405472817,-2.5250535990389564,-1.3742495881104335,-2.66227277182823,-3.284380267295907,-0.5862169443405633,-1.5561791564051322,-1.8437196659943265,-2.588654117978573
45,-1.641325931938718,-0.8462383905402007,-0.1351795817799076,-0.7729651373358588,-0.4772720942384598,-0.8324625774321093,-1.7638990123881486,-2.653321697515061,-1.772072340610449,-4.507910584676619,-2.704679183348035,-3.4882130374765103,-0.6815277081084282,0.39772644400554946
46,2.0516841271148754,0.08531201062630546,2.1835567463518064,1.0556636460712001,1.1765292622820094,0.9546335905107435,2.1067405922613425,1.9266114539562325,2.0397934616435265,3.1608396131644536,0.9143933426660255,2.0060191250804413,1.3923716275925582,1.8108914767368836
47,1.6319563548104534,0.9223551246584992,0.2564593625154114,0.8095282797679011,0.2712059147818717,0.7354229498188417,1.7378494976776195,1.978130817524976,1.7548975948363474,3.4801768959808697,2.420673459041085,2.937223951618058,1.0997794724876895,0.3707880118721039
48,-2.508799278880556,0.0924079384957298,-2.4631575650222106,-0.5629650981093072,-0.6074473628176184,-0.8530393992252733,-1.6753885762015415,-2.318054554575857,-1.6398711031146749,-2.8320010868168226,-1.128688655207124,-2.28497872445403,-1.0453021809908807,-1.5622585130815263
49,-1.3824964393682868,-1.1994036600799554,-0.11872292094725437,-1.2347910886488418,-0.3390785176185386,-0.500522178156513,-1.9130820361224377,-0.9316121782907085,-1.755655843957337,-2.834641868441562,-2.1294333611509,-2.3609380122454913,-1.8587416047815881,-1.2510494280423556
50,2.9455241897437787,0.02899778039304224,2.6642981841730604,0.3910679951490584,0.23188763256544942,0.7633962268066101,1.4468067412186951,2.3094246329801194,1.5105752277819342,2.667552461783938,1.3430502297126412,2.440189127872505,1.139528630236399,1.947901443966346
51,0.8203405008762327,1.395909569053056,-0.2996090568948216,1.7527025158313125,0.5256278722457873,0.113445655477961,2.1155971615586187,-0.28062791734822295,1.544935944615193,2.2980898776116105,1.7224615039479079,1.7452726152029183,2.6326129188280705,1.7613457064834936
52,-3.185225665803678,-0.4403400967997912,-2.58798337316945,-0.6168483700673646,-0.1142855769995302,-0.6031870065233806,-1.4919391191367029,-1.754293965123011,-1.5071524053986443,-2.789171540785395,-1.556304160552405,-2.4602413478345073,-1.790810235966005,-2.7436638525659482
53,0.02534828123229494,-1.2147521741695189,0.8832043871379279,-2.0138580452651174,-0.6578382866538969,0.37934748451544625,-2.1180649516569248,1.3392328375984495,-1.011685974387158,-1.5001327797971047,-1.06820955535907,-1.0780873818183496,-2.971282095004866,-1.549739884212935
54,3.0392072195667317,0.887419749603857,2.1038850218904988,1.0454966487619841,0.20129075735784738,0.322190423816755,1.7006364040361763,0.6883872967654467,1.3859686987461817,3.0002991279613824,1.6285200355742369,2.287172744922789,2.78636953340675,3.475088430308225
55,-0.9932708864602455,0.5411380119955577,-1.412861303435839,1.824058519806684,0.6202399323178551,-0.9038524567640122,1.7773855636348648,-1.921426656260432,0.24099740298663078,0.235080812827421,0.1370374355720241,0.40154929436436765,2.5403267909769505,0.5762074773214598
56,-2.3999541441680288,-1.0018860716976419,-1.2299112055094827,-1.3375851045697884,-0.3678208463330737,0.09046355821901507,-1.8474178318803824,0.649502472842788,-0.9572868048739975,-2.9166342685740005,-1.35452357851358,-1.874061285167291,-3.6487257752768563,-3.624931393226405
57,1.8242743607752525,0.45400873237946204,1.6594181991885573,-1.250148416131118,-0.39448421131753997,1.3871035555760955,-1.1188732746130985,1.8350244297702383,0.5269482837709744,1.3777867663475805,0.9277900274079837,0.18900707202061376,-1.3297183706979314,0.8425202207828584
58,1.3153947207422212,0.5135450440452837,0.14394293307446357,1.206335814501745,0.48036138378165794,-0.6239929569154641,1.7126777863436244,-1.8900060755895542,0.20311563971316157,2.2181673045063723,0.5946869361262253,1.236831014635171,3.8567624158173457,2.873202145744116
59,-2.2494404607225995,-1.367514472876199,-1.4891512110943856,0.5785886617826654,0.06054231503840549,-1.7579613407560775,0.33222906594815194,-1.1088263222080084,-1.0278977591400167,-2.9311672045514143,-1.8383200400931445,-0.590488222208529,-0.2884216063653974,-2.149750484617336
60,-0.006686501391484896,0.5719192315979155,0.8825610315143221,-0.5752556334691196,-0.4576449722872312,1.255686146019503,-1.1945358925386145,2.672688990092632,0.7079343017139224,-0.8718627971984401,0.6094590536382914,-0.46210916957460524,-3.119428928141995,-1.2580088688963682
61,2.0952878967900816,1.7501056096701448,0.9213972518705318,-0.16449651810496452,0.235676891306953,1.9319498614316437,0.3082965226699297,-0.010522001257902893,1.1123339237294836,3.9412279884484045,2.280426231258338,0.7401108441900104,1.7007155633153472,2.773081223931347
62,-1.1801818702760334,-1.9243796657166137,-1.590389011933989,-0.3755915140005439,0.3157453363818857,-1.9320292363663434,0.3629596066842355,-2.786657584903708,-1.5100107196413814,-0.8059424797785681,-2.000686663731784,-0.32566854718722416,1.5574509527702152,-0.8118067363244542
63,-1.3665262347272042,-1.3349809357461457,-0.11133648901141004,0.25383687375410235,-0.3444806681798667,-1.8147594732904497,-0.5573960402463725,1.1558731710113992,-0.8123723988834467,-4.10986907262716,-2.0659562088537102,-0.6328965545143678,-2.3336371051184446,-2.3584187462664135
64,1.8745489161521145,2.9987822040090633,1.8177581367823015,1.283777771511534,-0.18064116929217944,2.5362931711453545,0.5598031398050181,2.245387087014201,1.9731474196105188,2.2817478346966205,3.178598701015664,1.0047968387407265,0.31250424341157634,2.6919973925623593
65,0.2777117575054459,0.20098204314502582,-0.7192394975141584,-0.8584859200380293,0.19245180331990422,1.3460993272807114,0.2978363489452308,-1.9830687244369498,0.3080583618525582,3.4905278188929203,1.2431092006476196,0.3094508685660325,1.9351533596225108,0.9219777752302412
66,-1.8062919198283545,-3.2596860177414926,-1.5277000953563034,-1.7584233092046933,0.2484667827145831,-2.883479283899336,-1.2782647102418652,-1.2652022146403228,-2.0016832401672797,-3.0550546383229484,-3.7527652017925806,-1.4768094302652575,-1.7958695478203746,-3.729446025109189
67,0.7831459080417221,1.2081101090223192,1.3526335824032272,1.7314816893403453,0.15185082092146002,-0.5667343733209219,0.4100886154664767,2.2932946106234464,0.1737588744881191,-2.4729693099302597,-0.1071601228304364,0.1610386652594913,-0.7093438540188493,1.132396303023461
68,0.922174247071028,2.428670373079956,0.7876785115105123,1.5503074725190906,-0.6909136383659573,2.7736720081881985,1.5300000995173384,0.16537151251914806,1.6511809241111994,2.8916270228856455,3.509641571437209,1.6683573480838194,2.3370707523504652,3.4983217600557235
69,-1.3638672874120514,-2.228380508556093,-1.612448298832206,-2.450247884549078,-0.47174719360679995,-0.33994440604196463,-1.3426350221242245,-2.083727071543097,-0.4619029028678696,1.6057786746953808,-0.9012850501918509,-0.6840925357650761,-0.7703559859785083,-3.135355200142505
70,0.5490288133822299,-0.6491206268034528,0.2580985129554765,-0.6742432504187641,1.540362631006159,-2.0936815606214783,-1.1831306642266064,0.7584541736394999,-1.0721411929821516,-1.9272305840010757,-2.5164582850862027,-1.5365073236506352,-1.77726657952747,-1.9669820553468569
71,1.1131828277738387,2.238506234971788,1.3748058121065414,2.579805121850235,0.48297920173702635,1.077423713199599,2.1837594122682766,1.5144730233023482,0.4913706290413437,-1.3542295845882684,1.3711453227707178,1.1368185847062284,1.829042846528499,4.3762147471054895
72,-2.1266127173312754,-1.5121152368091793,-1.395971775780568,-0.5653477770739126,-2.6197938827805594,0.9149983536390041,0.29495694238291337,-1.3301299113964626,0.4292063408282746,0.6065361444743301,1.1108482958409216,1.0918328144168483,0.424123870391482,-0.46305943282384054
73,0.04931140970958654,-0.9400514585672383,-0.5898583010859918,-1.8592889901223557,0.020971628619525166,-1.3444784464276958,-2.6330987956274856,-0.8191935163310821,-0.29205114018835554,1.9065417893620655,-1.0941551021924076,-1.382648788794274,-2.006486293882117,-4.35947755326351
74,3.224489813302401,3.2475293442987154,2.345314310775311,1.6656628409115475,3.5751002966818715,0.4754706374348184,0.8889197092686617,1.522625121067704,0.15411517126113328,0.499447565796387,0.22499876666877686,-0.4265842763554714,1.0993870915516095,3.0706497216480493
75,-1.8372567619094446,-1.465700649198722,-0.6652012990600313,0.3396662637717897,-1.0306955503138946,0.981703710322659,2.5211861839403524,0.208935123644802,-0.053959427577696124,-3.1008955042470503,0.16016524839724194,1.3184112327876263,1.2665924629282819,3.0056534519086604
76,-3.382701045552076,-3.819863508522533,-2.8025472987583355,-2.1117248121583065,-4.015978384343806,-1.6482049770600466,-2.004817640766935,-1.423123804046064,-0.6080450951984052,-0.9146769721831016,-1.0557878173645037,-0.28480128109037994,-2.150645680139913,-5.058177799894123
77,3.6474285160303332,4.296350863254806,2.1302862237044624,1.5911134629137758,2.274068555223899,-0.08496907892838082,-1.893210004132373,0.18664612349427456,0.44726313606675167,4.486753617197441,1.0692822103369903,-0.9383166031593723,-0.001543421336782689,-0.7133249980645888
78,2.4924684212486414,2.879061243336082,2.5544556191103007,1.5924747652784859,3.704709297231503,2.1932823716610965,2.702161776180665,1.167991804343889,0.9065015549984367,0.4389906241690078,1.1716911700344843,0.8381285276842808,2.3636436291411878,5.849038846630074
79,-4.770033284616785,-6.617697209472032,-3.3720089612992696,-3.3218996280257573,-3.303841846933358,-0.9808468213203889,1.01817210675394,-0.32600987728897063,-0.7829118974104752,-5.489870685116515,-2.101649534362259,0.37302432015273584,-1.166300793661917,-1.7626936593965612
80,-0.8984935149793333,-0.6443874853614271,-1.6250367925031437,-0.15754004872779062,-2.6940587217739362,-1.9092270782900649,-2.7970625319569624,-0.8894398435876227,-1.0649533925044805,0.766525705405423,-0.6803764738211494,-1.0960492712537078,-1.8063978869860178,-5.325942327411691
81,4.6883853065816234,7.603422737855014,3.9111517241358458,4.240609410760918,3.6887718393541853,1.6957206486684873,-0.2953378887267522,0.22982909881147803,0.9552398364329213,5.627717454674686,2.5147031081982383,0.1386289220303578,1.6863662347486323,3.593544187954608
82,-0.6980393966138392,-2.1426887451962098,0.36019305174736693,-1.761755570231217,1.3341176061861884,0.9309796543866886,2.3789716700736747,0.6940577765005932,1.154536861682514,-2.2194254365935064,-0.028121542236831706,1.0806853113360309,0.9289912378225715,3.898364582659656
83,-3.3330885207790746,-6.876365096386525,-3.4447802335959667,-3.9820229190680823,-3.2161823761989226,-1.595482464714106,0.07447621195293717,0.04432427478928165,-0.8822745732129809,-4.709646161061941,-2.14075516454005,-0.35541903789069584,-1.3420824925172816,-4.217727769495177
84,1.5187275429471243,4.491694167068584,0.6441073067088583,3.49245320185795,-0.13497513958091795,0.27702946773504517,-1.7983461233989038,-0.6619082336599336,-1.3097734185675216,3.2819071239285154,0.43743030017179924,-0.9977769513322526,-0.33047742644220146,-2.3446890239026805
85,1.1587681530118665,4.679761184339974,2.052624741082682,2.596433104951479,2.003406652178886,0.49556432173040454,-0.46539047558320906,-0.40891200345401096,0.5558005258880686,2.9486598550144163,1.1589249439249159,0.17596576210687687,0.35158843518753363,3.593009655478076
86,-1.0544173518904425,-5.5549151772337915,-0.783886453802376,-4.37617678878549,-0.4514829339312598,-1.0834484715869666,1.5106858500635016,0.8406323252971841,1.6979291625112516,-3.411648595145232,-0.12925621637407833,1.152942611296281,0.4565036786487438,1.4751019852876877
87,1.0124304929018249,-1.796296518001142,-0.24849124043799,-0.5586345419994088,-0.46213193751537796,1.378728985727073,1.2443261019587117,0.7454691892024403,-0.08949610017658437,-0.9229673140282273,-0.04749408845730734,0.26317916672123665,0.7387192218277105,-2.2295290374188554
88,-0.681697913519292,4.971484526011169,-0.24256929022783458,4.039614678499131,0.22652652000421472,0.9544800128071,-1.8358134354527504,-1.2225005946604226,-2.4411056578026895,2.4078922975512964,-1.0099926730385185,-1.7811367169650334,-1.3707933554264475,-1.7586185354348782
89,-2.324566708560433,-0.7568131435483723,-1.1957520525379788,-1.3991309043642584,-0.8656555778248636,-3.432734983302768,-1.9323253232636626,-0.9206304182806372,-0.27966562921857085,-0.6264777585189376,-0.6030757753632475,-0.6096350890519378,-1.3174628568270417,0.9679851871495203
90,3.119727899808099,-3.015233121643174,2.227902484686675,-2.563026443194375,0.6714511475240836,0.2927607731983775,2.758161399148855,1.7190128508425608,3.52126886946138,-0.5397047569605808,2.6945282445165146,2.873803699532004,2.7085061169866713,3.0925197736001073
91,2.2538434838317687,2.129636593821891,1.5941423384536677,2.5693635952455907,1.5223999837093587,4.917002061979534,2.028063649124311,0.8317444218149185,0.2643236501749534,1.0985605506290148,0.35411980750268424,0.4548957668089257,1.0047536863339073,-0.5933719741075832
92,-5.343636989016272,0.4830338026590203,-4.489125118172748,0.4689564318361498,-1.8229676577865275,-2.3696623442578044,-3.8899167073490126,-2.16272481597708,-4.724619675885487,-1.5240944276271393,-4.319112898514871,-4.1111236237757,-3.8339130837895765,-4.834301277197537
93,-0.8416564989424052,-1.9697212905242107,-0.6862404017811581,-2.551667470563487,-1.308895295121078,-5.233665749116595,-1.2801768396568243,-0.4665215696239585,0.34254662178712136,-0.3044477094681394,0.8535319353733158,0.4360132982619523,0.15780803224304316,1.4644261691424822
94,6.459247007855209,1.627983217953356,6.149579184332637,1.4711248198479958,2.6895946816996474,4.5969060905913,4.634930532705357,2.355698561107615,5.673728442241942,2.975627703045771,5.203432644271438,4.96323063921963,4.128398992150202,6.089544093280472
95,-1.3112794879722105,0.5450422783668738,-1.2140139613372798,1.4165971916564633,0.35566046559354897,4.2005070423771045,-0.1504298895093285,-0.059874779638497945,-1.5384165356531958,-1.4263888774529299,-2.626469290907665,-1.9498707316181048,-1.712328232452042,-3.337115931659598
96,-5.959641858006558,-2.5179503157256273,-6.533703806543342,-2.5361182216229525,-2.8135602431377738,-6.163534722795537,-4.476561081662264,-2.1546038864213584,-5.954161646054267,-3.2104121318660677,-4.902923623612941,-4.930414758775618,-3.2736423955667737,-6.121737484918542
97,3.2871835997920336,1.386049633232304,3.3464772798025013,0.3186433483011389,0.9230896659197713,-2.149937458440057,1.7319092164862373,0.5238684771101281,3.055191410677025,3.3711390692421266,4.2578200011557295,3.6157561560060834,2.9797402816932093,5.466194200470708
98,3.930415641051791,1.8920801846035693,5.471933661833236,2.3389290587770155,1.9860789634694338,6.456282033248344,3.240766095466313,1.5536809297036718,5.289745339155937,2.0901488185843062,3.4363006414018473,3.8039810879295537,1.3997379559889278,4.690924296231565
99,-4.222354915991548,-2.8972075397207155,-4.843683175489861,-1.8935890809646563,-1.9703069228397654,-0.18858553337068043,-2.7888583433741623,-0.6747455543005162,-4.4190784956720535,-4.718189666332628,-5.029998522028536,-4.784698845942854,-3.350064879494975,-6.933774516799868
100,-1.0113997738645883,-0.056009924488677504,-3.364994231581479,-0.9797594306680049,-0.3349213834439692,-5.315509156474711,-1.200869629003026,-0.7181142686615157,-3.688311599279402,0.0015280448203566304,-1.3066196224615034,-1.8063687766925747,0.9635933478279538,-2.1662254520033697
101,3.647118098447197,3.270077251600202,5.104459404627435,2.6047273697057722,2.278645968817214,1.976706044703649,2.801362596100329,0.3475365804544182,5.113548571384796,4.906090651911354,4.538929682212368,4.9152408072541265,2.5334103527464067,7.048305626604372
102,-1.8602431379998459,-2.2317345470435592,0.9911882837073057,-0.9914317758369061,-1.696064618784088,3.1048814073782545,-1.022429457041292,-0.059988693060750886,1.487003088320351,-2.332149642899053,-0.7060591853897977,-0.4696266974549377,-3.099757011158313,-0.6307635760750228
103,-1.6550704144412531,-2.2678019927169806,-4.022385691493385,-2.0823677329761177,-1.579428447270701,-2.602198831761538,-1.6326017211988242,0.44691514296073015,-4.781703775874638,-3.8372085943447014,-2.8767136949024414,-3.8206149703765235,-0.6651637371538366,-5.631681816677435
104,3.8092478658081093,4.077685853096857,0.8287831601606623,2.786831385304098,3.4791207870000322,-0.5641070027221842,2.7100074211202587,0.47155815724824524,0.7316021858777124,4.128486848208418,1.8811570166040912,2.2942436178991397,4.377812914652098,2.7680943749707447
105,-1.1579367262794813,0.20010023639480734,1.98230612805716,0.4348228495703988,-0.03536749151019277,1.9158926258392044,-0.41222992700285943,-1.503407184018956,3.3843218740069085,1.8789968285820418,0.5804773251224108,1.7556395863899485,-1.7654526733664397,3.0746949489665116
106,-4.332192683291222,-4.80175760822971,-1.5418526505875274,-3.6821282612229638,-4.417119856060287,-1.4901701113800947,-3.324612167128752,-0.3183729488982859,-2.3272062233342115,-4.868264002986117,-1.8548333796546477,-3.089862795856213,-4.4662042664533175,-3.569141358631197
107,3.944198690137546,2.231910961938026,0.3380298657385661,1.7954500394892219,2.1149570412111363,-0.2705882189331143,2.7078477530754097,2.4895543231573933,-1.2469791178118275,0.3213539061603801,1.621028244636631,0.6901118183569688,4.11370777819128,-0.1558518189081881
108,3.439109362089619,4.173660764095048,1.021864227768981,3.288734692479697,4.171295086179562,2.484172683840774,2.7054887366159304,-0.4005849832610791,2.8266336906398437,4.433890638948028,0.734493413852175,2.640527398708366,3.411150105456279,2.845252576059676
109,-5.927475519671848,-4.2298947741923225,-2.2432141558474488,-3.843717171016818,-3.996029658467453,-1.6480008668256736,-4.546905396998833,-3.069606234606027,-1.028298012780474,-2.099993969388065,-3.1270393793822824,-2.828761331768599,-5.809102405546483,-2.2753657561087897
110,-1.5888605243921923,-2.455118367398009,0.45265634302193386,-1.6918831704208555,-2.808451293705063,-2.2903214314363565,-1.1097957038456623,1.4824239836703907,-2.1035021776274405,-3.0938074448320703,1.0100192748148733,-1.14035942006863,-1.5720265970025307,-0.9171068483286146
111,6.66428372306773,5.201388826475328,3.250442721315701,5.016585882146706,5.051523671775088,3.1163558946756442,5.392482495949295,3.030009678427858,2.7626278749492257,2.9983486011430576,3.689394578360225,4.1249892600864415,6.525655918472602,3.60523739382485
112,-0.5305996236961801,0.2535338547653731,-2.3498117485616152,-0.5955403684750815,0.7918883642467414,1.2336264118288285,-0.8994280267931251,-2.5925975865076625,0.4421768528788918,1.359102820151427,-2.80084245864316,-0.9160984047127275,-0.5362577953262865,-1.5519603075392725
113,-6.150465461056959,-4.954151722213143,-3.206895328505139,-4.950931319243091,-4.941816728473538,-3.6612971984817237,-5.0523595260602985,-2.3562840444833424,-3.445453247153008,-2.876713490135127,-3.4454006636748926,-4.360131301512774,-6.244037307202353,-3.637001329022998
114,2.2708943353427644,1.7344684558406653,4.0816381595143945,2.840264165117441,1.1948491265163181,0.08801225307253484,2.6636708133059566,3.382684368090185,1.5490302899953134,0.20542971374322053,4.209189859656808,2.9342014099664406,2.4212900954900114,3.817594556228699
115,4.756301483370557,3.722015616638152,2.2895811040854372,3.7386511160269693,3.7538624794551003,3.219504736554157,3.722916155139805,1.2370149863012496,2.935473621765041,1.915373551033472,2.7723061078458904,3.6642054457456963,5.207662905551741,2.604004109435183
116,-3.2337146564939405,-2.9809419487051336,-5.181743104701423,-4.371850007749982,-2.5206404067901436,-1.077623190827132,-3.6567876551106306,-3.608178427705028,-3.1577195685901716,-1.1533923035090197,-5.091308849911683,-4.424329195997854,-3.751168883946424,-5.304638428074602
117,-3.0425960807703647,-2.03330008099325,-0.9176379410408483,-1.8731037151170247,-1.9602619476727783,-2.1116686455995803,-1.9002933250542946,-9.385337508240147e-05,-1.5310488551477208,-0.5314379514502802,-2.065277727681122,-2.4282400669943223,-3.808982592965679,-1.0410437344427472
118,3.3585857094955562,3.291988432866602,5.428854254422829,4.829850194984589,2.8541362859814727,1.381438806594573,3.6543552782840596,3.2076265744070422,3.845580856366817,1.2790201684033708,5.561597398193787,5.1448895318229875,4.421239116819419,5.7690030142271285
119,1.5436055288457928,0.4881451745132164,-0.38953549990921366,0.04363277032905079,0.21600526779066706,0.8600549819172659,0.19721018548566008,-0.9937131167600086,-0.13628711904936033,-0.7597415383662619,1.5612788419779384,1.1432781412381599,2.451691497893152,-0.42316466738993674
120,-2.8802529482339323,-2.8319559431634445,-4.898536327972533,-4.2801895584640866,-2.2753371022454627,-0.9992065860352999,-2.7940588342430743,-2.320672979195478,-3.471318840390744,-0.6698731347205408,-5.851496475647257,-5.148285834173672,-4.545218891299989,-5.336528930951866
121,-0.5962738622091454,0.4645101521889185,1.178935324526979,1.1372432435513282,0.9121239161597903,0.05573621703337424,0.8722514766297046,1.465699454758018,1.359814729236249,1.5121263524189987,-1.2834491678572892,-0.22272653886605137,-1.4280367621005179,1.2825232921940053
122,2.1933888779357904,2.0139069415348025,3.9282958626485094,3.159706758356939,1.2083667471585886,0.22993551872423212,1.5105998277430892,1.2413583317839136,2.350566863711882,-0.32870307235411467,6.150696972534599,4.724483258000919,4.383167437951987,4.42019191593749
123,0.263528970226669,-0.6697213283625102,-1.217394479968238,-1.3653992108744168,-1.161904771517611,-0.39243249156813376,-1.0698292651023333,-1.307743359048053,-1.6645801302180232,-1.504999483315767,1.103034473703943,-0.1368804843931916,0.8403005096025163,-1.3162556757045318
124,-1.6846874286481297,-1.311005344760969,-2.992196031666094,-2.0764621046718736,-0.21700026136905123,0.5033332503980495,-0.3654810961088506,-0.3215748792662754,-1.1081239396343427,1.2430868292646413,-6.514573913714322,-4.263460063477518,-4.228886020371942,-3.5459292267089504
125,-0.3607821912849621,0.2859339965330998,0.5787353037258873,0.7452818287328181,0.6501794966461212,0.2088774611536572,0.5100869796934274,0.616632732709051,1.020031046879686,0.8282943004875757,-0.8566541876933413,0.010525552877371204,-0.5869507165744021,0.6483712344476783
126,1.5918363030872205,1.0661235195831351,2.513748401402441,1.5501932769546987,-0.23884304065889386,-0.8578641220943553,-0.17163886131796835,-0.14525395818405412,0.37861983801328464,-1.662921022563744,6.867071657974215,4.084114490420428,4.289046089852223,3.1436029481538372
127,0.5623344247551895,0.31385808389614916,0.3840012835587194,0.278391778244817,0.2123649127335932,0.2075619620621444,0.39724893140660694,0.3383895773752013,0.15514450827959117,0.15471733925122655,0.44441839929949195,0.30904432348801375,0.4220129482977893,0.32021419129841716
