,AF3,F7,F3,FC5,T7,P7,O1,O2,P8,T8,FC6,F4,F8,AF4
0,0.018120445638026193,-0.0045739300624951275,0.017101403421118752,-0.01972464317911806,-0.06490277931713176,-0.05852287261957892,-0.09435010760321813,-0.04224949821871439,-0.006517179309551487,-0.025684532200876537,0.03636067278883284,0.02360863904502858,-0.0005625443999964855,0.026138065732379846
1,7.1154509199065075,5.08573001937797,5.62914277743381,3.2316239028213136,2.05230475004615,-1.5608897846372387,-2.671313273366683,2.480635518780079,1.484242677948797,3.869884973854188,11.095277169554974,8.624603077280705,7.680798813678816,6.43589724357104
2,9.190384282230674,7.787779592658001,7.5620542120967364,4.90758841384604,3.931170659615662,4.259281524431429,-3.383123155671389,3.7440129969879568,1.538475129852845,6.586821844860357,13.854845178467299,9.936105577669434,9.482735128745565,9.0006563726292
3,3.5620283779278505,4.681707281123975,3.237069316203935,2.6528790753650973,2.66102512051089,8.80588987865199,-3.8554974794855688,0.46285734903882086,0.217853108455434,3.5294808283103,3.9790526977932363,2.7328624855834227,2.8773139257813205,3.9834368455855693
4,-5.276845548684009,-2.8092994420487627,-4.065168541484631,-2.3586455064031444,-2.172487579774836,0.9582383981600308,-4.717001082333842,-6.103492627108144,-0.96533002494762,-5.100436406882579,-10.992654602144887,-6.249782948709498,-6.561662407779889,-5.4506776671094315
5,-7.811299001453155,-6.829371994460327,-6.222109041453857,-4.450805967964006,-5.260077474067565,-12.23373928766417,-2.5707513367442103,-7.6439727555625225,-0.8726100280769021,-9.59350509351893,-14.643946080447668,-8.256799578259331,-8.353151918558625,-8.651508065351038
6,-1.2927234202372475,-3.130764740809667,-0.8165257090746296,-1.038162601415784,-2.635970413701557,-13.290258980674034,3.755112718784505,0.06256333664321301,-0.15140561513022255,-3.050958389636369,-1.4199131006425478,-2.004037803227224,-0.1030330422361706,-1.0961900382516594
7,5.491710741248577,2.426759682919947,4.305158144349293,2.9525562431951524,2.097513622135712,0.38292255876250725,8.575836271098725,8.779920208777972,-0.054413007367477915,7.032261137398207,12.99850247284795,4.930311476821129,7.459774650149917,7.175865147287936
8,3.831793713847765,2.6047366339918443,1.8953740084387884,2.1255965931135297,3.336715204234155,12.679901835738542,6.3019201666306595,7.963895069727056,-0.38767430724216356,8.206370234936495,10.74502707203449,5.26619996526518,4.125311554760589,4.660944784187462
9,-3.325933874659727,-1.1476981543803826,-4.2166214020124535,-1.890441813832548,1.3390402413809226,11.057137030975495,-0.5229476392052926,-0.7991514270379105,0.04911276456500363,0.17326626187781022,-4.274485839960185,-0.12654749931629408,-5.49753949878251,-4.96656686654126
10,-6.4175682030710215,-2.6646700513837596,-5.142454463203899,-3.705839517321974,-0.1041133967122444,1.1990751785616602,-4.892697978002964,-6.730186194327326,1.215725003997983,-5.975129647626734,-12.552174688958047,-4.747615785113101,-8.272470743921017,-8.238762837000582
11,-2.092224902132921,-0.5343708602880113,0.413035281585517,-1.563451322315976,-0.22175238318400753,-4.191866932555311,-4.152381231354508,-4.446027005867527,1.5550324154742958,-3.5909448035869636,-5.627038932352618,-4.157932683638846,-0.568361123798419,-1.1403749390643967
12,4.142639340028309,1.8851294503226728,5.536296745469195,1.9037325580860542,-0.709004142895692,-2.5879665639011957,-1.115854552288731,1.213005866729983,0.2359170975100227,2.22914526263077,5.474871880093198,0.38790470017655554,7.555130994757034,6.385090538778996
13,6.0374671368801796,2.617541398160932,5.095861807758583,3.760681754596036,-1.373649620737061,-1.3312440481851018,0.9964047249956093,3.6163376846325628,-1.5774204259786142,3.495962543501018,8.138173130124816,4.185632825475904,6.547319345085002,5.513122385950627
14,2.9663420878162,2.1790732149457983,0.9032882333447412,2.889798875492236,-0.8450854810430191,-4.515879492082301,1.0175893896807395,1.6256829264359278,-2.1810276721766737,-0.4692910329383325,3.065180184390969,3.8099461241416357,-0.7725031580427026,-0.23685974735942908
15,-1.2966165034937416,0.6923151624187024,-2.5688650548333167,-0.038260773212101785,0.20219033202044756,-7.188618174037753,-0.7256481236497204,-1.6817165337996034,-1.1495424666808836,-3.8412064364364946,-1.7147845209611998,0.44333415812631605,-4.661462498397096,-2.280680993848727
16,-3.2055072227964048,-1.8127904933656962,-3.2738257491222256,-2.6931642689532924,0.3076915491203249,-3.176058152175662,-2.2794439233906663,-3.1775695362513803,0.6629054388380675,-2.29942691226211,-2.788802498568633,-1.6982569426442349,-1.7843291949246634,0.42005369510925394
17,-2.4175414463638676,-3.5032585738961894,-1.9413165149491154,-2.733230835835881,0.1898690794797069,5.701703532207191,-1.0513870774628615,-1.7232729037272516,2.0691325618397682,2.1260534045197663,-2.162149710925378,-0.9311454117524092,1.7178398099764682,1.5567254613073773
18,-1.0750891485578518,-2.43487145580726,-0.22137290658941317,-0.5028074158848217,1.133515771337557,11.075972942754344,2.608065489677678,1.4543018984858664,2.1677970497841867,4.133928899783685,-1.3678536992869728,-0.15332746336281067,0.16268135755150448,-1.9446710446725837
19,-0.4110907317611529,0.6495452207371295,0.7510747542934856,1.446544911440895,1.8543477072640784,7.700677557892362,4.71936517253321,3.8426299579891223,0.8860622935279888,2.006757486842135,-0.004548854295375937,-1.5331199672370983,-3.3566029354836675,-5.144792398842473
20,0.6649443243463187,3.1081177314677495,1.0134931684391597,1.6656167119177672,0.3154210217671396,-0.775919356630361,2.7300595817515765,3.884373154579827,-0.7668259759759666,-0.6268373692919615,1.5949872245994199,-2.323796504369842,-2.077656294740759,-2.4476978682174986
21,2.2812532237176195,2.8733105730884447,0.9433192260211583,0.46805406011101247,-2.345782943388924,-6.562283733095984,-1.0339323358989028,1.6050625255632334,-1.6972229032294641,-0.8735472028503372,1.7199003732407734,0.1301279042444669,3.350438153174149,3.6178733881271774
22,1.4981806450282382,-0.44876600488522345,0.03535340095641949,-1.9087438424495766,-2.9448281537137486,-6.390110073829443,-3.102861408262972,-2.5282189841025096,-1.9190225023735459,-1.1187972430890432,-0.4246744668576913,2.4198425044407696,4.847442279494913,4.937703487119492
23,-2.7237909013281705,-4.61213307102299,-1.7753831094253505,-4.299508956331853,-0.7954126568965169,-3.3134512287554565,-3.2681546548446514,-6.876787851517582,-1.8245787966120093,-3.839607546905919,-2.9545429837526678,0.13669040252566733,-0.7388314243028501,-0.7138769377722621
24,-4.913108003190585,-4.806873853084459,-2.088214127738474,-2.957501032480577,1.6963722906525582,-0.9871310649826128,-2.734732596663125,-7.256074483985838,-0.7712637792264011,-5.216183917988138,-2.5838748696991494,-3.3020340449659744,-5.56281906344657,-5.24930942540752
25,0.4102419871518278,1.4105989936493455,1.3332749272145294,3.8597734103872567,2.6302075585236535,0.5294713435962178,-0.9020593598923664,-0.6807752344401168,1.8409368224088603,-0.2506979939968677,1.6290727699810836,-0.6512001514265621,-1.884594948798065,-1.0451409418101723
26,8.598322182106328,8.668829625361418,5.65901551829509,10.141113816476249,2.2147384042939215,2.5908220301194205,2.6170168014665687,8.609129242572248,4.254233323543775,7.503967338802561,6.0387164112400615,6.642812554448003,5.661041887848074,7.224821113273854
27,8.715443541055363,8.092873934927669,4.909853170404702,7.361118918075437,0.9688886892824492,4.467660018738042,5.027083954556473,11.488525754764176,3.4549307829205347,8.889713453159125,5.608464163642315,8.395218559334,6.198537579470014,7.937055256636529
28,-1.3486374414685627,-1.2591066626450425,-1.7735409289681232,-3.596489948776734,-1.1721038738595262,4.026050280137666,3.1255343813276224,4.343550114728124,-0.6939556552251582,1.931680424749291,-0.15537985601630094,0.17813944473282103,-1.4465369414493006,-1.3205404913959287
29,-10.900171847880593,-9.942038067683791,-7.772141650274366,-11.940197261632463,-3.5132932942979433,0.8317490125785832,-1.8538156449829484,-6.381958040952137,-4.427888275126186,-5.543881547424398,-6.311811573824677,-9.672803588009556,-7.266686448301142,-10.145598380780559
30,-10.190891760468793,-9.391065656116917,-7.052530604142442,-10.012786450775256,-4.123044462147418,-2.868404323726088,-5.074379384988875,-11.521605762144008,-4.320144344979598,-7.017599339390288,-8.004268468366956,-10.896112398809649,-4.710211958221505,-9.076505249840071
31,-1.7258937381108295,-1.5267602204630384,-1.155410129190749,-1.2505859761503446,-1.6224345838932603,-4.2491643553201115,-3.594684548124425,-7.93764487132457,-1.0679639568021932,-4.139417202426444,-4.659642488617781,-3.336545879890212,1.2270912912176264,-0.5766749591284853
32,5.478728122737462,5.37034732957135,4.149443003930222,6.330710932577196,2.849868036485198,-2.656005658141641,0.8098515715440084,0.6827964671987835,2.035946529036285,-1.000959179432585,1.3489269833104263,5.133524361794015,3.0570180111624534,6.109760266626281
33,7.2610885809181935,6.678366978613982,5.929422945113293,8.83614095234337,5.857206868337672,-0.08264442836033427,4.151604698654285,8.065080284551232,3.0423548506328717,1.8069113528265905,6.839194739707839,8.184598329732912,1.2236036842871878,6.183861312921122
34,5.61962940215491,4.179072434128416,4.968761258720479,6.629498112992934,4.500364885181146,1.3403639914436747,4.118525120445548,9.351975979093492,2.3806948133371186,4.681904170059056,8.267212538580013,5.544652478240582,0.9842330724411075,2.447718659354032
35,2.72287696343654,1.232481331762251,2.22984660659247,1.2569072190666337,-0.42887717156115873,1.6855936593323033,1.3553348315170866,4.2283540305340335,1.0104082381122756,5.723114350206928,4.151375294038346,1.079879211348237,3.1209114874059147,-0.0022631604811785
36,-1.2102075048344236,-1.116322988595787,-1.836185080303458,-4.42141037111958,-4.719699141687037,2.0265476870821604,-1.9351692122925117,-2.4882255065723853,-0.6493969619867089,3.3097680011082713,-2.0189797889237533,-1.2987948018078266,3.2037262063518144,0.3634537459023163
37,-5.11913352371149,-3.230943857369558,-5.242177178048894,-6.572939035407458,-4.928849383045318,1.905003333076222,-3.8585753489876304,-5.423329513969008,-2.0766362186344836,-0.9495123157913193,-5.067961658614272,-1.245882077543174,-0.9400261223011992,0.6916532241030534
38,-6.358524537252844,-4.560734428812109,-5.210476556547968,-4.172790941658474,-1.8023246168693934,0.1042218310301789,-3.674709387246963,-4.301083303773318,-2.418661599699211,-4.2453375784473,-4.58034739439195,-1.9501564467280748,-5.583373015197056,-1.9250377462238806
39,-3.86832877304234,-3.739312636048891,-1.8615549610276476,-0.6016987788842456,1.2154991190705164,-2.5215687913016884,-1.7013032157886927,-2.9249276787978755,-1.3914714575826699,-5.561249999884266,-3.900326313872626,-5.1780078993880965,-6.031896240020543,-6.038519252166635
40,0.10959709998551992,-0.5778946244101045,1.2817440717892017,0.8761359505161811,2.241523870183431,-3.335782476444544,1.1651160741963513,-2.6416615810071287,0.2645173965213074,-4.954888551015678,-3.236169009448932,-7.316643906343829,-2.2716306033269746,-6.918600211355716
41,2.8604511056866495,3.112127612352812,1.9463431125218733,1.3887354012153081,2.313611125129766,-1.284889556410966,3.818034213449738,-0.39663201547556665,1.5016480340381226,-1.8677021584485944,0.5042474956506161,-3.1582660248466974,2.1310887569509007,-2.018518272991447
42,4.183029424992746,4.918153812602641,2.043636020427058,3.4006303423166684,2.4182479442288245,1.65535289451108,4.834758471051434,5.059257621956195,1.8060283935739994,3.4216778389949134,6.51383386625963,6.242160621070537,4.760362868619575,5.7549244652994345
43,4.912137771062874,3.684344632148574,3.644295367658997,5.165359796312269,1.2879772329642107,2.74983467092869,2.726093218631085,8.64903474700502,1.3234749020961587,7.655200541763895,8.791387746146022,12.534425652341564,5.513109103486035,10.38628936481085
44,4.021702282954231,0.3162297352454954,4.309899507331746,2.6863874194250537,-1.896881350479978,1.3517004911392414,-2.164130841395955,4.76361039692308,0.48221521060677897,6.795827883723096,4.032405408277418,8.894962937525953,4.171289674713436,7.918500491737053
45,-0.047855364995421805,-2.696045332744492,0.5029011713097042,-3.0420225176117968,-4.26600490185952,-0.7115009581556961,-6.056742277126523,-3.9114855209339567,-0.42345923026172183,0.9908315128980039,-3.7105389232418613,-1.7174429517213372,0.03820306128317008,-0.11680618100951254
46,-5.541248023751816,-3.209007729646249,-5.44956456085519,-5.943823781627871,-2.29102926717048,-1.261810762636238,-4.585420786741833,-8.230680660048058,-1.3002524304101428,-4.7508081645916,-8.021898664325137,-9.66207346844219,-5.361078596995402,-7.734232779525435
47,-7.776161321749784,-1.6808076028947478,-6.965619903957784,-3.3941836040268702,2.2632279355913405,-0.08461129487192019,1.4679509348151911,-3.9995003810751686,-1.846219789019123,-5.9649928276511535,-6.394596075882288,-9.338743273180947,-7.833375643081296,-9.507022082822774
48,-4.457932750638704,-0.621285709635101,-2.440806318219844,0.18363311175446695,3.5905396499742253,1.0742456585989284,5.6914459069327,2.7328156520540476,-1.3797693311827521,-3.3069732369931377,-0.8261984303162428,-3.9058598515468823,-4.704826667792953,-5.211294551442924
49,1.2682180079248302,-0.9633645786210314,2.2863951907118483,0.6560325861298725,-0.035632735625901246,0.6155939726451258,3.401678292605152,3.8994602874715696,0.29326694096145556,-0.5601159704569133,4.405717466650507,0.7871012501194589,1.5690077281782218,0.6814375531645304
50,4.607604973684005,-0.49995935363256583,2.6462173143744745,0.23828755686366507,-3.4577655409480204,-1.3098849311748446,-2.35381629912288,-0.48397132987171876,1.9455641051942092,0.4697718457495669,5.242410783475636,3.2966729508401897,5.723404416175627,4.063534344951689
51,4.6911524009043335,2.49911028807844,1.4900048565673405,2.569194044023848,-1.827215362605687,-2.92844231622075,-4.612444073972251,-3.5550185575753472,1.8866965549471102,1.2694241959732395,1.5456439139871614,5.57985226166802,5.3674654419693635,4.897654168322279
52,4.149750095974492,5.600643121752556,3.0841379136266243,5.6699807400390085,2.834854805077038,-2.0758808549624654,-1.1643829218421553,-1.0108974267805895,0.20851369122419483,3.3063806865697987,-1.6704379028591962,7.503200595872327,2.7712968229430572,5.374274138410529
53,3.6922435645257448,4.564421291321487,5.235624302309843,4.470793726786039,4.761104822932033,1.6442770266507634,3.2743470541802004,4.000736391249071,-1.0404220957058343,5.1312164124177535,-0.15676684044657932,5.788391894549295,0.7902800030057235,5.366406505392951
54,0.5980235923681031,-0.9759689423671388,2.527543502942872,-1.529914919476848,1.7687454892303198,5.197388182917934,3.4926249134032235,5.324424356224232,-0.6339198174068962,3.6852880262464245,2.954133291407306,-1.2142166992945191,-0.9256914565001687,1.920235130485198
55,-5.782455720748777,-6.401093647963462,-4.678474881970906,-7.181861997353927,-3.030687601456742,4.373473044841319,-0.1043687654365332,1.0331860944125137,0.09425928359279129,-1.705025914140867,0.912214395647548,-9.576013010321985,-3.947758733402059,-5.610106971810319
56,-10.285235530521268,-7.176169650732743,-9.65146873085044,-7.754249315779738,-5.466658659411948,-0.9984054446956496,-3.0563886996357374,-4.660262435424588,-0.476601406583664,-7.376559964739333,-6.099178579584718,-12.28760778671927,-6.754389819203461,-11.91551430285914
57,-7.292690994967751,-3.3535755096656605,-7.540642754176435,-3.3006199163514807,-3.972455292180867,-5.9136577170048374,-2.7705418028151603,-6.1109816580742855,-1.363728223648853,-8.116923846200507,-9.31833741393295,-6.156633182024008,-5.4408296986318865,-10.209985729823313
58,1.608112189211624,1.7998455396425208,-0.3023031342031029,2.740264307285477,0.2971779097903079,-5.648854732583659,-0.5409334583402381,-2.0084571744120785,-0.3445236547330732,-2.237698658492129,-2.552048907077793,4.470911536833113,0.8114135366413868,-0.320983876356433
59,8.876555447035365,5.710691859425527,6.689727956712686,6.8331838773525675,4.642175330346168,-0.7050507747070484,1.626278766084887,3.698623201500812,2.131881664759853,6.048626702735755,8.677467101284597,11.51852110305593,7.351700542039368,10.071630450513728
60,9.382621528964814,7.074426622104495,9.455190402739884,6.917748528208023,5.852991364281149,4.5455734515545085,3.029490725163106,5.831075963576073,2.7365214615360958,9.515991600133553,12.54847280168599,10.313889557600596,8.469644292296168,12.831306982852443
61,4.511333271129819,4.462586401106467,6.70326144101852,2.928373666991289,2.4403402999698423,6.202217124931833,2.6746503104692856,2.491017481410456,-0.1253463065882338,4.431291314909554,4.615972282758029,2.796531700787221,3.2501604502378525,6.6792888096100915
62,-1.411193759066763,-1.869612828432404,0.08599404008409714,-2.6493058850373363,-2.8422661581156214,3.208239002779301,-0.5668787414555516,-3.339015037855726,-3.355613229149772,-4.613347846819702,-6.655136626625146,-5.008707627860446,-3.5437347800062993,-2.6074932679380765
63,-5.319725031763755,-7.2515898143871205,-5.768030408008501,-5.630638421989718,-4.715601157019485,-2.3848852222829335,-4.432300261549362,-5.898436301422433,-2.7617630317215607,-7.918609819455536,-9.418638770310743,-7.804167824882792,-5.9909702549758155,-7.747360909555612
64,-5.906616873929735,-6.122549096342482,-6.524756696685383,-3.5951887580603312,-1.5605152529593467,-6.453796399999783,-3.8524670172563558,-1.8966105106638256,1.2061800908551366,-1.5060232067752721,-2.3151550650851873,-4.698235463808078,-2.7007037084930876,-5.972840316026148
65,-3.2929041621714097,0.4973432737575076,-2.8810813420964045,0.9196709957793291,1.9980232155266717,-5.5850705524081485,1.8265518137020869,4.964205628857363,3.7039518257693755,6.6135384890837905,4.319189745360727,0.3823898868770536,1.6777955227832213,-0.970533374377623
66,0.39163942929373513,4.972079529401495,0.12015395349597999,2.3677572123191797,1.2053277574474774,-0.048060575606434966,5.838834738183459,6.651146818962036,1.7605560515736283,5.423915589009345,2.1253194140282945,2.408959160314454,1.6156219650736479,1.2027789782470482
67,2.037296112578532,2.4788612712479843,-0.442095035773583,-1.199125771667877,-2.108950256275405,5.977042683675405,2.464943855996649,0.24029318666659477,-2.033208295952059,-4.354895426504658,-4.476049312019129,0.18521910652629692,-2.5139876639556915,-1.2407487993672583
68,0.6692904323030602,-2.9390454393049095,-1.719931989598598,-4.83684358875095,-2.4863509287996735,7.443494331630539,-4.332251836425475,-7.277097374112973,-3.2538795145783186,-10.401589637386255,-5.074884293673297,-2.7087795518954736,-4.83307555189901,-3.9288243484912218
69,-1.1622663783320082,-4.205029834289335,0.5773682694636045,-2.4553734439478707,0.9354222582616678,2.6728673632727906,-5.815119563830274,-6.914627173821078,-1.071813929750734,-4.859328571163967,2.205170511529674,-1.9146912708502337,-1.5070296958686282,-1.643407541119997
70,-0.10855606754310468,-0.06534154624263006,5.788529538510116,4.79758359934312,3.5724286636145406,-4.546472469841276,-0.43158932295109714,0.9934159261290179,1.7569457910942987,5.996396320999804,8.788620541793037,3.2160422191793354,4.8070769009445415,5.347551335842326
71,3.891548957366938,4.788453958695237,8.3751183019156,9.117123861516673,2.5162813269351467,-7.927273744769912,4.606073494980844,7.411991355653525,2.7751022387916424,10.97824770839027,7.3920301449176415,8.539133393606933,8.706424948508113,10.956089196682832
72,6.7981915905277255,5.993631808692761,4.3795890636290125,5.563650146899763,0.035905763347233256,-4.8445277701501634,3.752751058992735,6.027295225671359,1.6872952481058878,7.077968875629324,-0.009316098926380675,8.064297579143124,7.184671707941097,8.957436611627415
73,4.3527631459787495,2.9170785166094384,-3.6426325037267215,-2.1295069093852605,-0.9198285653651818,1.3077596319657674,-0.1465765628094789,-0.24822835638413165,-0.5946939949896575,-0.5930141367487686,-6.532271396951976,-0.25064443804270936,0.5417948044820431,-0.7427776939857287
74,-2.8761639437661564,-2.2671373940813857,-8.965951787259897,-6.716886924928263,-0.7810798050991359,5.515044619792133,-1.4748067033903112,-4.674339401195145,-2.6431960916107635,-6.758414162408613,-7.754819395314792,-10.374214264643983,-7.897055234338092,-10.915332583284258
75,-9.048780521044716,-6.092736247373724,-7.57710025085939,-5.768929960945957,-1.212892782443042,6.035782123067325,0.03865077826771257,-4.469570673922382,-2.782649789329447,-8.799252621606954,-3.556022686563656,-12.549036327421337,-12.014849555078877,-13.070614788305189
76,-8.879051344653732,-5.88688247532938,-1.934850491345203,-2.7083932201624785,-1.9255423752058802,3.8283425754036005,0.3072771110970548,-1.6378979594663123,-0.6039715593031789,-5.546806956573635,2.858093025967952,-4.421954147391085,-7.44029889952491,-6.038198525289137
77,-3.311325903336,-2.4618606719768774,2.435156770761713,-1.090635546232549,-1.6355450767067816,-0.24572360043355662,-2.117742911973357,0.9501190363004727,1.9743101791774222,1.140245639375639,5.962024593935425,5.145079759416373,2.279582844461868,2.7853278593117876
78,2.533412473684799,0.8052938139896885,3.3273246471818734,-0.31021429126796923,-0.23671086155393992,-4.991762291931056,-3.8269908990491066,2.207642526634904,2.6721287846438964,5.822256966019068,2.165363820367277,7.201294094572671,8.345671042580355,6.396428295868871
79,6.0592305150002455,2.6444587243274467,3.2977987268315565,2.432786644990653,1.5113427982971281,-7.420161631235293,-1.542408494308478,2.6383901522429487,1.5010935509018648,5.146251387988914,-4.51183027044542,3.968891734034804,7.275258407299073,5.906068471080369
80,8.106676408995424,4.744087941219259,4.482439438603838,6.832453198459938,2.836504345272528,-5.082089871991693,3.100961042824422,2.5734389469683174,0.04589188581427169,2.128436019370409,-5.0662792612540715,3.0410066739034134,3.912727562239773,5.983609750053265
81,7.704954138653651,6.6613926568993795,4.574135821819106,8.065237108615399,2.6128180867445634,0.42723988718113065,5.174440265087971,1.0348745185541641,-1.0932117993269983,0.9734462745052709,2.904258166882814,4.08789260017878,2.1471965566666906,5.72777487457346
82,1.9001543950907,4.302412252025102,0.5141952923935821,2.5315148485520993,0.21017821813157522,4.927643978206936,2.3546509670657834,-2.510119112157453,-2.185655814515079,0.5104034042037301,10.055725507052744,0.5029942015685819,-0.7443005121122659,0.5005313780338495
83,-7.260791465841142,-3.2574020886182464,-5.550956767573474,-6.055979679294014,-2.5126943495637097,6.380093061582229,-2.107021469407049,-5.469211975027355,-2.3992275171146007,-2.4555143714763727,6.315189556425611,-7.064076363169516,-6.573569078172751,-8.106714872224323
84,-11.63316994901138,-9.444832517060808,-7.865698608059053,-9.74566887735967,-2.5334756134480267,5.6081472721973595,-3.282532916472772,-3.9153021120762874,-0.49808826485014596,-5.879915733251632,-5.562888465218736,-9.50445874515973,-9.713054755661334,-11.63275624280909
85,-6.7374660192813565,-7.50138773970109,-4.410021083447854,-5.806951231848523,0.003290113914053802,2.871660238044183,-0.7601121891414713,1.8275695206726685,2.383938166874791,-4.540036174706742,-12.699312919202844,-3.397439334497509,-4.580371622549266,-5.875765233201321
86,1.9652743377783164,0.28725139780434616,1.0066610107190852,0.5945410049965076,1.4883386662737763,-2.463761570794202,1.1572678065955269,6.130030125187988,3.14928869615343,1.4120305120660193,-7.5584328901621705,3.5215574965980787,4.618320281053729,3.3372326021867
87,6.460164581015208,5.611290352676928,4.306154999721438,4.031673266809566,0.13816663378439678,-8.084267780533468,-0.12818885548395406,4.604676951499346,0.8029400154814723,5.62633801541164,3.927352370017117,4.6537174598802356,8.552442540394544,8.008885429857644
88,5.72048239452994,4.8972193292249795,5.094227399973658,4.722726572674678,-1.364117443119552,-8.719175694457498,-1.7216250656269105,-0.43117608754182224,-1.821314591648711,4.109164737271289,10.262612769097478,3.303792386192402,4.9826737926641265,6.681207710193669
89,3.686711575570815,1.939586755642919,4.213537331686224,4.754025522176297,-0.33171189674478596,-2.6062788360437152,-0.03768523939827961,-3.3823181485475793,-1.7255266437721675,-0.06535259551684008,6.8602920273083186,4.06646233494828,-0.06175770937240764,2.728311366605977
90,1.5629094147593938,0.3962273523798251,1.2679216590122084,3.042766460654803,1.6561087152017775,4.8724827095385805,3.0317478848551365,-2.558063974272206,0.24610924989002617,-2.2407798217708716,-1.0442857206427714,3.6353942194070354,-2.173445217228217,-1.4026210589990604
91,-2.317600732319835,-0.7436469305619404,-3.229289243374873,-1.8122251958883497,1.4764487620252857,7.056780592016456,2.4839258383861944,-1.046284099027969,0.832192509036495,-2.24399164441098,-5.8505294344497125,-2.4105371702806675,-3.0227812512281687,-4.681759403022479
92,-6.650759016504494,-2.936429154868752,-6.107619054681088,-6.5944724300239095,-0.6389330036722234,3.6963309682667083,-2.069722498638864,-1.2090515943676448,-0.8085357563521883,-2.180888273211422,-5.27419402601586,-9.327546032705714,-4.268515407052843,-5.4809720118079115
93,-6.804309343514523,-4.166318061803881,-4.6767537434584945,-6.249744741437803,-1.7804786289508212,-0.07016680021893783,-5.071275490250517,-1.4808570998491537,-1.8127524597581455,-1.5360794124016937,-2.183497375269515,-8.28656493802101,-3.4183897981826004,-2.8883383911376312
94,-1.1409105286089871,-2.001991324706937,-0.15917640285229326,-0.8010710010127613,-0.7733843444545409,-0.9613463414180998,-2.312491382070236,0.5841624112652939,0.1244470561402456,1.4124123068153225,0.8844183980452966,0.6666252950651925,1.2006689660845944,1.3275343540460878
95,6.025517032729457,2.3646579916002817,4.025217226643114,4.500309822769824,0.8311353645727604,-0.5181967576305088,3.5356591886062825,4.198811966544991,2.9646306384938366,4.957011644264654,4.088330216678225,8.443455548512695,5.923058930866405,4.49030439334664
96,9.037852525820274,5.48573721452916,5.948656111624013,5.788926447332138,1.6334669265495658,-1.1765480366099914,6.357534934680377,5.721786960216032,2.747404935177433,4.9787599272234075,6.98847787021099,8.943479953975597,6.04682153663921,5.5126247654344995
97,5.9000780117744345,5.008070321339437,5.1389220571865915,3.729366865618672,1.552915230294336,-2.5186143099417553,3.5189598225406797,2.6315607697980843,-0.8152461567115614,0.4504052989048467,6.074162820749097,4.256005981700188,1.8124832045241726,4.019659491268625
98,-1.6392743689142102,0.5258409836968736,0.86610992527711,0.10440500769128533,0.28710200348106735,-2.5529018565991106,-2.243692760689965,-3.453242876754203,-3.5627177089278312,-5.106398039403923,-1.3109038707914331,-1.8685952958883556,-3.1048143281970773,-0.7529030410038353
99,-9.439177204994245,-5.937267871921763,-5.946126869354453,-4.30060090593281,-2.360474801952781,-0.8685490122505145,-6.248430807815463,-7.673166698189382,-2.3493925714806436,-7.51390549685748,-10.971957706042305,-7.928851226878711,-6.298716033972477,-7.313992083622771
100,-11.664069375557984,-9.18793713125772,-10.107422478073655,-7.171138584113391,-4.188387346355386,1.0170461841227245,-5.590314143802384,-6.2209577849314135,0.8746117043875872,-5.1350724295040315,-13.36326022427703,-10.69757620394984,-6.659170652340542,-10.03675723905152
101,-4.728190776242774,-4.624496544028062,-6.1805880468808665,-4.687124522113183,-2.0137307761628875,1.8547976718888086,-0.7900013148331096,-0.1521299324093712,2.10274174492015,0.8715930334918434,-3.924962277410013,-5.540565853555984,-2.821980456207694,-4.309938270024862
102,7.034755762859612,5.067077588822878,3.841128395578662,2.825628274665309,3.2760841564876753,2.018853602593824,4.531162601983616,5.57362263084079,0.8286633448476615,7.005353922348257,9.62482183627912,5.401852614765117,4.214922798874607,6.234134395259068
103,13.387415721641771,10.741455033341781,10.884586691870986,8.598582408184498,6.2075812198935285,2.384175398042353,6.241991003198146,6.99724688359588,-0.00571660894357244,8.866409341104228,14.390252579876806,11.954604174053767,9.077085508229727,11.775274331708502
104,8.81959590649099,6.994531950488095,8.725925530987176,6.570814210071961,3.225042013406051,2.3484445218068393,3.20303007755151,4.185105799910191,0.8429872217712913,4.728961465688504,6.995886017635521,7.769917723342572,7.021053001825582,7.284549009571498
105,-1.3736747396319724,-1.5984757547841646,0.5594402580657791,-0.9300343133606405,-2.6904841414186693,0.06422207858328585,-1.8854273951366045,-0.37243903991328553,0.9800319491143117,-2.188628277432613,-3.1013075076128866,-1.3306050659420676,0.09321231894636783,-1.689518162152836
106,-7.871507510481698,-6.794488083616986,-5.942785038582705,-6.067693814213642,-5.786739727269731,-4.354982253359641,-5.201630234193549,-4.316594119424269,-1.2560045392344878,-6.6387585253306804,-6.330143871255159,-5.5863170645544455,-5.236154130328145,-6.381659325231412
107,-7.489640691365998,-5.973482185889951,-7.0235636437751126,-4.973217531409938,-3.931309060104106,-6.870736897728764,-4.75539630914449,-5.912589510419723,-3.3307974743803612,-6.521409687285744,-3.943626114393982,-3.6787908008599164,-5.857974246914282,-5.080487908166552
108,-3.899986767989043,-2.434251876405547,-4.257810079583451,-0.9266187471772854,0.4429048884437908,-3.4395737246358395,-1.0506850648280393,-4.2720084073753695,-2.0113143833119156,-3.846646927709439,-2.8016054192811857,-1.520415550393458,-4.0112504287471795,-2.6849276544950977
109,-0.6830771721612591,0.5559417534298426,-0.45380857930399054,1.5354380881509309,3.850594808334751,3.791456102546337,3.5501298975354834,-0.429848282885926,1.4752793075796684,-0.9016904473972707,-3.945370660139199,-1.8680687604295494,-2.0341075297536646,-2.0420296311368613
110,2.175209211675987,2.4403628906714068,2.7780767108376803,1.8740987444585595,4.279601496315063,7.525538510411799,5.754388295884954,3.115297286728029,3.0099413280170477,2.2985497141934856,-2.363872581790784,-1.6659948935036828,0.6726774562057597,-0.6968848019103753
111,5.007748029970326,3.468557034234799,4.409697462867579,1.7806598285628574,1.7055391248921663,4.2610353232122575,3.4702572771776388,4.810414828779256,1.5430099458471587,5.869875614572077,3.6176877768671516,1.0034030835713585,4.370217299965867,3.2153294614448606
112,5.635404899742545,3.1955367061240776,3.6050539154326557,1.4255202611151165,-1.84763970394072,-1.1296141058623124,-1.6416751260449818,4.837204262912946,0.02214776143264946,7.539876834358017,8.560401186419872,3.4354175998511605,6.360393257523329,6.525518290852756
113,2.166132652099136,1.204908079060477,0.646631700824063,-0.023337746103015672,-3.536415459679644,-2.5841125208275635,-4.941421200750689,3.2168992567098877,0.19830260611431325,4.617629812760843,6.530069784956663,3.0423082440198512,4.076651299319761,5.126685087975736
114,-3.0503155963832924,-1.744131731679971,-2.5398993103652225,-1.7778402113086038,-2.437409401279901,-1.140748902695219,-3.624728710230786,-0.717779444410139,0.133549058312,-2.0072982864042865,-1.5956971384404555,1.0389456160461947,-1.1267907654187648,-0.2485846527868001
115,-5.087861697327456,-3.616893136577884,-3.5220756899103596,-1.8912472783172727,-0.27408168524710835,-1.5366742086075749,0.11778152078746866,-5.723875513571942,-1.701728929238706,-7.698100535212408,-8.457047736033568,-0.3849660191698758,-5.216116810349393,-4.986615667895349
116,-2.3384494892366026,-2.656851279851795,-1.49755588856997,-0.08994005518373868,1.3363183453926628,-3.438275103077586,2.1133959238141307,-7.774845548116845,-3.104550709647712,-8.268216259565841,-7.067688002480744,-1.1275195171168595,-5.460669551820586,-5.736180193511843
117,1.4159700611937955,0.369253246694465,1.6571660219114712,1.6466544574153734,2.522674612581069,-2.4316169174682067,1.2561776503972613,-4.290508558033178,-1.5196102101909816,-3.71016125811677,1.8426889750556696,-1.6322605113798756,-2.285784574743822,-2.7623602976856274
118,1.9761297904398905,2.389520013930451,2.967837280189568,1.589355583312146,2.9281375192599004,1.3840488883648465,-0.21435504072772227,1.9215859702379665,1.4977945706800295,2.1309223816916054,8.993787583585492,-1.1970912874595483,1.5901037416526114,1.327500348583171
119,-0.02947230291549284,1.559375468252213,1.2701879861529681,0.12893264432640783,0.7253835172247751,2.952832144306343,-0.43974337676172376,5.548861768166977,2.3835149229568637,5.2103098098679475,5.683140143899806,0.21004089289750041,3.2964389085774286,3.6202395758681853
120,-0.917792363628577,-0.4498440267985583,-1.6971853171131073,-1.2175823011624687,-3.5135885723221985,1.2124727044569374,0.36503198126695985,4.990549177396249,0.9414763324398308,4.792034406067557,-5.064686875614519,0.7672204096942816,2.285846168395142,2.86406932184383
121,0.34451873142346556,-0.9462726692034981,-3.1456558592718187,-1.6291265705467772,-4.879875592281421,1.3100002485818592,1.4729918147264494,3.055954835254876,0.25885393443151966,3.266909671876761,-10.359816570930523,-0.5310588629867227,0.8070882457808589,0.5692070048157952
122,1.2545193507773025,0.17616774194650742,-1.9009780723710286,-1.1861657704973698,-0.3487969738766969,5.039345359989175,2.345285061556544,1.7935363225528422,1.432725983578994,2.3248653804294936,-3.3475498461306863,-1.7835903522149776,0.7928408696723293,-0.7167779999900058
123,0.381367322991618,0.9125883091850547,0.7781628980560338,-0.076247981515917,5.083189948547187,5.656399099771504,1.6654680228448724,-0.1230067251392698,1.6995762418643758,0.5406065636393934,7.122041405069259,-0.7274274395215705,0.9902317207727028,-0.4965992438356671
124,-0.5566670724061218,0.2798413741637472,2.696225299354945,1.4193885787179465,4.002010759434924,-2.363336416487004,-1.5727745754272375,-3.8545561982221694,-1.078713439864262,-3.659387175299759,8.025709815150789,1.9229513293094473,-0.8707534249244789,-0.37752554159321516
125,-0.1695195052328678,-0.7499625974265657,2.737560853468038,2.3953816997313364,-2.3505922996182047,-12.579114919744509,-5.221898289796099,-6.979120653600496,-4.529790076457312,-7.747127821070307,-0.1191407537710275,3.4265912073282085,-3.751834830373227,-1.0921453834841368
126,0.24518949596357695,-0.9919712711305594,1.3722261898927994,1.7881840944179719,-4.954506225851174,-12.549947980084996,-5.036758692765801,-5.813808449878501,-4.380619249744942,-6.853044222460047,-4.875826253978601,2.344173358577823,-3.942200182811618,-1.3958848474210201
127,-0.4827931426165178,-0.3504296421990423,-0.42147798982801565,-0.2834586909221425,-0.14018139377056743,-0.13553228540888393,-0.17511545821897845,-0.26875778871597983,-0.04483015794739551,-0.31954115347321804,-0.5248705240428582,-0.4400372962344853,-0.3790028112433919,-0.4300052201591916
