,AF3,F7,F3,FC5,T7,P7,O1,O2,P8,T8,FC6,F4,F8,AF4
0,0.04636879319681917,0.020554822090647743,0.024174248949502087,0.010119330105092606,-0.01249383469955551,-0.027570515073957743,0.00413485114744843,0.022285353569084093,0.03737999025836229,0.09688132476259495,0.0562559338085274,0.012868861355990795,0.04996208933170991,0.12732307268899914
1,2.2646325040706525,-0.10231831965293321,4.100172283789542,1.9518643217756604,-0.3663632433770563,1.7600544032752148,5.005918605183901,-0.34038191896360387,6.409027089952065,4.8424841715709075,7.008427249363817,-0.3451822348478881,5.8564672022778135,1.9810995567244756
2,1.0077980526993375,-0.6249763470111996,2.8595964678102255,1.2124991282393522,-0.659781050194473,1.6051558934276153,4.9524487739587855,0.6499430668390076,5.021236530588543,4.75178922521284,7.784348701291388,0.4928421998140451,5.985386440927467,0.9167552692493072
3,-1.5967020026407581,-0.618840877173598,-1.1107634768148527,-0.8969175518065577,-0.6528486016689073,0.15596498248733706,0.9805895105682293,1.9232294462649178,-1.6799164456011126,0.8932114467710125,2.3114077837545683,2.016797951631563,1.383340995981654,-1.3921876494786545
4,-1.3298077418324585,0.3494107762907324,-1.9316149394677293,-1.22777633226298,-0.14562035792111433,-0.6699126843960496,-2.0581025945127975,1.325774483171605,-4.65323410287019,-1.9042413364605373,-3.888031754928748,2.0682868739428604,-2.3345896082597624,-1.5049413752299807
5,1.3701905937254661,0.9053285135507259,0.45826887465128935,0.3960768913707233,0.7147545830214089,-0.58383059585894,-2.190095489790919,-1.1007161762526987,-0.48187506422018256,-1.71290244478939,-5.5294610607418395,-0.4587225875967803,-2.2148669657261255,0.3653079960200481
6,2.2739051988760655,0.16257399171996204,1.270714355041866,1.1567659251925406,1.3517689177902577,-0.79280330171925,-1.3668470539586284,-2.7622230866282056,4.439608293031179,-0.9040256208982587,-2.178336092552826,-3.191349076122928,-0.6564045244112623,1.165280286636845
7,0.06805150148732295,-0.45512344374309777,-0.8186630566445002,-0.23087233265425178,1.0131983439543728,-1.3935900620406247,-1.1529508212083135,-1.7581363099434582,2.9170384087763366,-1.0851466211395628,2.209566251676211,-2.494098363783575,-0.6225887549587711,0.36827736996603716
8,-2.011204663445293,0.3506488005925428,-2.0747121242474416,-1.5981301016597718,-0.40442368612352325,-0.8365993029832901,-0.8003050231715513,0.788587230789368,-3.563487797202543,-0.7574806033968967,3.268852163322049,1.3402653870897394,-1.3952441361518657,0.42236477575897646
9,-1.4922479493651197,1.2284781185752487,-0.42193813613078784,-0.7242948377108998,-1.6668976405007285,1.4089127676145141,0.3589259832657932,2.3236873064952404,-7.167884161889519,0.7146232911885588,0.2536877366420582,3.5129559264237127,-0.8399923647362391,1.5355765206788006
10,0.12893220221610951,0.24929255174945145,1.3849058036623636,1.3346067737406522,-1.2977919891297485,3.1761256918417646,1.4625389379451086,1.7689121152565948,-3.6020125396642033,1.120414809156766,-3.1407136281948658,0.9262521878976372,0.72831948171919,0.556135274880901
11,0.5122091394030476,-1.89598242935786,0.6882378624811004,1.7911318101586633,0.24498098818274813,2.0443974918641357,1.746071602402209,0.03190260403217262,3.4983492325478127,-0.24022705236410716,-2.7403316095951684,-3.1931871889184222,1.4599704552135435,-3.1263742955263387
12,-0.19556063657075945,-2.8228549062513837,-0.9604023348497129,0.012707760017396185,0.8377049248012742,-1.1802928148532934,1.5599452150441149,-1.4791768475421818,7.58227896726786,-0.4536959848059312,0.9697587510800973,-3.4301919075923077,1.0157714419306407,-4.932363964119374
13,-0.5203663924512882,-1.4959643659943505,-0.726305075205557,-1.7163196965144962,-0.1242972560433783,-3.1469248647766532,1.0790669085741655,-1.8469018337439262,5.730979258709263,1.611135242838602,3.307188061757033,0.45023313551712857,0.3524226282652981,-1.5801063515360012
14,0.08535895782906366,1.259779110506959,1.1871609801660388,-1.2968046242293403,-0.5282254529269115,-2.1278905689230148,-0.2326640923317024,-0.8120310437279314,-0.056214766986919414,2.162332229001649,1.7114362592399621,3.496493510149311,-0.1593403018520516,3.4328968808903064
15,1.3654404648715808,3.9755367743459082,2.3205993508162064,0.5756466500951978,1.0347698577603832,0.20767069587021011,-2.1052946833849,0.9540366619553435,-5.392677064114924,-1.0602250115370224,-0.7597586619138653,2.6340962630997744,-0.40095457286848335,4.886252952991287
16,2.61622857309063,4.668959549884911,1.329649722520609,1.546459170042879,2.3601558027294347,1.4433931185382074,-3.0311987951351984,1.9763341752191597,-6.39002467821161,-3.554110612440314,-0.2323290787123926,0.17818462053241363,0.20916279952719008,3.1286113277548826
17,2.046898194818077,1.5104578298218962,-1.1057056003176131,0.6198459645908495,0.5981054826839448,1.059612186032131,-2.2127323221235287,1.2320684800068762,-2.397639845905985,-0.8835087065765544,1.7986739923288053,-0.7025989862617283,1.166060495667007,1.478819806452905
18,-1.5086015030529327,-4.16040250812109,-3.2624581782182163,-0.8696820667471306,-2.7590157635486925,0.05601961837594733,-0.4476944795696359,-0.6432874983814937,2.788536090538286,3.132098927635895,0.6549875772112057,-0.5779704698158439,0.4370243916611785,-0.46926130914565356
19,-5.1380168471679575,-6.9464687590126,-3.1035079480766163,-1.1188591885665606,-3.083825672362141,-0.36077544906720727,1.5729495871950294,-1.8508185881221269,4.225688117372537,2.0023484136718306,-3.6769234133041215,-1.4545747514158969,-2.14043182202403,-4.587296401058276
20,-3.867905689231588,-3.056804646710454,0.07303690727913412,0.05225493411675086,0.6135970149851729,0.47187163777089114,3.8003346536792444,-1.2610479821573017,1.3710989264927966,-2.535924972582693,-5.350927372933582,-2.5550640269878575,-3.163563631766433,-7.502992593372464
21,1.8027618142828994,3.6112370856965716,3.5898942090650046,1.1260494546169397,3.416741050342442,1.6479317220678116,4.755216414242133,0.42148709620744257,-1.4546001449027106,-3.1013104582716515,-1.089985497264783,-1.675082168002117,-0.48314132713742186,-3.7717721988026622
22,4.8759368935744725,5.250496968123324,3.4259728708426174,0.6724113080720259,1.194394926700456,0.930644347935062,1.8449810691810058,1.446219561626714,-0.9816672057925399,1.2834346016712006,4.346355731055174,0.7375021324509757,2.532014388662267,4.49875783707079
23,1.624991746009556,0.6218980550967336,-0.30178397591466216,-0.8767272990466825,-3.043751801348943,-2.0118350315098588,-4.035971655528844,0.8903363363867776,0.9779431008948627,3.86666850166139,4.717148895873961,2.207783693053652,1.7776831259324015,8.51071789343606
24,-2.5030661759787813,-3.017200785982057,-2.773752484606384,-1.526596580853165,-3.0224140540185562,-3.7666945467952053,-7.09456729383532,-0.45271997048312357,0.9843750613555912,1.094960637799085,1.0008998588537839,2.1538599006602253,-0.6563549430845296,4.405120768009493
25,-1.3586194997582892,-0.495950301410821,-1.2102427706057506,-0.16986964879115446,1.7648485369673024,-1.400637892577198,-3.3330772552789867,-1.0828602719864522,-0.8418633189594196,-2.653353667307528,-1.2031585207266329,1.9536452048263184,0.07320852648570161,-2.2629656410087033
26,2.3877900835842136,3.7413913550569426,1.1625032164944886,1.7142737721042507,5.032508972720036,2.677659630527713,3.3111623137634836,-0.44104214362847155,-1.6616074439110378,-2.7886607573138544,-0.5434458651158245,1.533881340256628,2.7075739850149985,-5.128551302874616
27,2.2456822538819616,2.630390372737492,0.5436363791655611,1.695910034245767,2.2547126528210395,3.5803419012437216,5.452613357584102,0.6456642465161363,-0.5388477139593816,-0.5588066540383749,-0.5318336019386283,-0.6605525075194383,1.4754794551798,-4.018673925225089
28,-1.4833609796653353,-2.9119522795464023,-1.415813492731657,-0.4347403893683178,-3.3674073729048866,0.7992519153431634,1.7034180791598768,1.0400124350525692,0.7302673607800344,1.0136155509266485,-2.265072595414717,-3.8597886054064356,-3.4819446365920212,-1.258618758146835
29,-3.0497161295894095,-5.653938379299024,-0.7935770974118753,-2.1807752480752227,-5.286253596446945,-1.6145736681213119,-2.3541395414315422,0.4855267748547613,0.9002585482336116,1.9521521903699952,-2.3844858766491326,-4.417666370524721,-4.973921162319849,2.727300867743706
30,-0.8870499826343848,-2.4243899876826127,1.8581438718458991,-1.3667984821139514,-1.6682223203411326,-1.3472600028943706,-2.174726887703932,-0.4373876143866718,0.5330947020444666,2.9428147439056507,0.7216262896370554,-0.7485990441637104,-0.0692836512118236,6.29430155101124
31,1.0056663829742936,2.460497350629702,2.3901196454268425,1.0917515606799386,3.071787425077821,-0.3340180202081506,0.6678889200234083,-1.1482096353224407,0.016768240918779688,2.20657765375686,3.4783361615614337,3.4876278514661787,4.660514146637768,4.696238443023361
32,0.5188737333356634,4.061039710809126,-0.2456427841082976,2.2294835123747094,3.987836822995093,-0.49660608240997883,2.020069254414761,-1.2870883158053685,-0.8766610776337426,-1.4631099986473837,2.232707005067669,3.6460482121964177,2.9806092252677265,-3.004249389876081
33,0.0020079844913667155,2.4829548582290646,-2.4289335171501993,0.7278829811131774,1.058359487761926,-0.6523975113359668,0.6539781134958081,-0.4521685419450281,-1.2787686339240047,-5.092207931127734,-1.3954948637540312,0.3400801944607111,-1.9046280849311374,-9.13043163691803
34,0.8769144415097009,0.36699419787704063,-1.5381873652309033,-1.4317651229884736,-1.6791595392696526,0.716651165564698,-1.333758131024261,1.2151479445703957,0.038321887889212515,-4.669522169416268,-3.0499888660318826,-1.6360532163441304,-3.1097232430561204,-5.993464253107969
35,1.0194235341370737,-1.4773819482289876,0.361517826553225,-1.6727703287066635,-1.6043211677318785,2.2580874071059185,-1.9197403501562667,2.2636596792785912,1.861013415077562,-0.5229016224527822,-1.4955715645330532,-0.40129567063155436,-0.44841927116394664,3.0573395447108584
36,-0.8355644034387633,-3.2043161991083537,0.2553122368203986,-0.22735587819451675,-0.3891071017265496,1.5738748956151256,-1.134104066904471,1.1936655255980528,1.5012311652770074,3.4284176476157717,0.8877557411250823,0.7115436168076812,0.9576686202154849,7.59245741353038
37,-2.1362335461357294,-3.172485518058111,-0.9327186344831638,0.6250590250223531,-0.5946803223809989,-1.0412238360188055,-0.02605700026411547,-1.1754590374862812,-0.8870124401766305,4.54098351576646,2.0821001366462446,-0.852616703799009,-0.12990694570262873,3.7529053375386447
38,-0.3634400761360646,0.16951646389822603,0.012882592287904131,0.20125367915731132,-1.30644064583654,-2.7949189005354222,0.863711129005835,-2.178874698092185,-2.0856398448612503,3.0015985065891635,2.0166083698554718,-2.4071982249274266,0.1538287363088978,-2.1639729383867246
39,2.718713203539392,4.284267391225647,3.079137526812039,0.17334276159039547,0.2070970718339697,-1.9729121634190405,1.4873093363091736,-0.8494543066904326,-0.6669879140682944,0.13963521914074625,1.0099322761506908,-0.4596731916277509,2.9887543538471193,-3.2545106327076896
40,3.206228842646782,4.371465084318832,4.276077162818289,1.2977368999188816,3.2230025390732275,0.2977275869999209,1.5791082786740085,0.6974398710439919,1.108734301540504,-2.146840539797172,-0.668978102862459,3.1744616488265085,3.9504995328515458,0.33537917662930206
41,0.22622041975441268,0.024336555326822756,1.025994040331707,1.6652400146404984,3.5065509798110837,1.9003655194142466,0.8201508892218994,0.5477159222322201,1.262484873495455,-2.0065014694159604,-2.005284545427434,3.562443754523581,-0.060903410141616876,3.6336387191814676
42,-3.210378401899775,-3.626344734166075,-4.078828966125652,-0.28188028452848746,-0.44843026787869306,2.0134661157176,-0.42352371654962234,-0.15489876751083628,0.7012452751228537,-0.24295403361186085,-2.009853992371614,-0.22924612803601488,-5.403486384223728,2.61396473584733
43,-4.080460754739394,-3.0631832384575155,-6.262277830287786,-2.7155779374332347,-4.371694267376184,1.118810828196369,-1.2589702097202518,0.4780236856447537,0.364445192999231,-0.2731169290059273,-1.0200317548891358,-3.8893410309790566,-6.347153703600224,-2.604729400632954
44,-2.211620145850833,-0.8101064429299087,-3.8155272410560395,-2.588915078860084,-3.73006899081764,-0.1888084653977103,-1.3531352886175598,1.478500469902301,-0.915482089637137,-2.9142870167330677,-0.0015979892296826273,-3.6989993773463867,-2.4006259677782325,-7.435991440185049
45,0.7475101145408701,-0.1515198168428498,0.970036280778992,0.06231268544814782,0.19043057805324726,-1.438188542019759,-1.166825451895324,0.5018157851466425,-3.2486562059982074,-3.8146648153761,0.8001600992188095,-0.597965392602451,2.3420794831549707,-6.115232592207515
46,3.3370717421267204,0.3301161160130676,4.896651174022422,2.2281459116070628,2.697980029393608,-1.8543298284035294,-0.7932788426031574,-1.813761391062928,-3.284901503208083,0.5136316145167648,1.5381521475330673,2.1719315714398215,5.191851682825699,1.7285759534742848
47,4.436623667118303,2.789169934162128,6.136050753364716,1.984773509112312,2.2688675064379247,-0.9135510003107348,0.34822184248464144,-2.183674290557289,1.3447008883636673,6.386650405756795,1.8412932300393767,3.0283532102827984,6.140944892808802,8.462169336986836
48,2.957487119815197,4.403545594035806,4.028506547610113,0.3602206058944806,1.1008394398390504,0.5842539324404761,1.8858927742203593,0.24810019455316684,6.7615472904889975,6.9072500148263,1.187595064779084,2.41708709600264,4.321208262309971,6.38106630729068
49,-0.9177811725325924,1.22228383319253,-0.9862211568836747,-0.8016203976790052,0.34971769808924336,1.0892942226212248,2.0124040664515683,2.2386192227116823,6.283019707114676,1.1992777590047643,-0.1496496724500694,0.9010836398762684,-1.4906732283168507,-1.570805108965737
50,-4.597406595812967,-4.29507478898584,-6.168063373776368,-0.8877766854838037,-0.9874810875713144,0.34494784546249113,0.13240655100831641,1.1631373324625573,-0.7815697447766901,-4.4852780288757295,-1.2367024699659661,-1.2893967351337159,-8.000884257198353,-4.349093593105116
51,-4.797475132248861,-5.393582246075034,-7.090423554579991,-0.2137228577117939,-2.517744291046846,-0.12300872920975328,-1.4265733391357815,-1.1518397304387165,-7.549047347477584,-5.00115856128626,-1.527506161577072,-3.173094737392774,-8.41510458247799,1.6134321499656612
52,-1.0669379231641258,-0.5303023551939401,-2.0284852538344276,0.597492846637175,-1.9075759669031223,0.743492972593717,-0.48252342813475146,-1.3527330931221193,-7.7002000316831865,-1.9420839534872616,-1.3006905118052519,-3.1088486112567395,-1.164060370092534,5.819698976914423
53,3.104560051471532,4.130201561240176,4.615817248032854,0.5755130027439948,0.9917845218346877,1.5968593682241894,1.3197672985831361,0.4639148863729424,-2.0529122338669725,0.04757770551083566,-0.9339130956886466,-0.6903872202493008,6.4108838541547435,-1.2818712021119456
54,3.692570676036646,3.005466193982215,6.148168994606117,-0.7300157970986605,2.786538124732589,0.2369058313615445,0.5734216283280477,1.2621604700170836,4.019377827419816,-0.3802752489513549,-0.2867919707876727,2.1874172016566313,6.6139756684650965,-12.243282312714625
55,0.7289704361755396,-1.6331649047254448,1.635770785822307,-1.9675909024794405,1.111734054138622,-2.8565392060438226,-2.4623480008996927,-0.15539992776760334,6.587754982488424,-0.6186619017634957,0.7743490144244534,3.0897567078435926,0.8770792110277117,-11.216733440165935
56,-1.6603663599345955,-3.1183264129760335,-2.726632278922524,-1.111275932682379,-1.7332965992066958,-3.946313322067495,-3.4508455253115806,-1.5284140035116058,5.09704792101361,1.6250869349047745,1.7995096907225496,1.6834734858029452,-2.996444573534527,3.4570540208232794
57,-0.5890366604803339,0.5244397379589518,-1.9515525068898303,1.5695185332090387,-1.8315438335248473,-0.4174628973813249,-0.008997303395151098,-0.7263708240897023,1.12710224967775,5.057058539231126,2.2594682254249414,-0.24775160639386648,-1.374176393387519,15.746808597413333
58,1.6181341726888905,4.05914702000089,1.1092351241746499,3.1819933049674343,0.8924267913606552,4.801934587438537,4.26910228479287,1.1934482805813638,-2.762615604739351,5.619566545799816,1.9149685758305048,-1.285668139871441,1.4775912926980201,12.520479349330477
59,0.7298538510300876,2.249558032686313,0.6583480352476034,1.719932818273199,2.4738081925506394,5.5776823870377426,4.0720711307445026,1.722730128932091,-4.523682974376652,0.6214030373716221,0.26041745455855597,-1.644717226501003,0.42876603089769977,-1.2259825351554512
60,-2.9760584334813,-3.0901303929594928,-2.906634289656402,-1.3397242232267166,0.2970215593882462,0.2483249788890612,-0.5238038434621911,0.37218829195749525,-4.111862191841788,-7.070494496378639,-2.8807177190457374,-1.7475833669492087,-3.2574863412239705,-11.102062622410132
61,-4.410981796080356,-5.5896746289518005,-3.515942272340873,-2.9380847876495504,-3.0720216345167852,-5.462273489403657,-4.014305781329428,-1.070170332503802,-2.532871194611692,-9.926932512992062,-5.354760460510988,-1.0242926369971572,-4.0112495751098525,-10.222709738339791
62,-0.4038476342291625,-2.3760868750581645,1.1937252997606829,-1.956641798451474,-2.9388358606212046,-5.316342988170738,-2.663226988147926,-1.2173088676458677,0.14878976876318065,-3.4831214907088133,-3.6040367313346455,0.9220404262964944,0.19944384691001146,-2.6375395382104094
63,5.496674366113802,3.157025886581853,5.8415389998040075,0.18781811157076034,1.1685035221545628,-0.28869789352466996,1.0509325707303225,-0.5698899024025728,3.7963463812328797,6.929537406654447,2.3894225545843857,2.908353109558979,5.024204915312758,4.936454797250128
64,6.640483973509123,5.973869502469228,4.4728946052477685,1.6821875662267258,4.426391447395796,3.50635862568147,2.4603081558854023,-0.1378655292552267,5.888421106760992,10.634470735984271,7.143077321307135,3.0421660287249392,5.207665365258117,8.493263820535637
65,1.0428020661047601,4.085969992050452,-1.6160890678286666,1.844263210543186,2.899677022501758,3.051452876645271,0.8133044448786843,0.18157691510724785,3.498313410766124,3.961141737812878,5.3854094568370705,0.7505813670216761,0.7506895776427849,6.062588848898857
66,-5.984138225147918,-1.024809191164818,-5.898925522289837,0.8989452071877337,-1.425191140959556,0.9112271724312074,-0.9158701518470551,0.9425144086681188,-1.881403434156012,-5.23254628747286,-1.3506244666632636,-2.546280561338595,-3.757633453233853,-1.6266901544287835
67,-7.454830775034488,-5.763333907515096,-4.567080883705398,-0.4966086637797269,-3.735559805395973,0.04659633052270663,-0.8622770873775116,1.5774020866286842,-4.705897269843833,-7.386246054414598,-6.21165883383725,-4.427222859018155,-4.64334325393197,-8.74542781148949
68,-2.137304711086253,-6.044749128330813,0.22761121066778056,-1.348625497375858,-2.5251772267955648,0.025932846562968306,-0.06385775362720306,0.865029461572744,-2.261630140487119,-2.2540013030541615,-4.6411274330785774,-3.055067517670122,-2.2029307266205054,-7.917502627988745
69,4.502966557059619,-0.7403865379996389,4.094878949132892,-0.9722457370507979,-0.03669797648941303,-0.8020658336405491,0.25522041752224167,-0.9739593288678171,1.3217402993046103,2.897759820509171,1.0738453667960113,1.1688004445053137,1.140911785416629,0.9075298916691793
70,6.3524026487928476,5.458440661648277,4.607389655209652,0.03167200340634213,1.663192582438896,-2.2741676509395417,0.3325214089457257,-2.0146785157279585,0.573056097928824,3.1750591578062544,4.595325057692578,4.966234609172188,3.378416092815766,8.534226173650609
71,2.5535109276683694,5.765441658234815,1.8746493328625327,0.27767802942647873,2.0600364410579273,-2.8267891990206344,0.2833481867552776,-1.094666934281432,-3.2899847552595425,0.15699998462085715,2.154542346627668,4.5062944699850505,3.1111941005836763,6.830068510654877
72,-2.5805147162703865,-0.2683172876452718,-2.3058492901159804,-0.39602019310112163,1.0735176298575702,-1.3416544084075097,-0.47088742572597847,0.5519519242713531,-3.51026099411188,-2.1167128496445557,-3.2380840829438338,-0.29326814945791335,-0.041283933880893034,-1.3184611111292637
73,-4.3655205132978265,-5.143581331275913,-4.888783481239394,-0.3880868784964893,-0.5213169183388847,1.915368318740561,-1.2559186609450315,1.0366480990940905,2.4897471114522705,-1.3918945104490588,-4.619299772160594,-4.706804539458336,-3.4644275869173073,-6.120099188010071
74,-1.9417831185750842,-2.885375981415712,-3.3803439977608027,1.2038717198553153,-0.8392902299762065,4.86664848243644,-0.2700689414469224,0.3277922852642779,8.299934151493606,1.6470552696544107,0.613657461999121,-4.14279331032119,-2.788084519611825,-3.485158405381399
75,1.6499213879863723,2.9520184780961025,1.2167831372526798,2.535096223072377,0.45610414845920705,4.4251030868316095,2.0476205421343203,-0.12094986692956772,6.295013215919348,3.6686046886090655,6.471397916110473,0.3898056487384275,2.05223755611428,1.2677315956838693
76,2.9098875353610727,4.513523146346529,4.651585748883379,1.165390125397046,0.8914125037912852,-0.2866241216000391,2.474668903042359,0.285189518831535,-2.1467255730398485,1.478325765422742,5.36470415476123,3.6621282128515915,4.85266032998307,2.4644934919936743
77,1.258227622281415,0.3823117155363347,3.960930486029478,-2.108480057220235,-1.02508952787276,-5.550205908869652,-0.34864397793202023,0.6256431901305892,-8.173734398700017,-3.3153502991840984,-1.7341301267233387,2.7738085704462985,1.1682943911884143,1.2480786757911757
78,-1.0251580705689824,-3.6391404132913765,0.4981301866681171,-3.6835912311920764,-2.811793137769649,-6.113970168886903,-3.1891850642556863,0.14701877179447279,-6.463766256788293,-4.774123995660151,-6.464664421617419,-0.05588954748229405,-4.476005477239786,1.0329859776093866
79,-1.8445461316582101,-3.307806019698847,-2.5813271960491693,-1.7775765774288408,-1.550310456427041,-1.2159437644852844,-2.436547160267132,-0.5997490253076957,-0.590308930011481,-0.373528062429955,-4.320390653553631,-1.5789042122008983,-4.571461179640687,0.8629546540781275
80,-1.3286367517715139,-0.5638201950874204,-3.9493292897188574,1.3840411645237591,1.5301602339502793,4.275298226027044,0.8082454310955428,-0.7678468013370936,3.1587255876341147,4.477251113667681,0.38373478615591516,-1.640905974964683,0.3699161473060972,-1.7313069038093012
81,-0.6274532637975136,1.028660699864848,-3.6477798330458,2.7444174953696807,2.9285531446553756,5.428394805000559,2.3911168929553597,-0.4610041276433901,3.384844483783233,3.2227542816271817,2.0451523441088777,-1.667317132350218,3.117200578541749,-4.474485252718928
82,0.04076570754542434,1.2015862014458163,-1.2238767610931294,1.8844420489202935,1.778604002270527,2.3135193203609896,0.8317273930116036,-0.24645253913721185,2.807322193952674,-2.572712653509924,1.1703899345226592,-1.3528256514485522,1.0866403153067579,-2.88876951536425
83,1.1109110718216892,1.561302300625378,2.9521532056012103,0.3530542191895967,0.0678866284111189,-1.3332764852459593,-1.0943729299248997,-0.04456872606088633,2.597285793036023,-5.030596011439173,1.3173287295689806,0.5172571114942274,-0.6410473946462328,2.0385015799314576
84,2.2338008863889507,2.0786105464938793,5.868385874464041,-0.7242481007197807,-0.8525870791731858,-2.855736260315965,-0.5389275892025112,0.5655261235777803,1.0005485930872218,-0.632001492235666,2.510899464869366,3.026218275601668,1.3402841742872003,4.435768875461431
85,2.335632730363949,1.4160406527296825,4.46958956363384,-1.1730244349205095,-1.3122003189940763,-2.566897950335327,1.5958742057783823,1.2169030192214048,-2.617588985923263,5.067624311784338,1.8194487235922838,3.6309803770531324,3.1897354233179116,2.2065954910454106
86,0.9590110272138398,-0.4375824408917071,-0.17041594106351335,-1.1003305598357636,-1.5388218112251457,-1.766639977296502,2.0479024985187984,0.9572286316705554,-5.399449732153023,4.921158073587192,-1.087139775424614,1.6319460201247553,0.6620317703166758,-0.07253091765110427
87,-1.1653793556099936,-1.953481428754145,-3.7993522296682687,-0.6864572831552989,-1.0981462783190519,-0.6874599517552578,-0.3984330279072778,-0.29075786644810936,-4.227779783359663,-0.6014009665920637,-2.9015204483064756,-1.094733649374018,-3.6979148091439953,1.2926975031013783
88,-2.827313749523362,-2.27156536439712,-4.171494270668514,-0.13728991465893067,-0.012486190636879266,1.065553225782828,-3.2823391784214393,-1.3331454290206441,0.1689632334067784,-4.6369234958971,-1.660768497834249,-2.9733097451442907,-4.481997849277663,3.0139499034514308
89,-3.3170932499915606,-2.074459862607593,-2.9891904129349336,0.3872338513228291,1.0083977429720081,2.9082243575703113,-3.5558008730498076,-1.14147536370179,4.029873299346489,-3.212711684120568,0.17147989611259953,-4.080698001088492,-1.398633740970141,-0.390856361997192
90,-2.707691241292026,-1.9197962644396789,-2.2169518365563583,0.5961590904912002,1.4273849825748823,3.272271991321469,-1.0343547970312448,-0.08594012605770682,4.7944066464411765,0.2964583188202452,-0.5281353911889776,-4.082920470106929,1.1557164269228963,-7.889512182454537
91,-1.1082826969698951,-0.8236837572247583,-0.7960836171205137,0.3718394234751552,1.2103178807868817,1.600566257656132,2.246794019731539,0.6699342148331386,3.02548589420797,1.0644554940458502,-2.4012421585449415,-1.3239710589976008,1.1991814446474864,-11.470523895939893
92,1.907092461044916,2.341745166080321,3.0932452914064084,0.3751973659715269,0.5504556714175216,-0.5917018163082003,4.673003400771053,0.5955722027592929,0.43897565018201956,-0.1949946497869525,-1.1815021666893393,4.16548767343486,1.3867377316124891,-4.869990074447989
93,5.862077831363107,6.0175181302219825,7.486686392723908,1.1316661893469733,-0.2605939906275162,-1.7923107761114012,5.033911369200071,0.18839975107747545,-2.234491966002105,0.4633816512057272,3.6073310725910623,8.269295327359087,3.3966086878005153,8.365345674912957
94,7.590674752911751,6.0801730809288905,7.216494942162955,1.4269765272260355,-0.9355601998406567,-2.7334686212967902,1.5477469530075083,0.08046379677884942,-4.621880603741175,2.8924400696015855,6.764531676004621,6.209946648949887,4.088161379693409,16.654843609218876
95,3.59808671613557,0.6004048037893717,0.5137871448460587,-0.4023768884882068,-1.3108175103256592,-4.387730770573509,-5.247755507269874,0.15411904876739693,-5.18238033627545,2.8260102578607103,3.922463301871145,-1.1802589041734108,0.30145257028638484,11.630565404776814
96,-4.535233195012958,-6.236100233354679,-7.127104586289443,-3.1637068309347858,-1.1754485214728425,-4.405342831913479,-9.397751285851648,-0.12586794423940967,-2.2823986886250798,-0.7739250943677496,-2.565395050290213,-7.068458099805642,-4.99133896863876,-2.348078101327389
97,-9.91567050271199,-7.816690836250873,-8.704956199368949,-3.3379056435981087,-0.31203272050723135,0.5746337862754741,-4.759976492355425,-0.6157980769422463,2.8967295424453283,-3.554970574042546,-6.670534864302869,-6.349849725710553,-5.813918730395852,-12.319584345691059
98,-7.79388993903367,-3.1087480912122856,-4.124202807955551,-0.0027094985971302006,0.9008992146930737,8.103677649993001,5.457100378128358,-0.46341128816325966,6.3530887351043726,-2.5064420996087717,-5.748432984103715,-1.7952777698898512,-1.7290231614689697,-11.045381733283751
99,-0.9841903701753719,2.140344122268908,0.8621840490813139,3.2788751036225188,1.4580687366547034,10.073165857441515,10.113158180128291,0.44215071241864096,5.37907195785797,-0.10879913152780474,-1.9080412485906195,0.5404142553040813,1.7340844125817811,-3.757607457452511
100,4.4318219652958835,3.2228698431620004,3.105269225154725,3.0603415282761683,0.8691280709612478,2.883321643366504,4.072639445767131,0.876628271528578,1.4280876575086658,0.5804822141109967,2.052687806151237,0.28666927690202265,1.6657303751542933,0.9806707927518373
101,6.151529153326809,1.91580044177849,4.408083688998409,0.35992915128784814,-0.13009814019538662,-6.400961955401162,-4.59659168954524,0.014823452653055994,-2.2377994343292023,0.6624418196896542,4.8446928919950984,2.119427316377011,1.2921521684909456,2.3500995027771876
102,5.563296058261279,2.05773294596596,5.486521307255366,-1.3594177941800925,-0.5171487880263936,-8.496140769766217,-5.680110926704942,-1.0434034661542309,-4.191577002275179,2.040303335481999,5.416955969755447,6.335004141551136,3.0441722206099517,4.796800956331658
103,3.4363630628978754,3.1655189980979537,3.641487421950559,-0.8771644132440848,-0.22920796692152484,-3.5870990951517125,-0.28881649932446246,-0.7288425180438661,-4.648071261963735,2.823976244602887,2.727985567479605,6.474584292351438,3.7268014952703163,7.975296045917438
104,-0.34927741269623697,1.8760974753871658,-1.6131275270248522,0.030211697501788533,-0.048148740156240544,0.5949444559893353,2.6086533571136483,0.5899782275636719,-3.439384038780891,0.14992501423271995,-2.179670494562844,-0.758603192682048,0.2010543212657938,5.9912862604065
105,-4.249745561643724,-2.1652879943351806,-5.764182396885897,-0.32783706727747375,-0.4816230585509725,0.34273339691556937,-0.20164493942374634,1.1353521186319206,-0.4636714943775528,-4.131600182625613,-5.598888767955567,-8.531996705252434,-4.533490751906019,-2.5825619778798514
106,-5.792314083248012,-5.315123635507282,-5.063122520703463,-1.3748326027515043,-1.0110287755343086,-0.38546672483505134,-3.0675940822065404,0.37820871144902196,2.9062845748390016,-4.636874336863483,-4.295098532589201,-7.863963754091957,-5.221286207441485,-9.69171508359095
107,-4.4475405665426875,-4.565863137754756,-1.485073745791723,-1.3089190491360503,-0.5495899080512441,2.2806118496496293,-1.2604120603948974,-0.4415831045035028,4.8355593035630315,0.3519888561332647,0.6215839320316338,0.18964449555123225,-1.5336690489609146,-7.04534731840286
108,-1.5823998963269523,-0.8426606403131112,0.8086931682090315,0.4193439093583905,1.0588358063672607,6.21461938462164,2.629590952841681,-0.4923824346601395,4.722389291137691,5.736945696946833,4.098814503070245,5.8323901006439405,2.356852733821909,2.2260260422346225
109,1.7431446582143022,2.69665645576007,1.2888280932089198,2.240895052400075,2.1846354962797747,6.634581891709901,3.732403751950436,-0.3478148647123401,2.7525240094124053,5.340259718500865,2.684524155078397,3.6753424013769957,3.5549703989807417,6.795874167267114
110,4.943056318531661,4.081661921081654,2.3660220602218613,2.2602963666449756,1.0585961813085532,1.8812059809220627,1.6317264883317317,-0.4029672822921628,-0.854574156128351,-0.5388084880133298,-1.0982194911092145,-0.8863251467063397,2.576933811788071,2.2072690598472495
111,6.349537672817277,3.3521907925251533,4.185791206003147,0.46131256224697875,-1.5287931726191382,-5.3554280694123575,-0.7461208739377072,-0.04107164353089472,-4.851153342800185,-5.542049116431742,-2.176314150449212,-0.8224647452648632,0.6866461969923412,-3.6166306457208304
112,3.7864374740343476,1.0680572160503115,3.427257108390742,-1.4476804233736764,-2.590538960132882,-10.188498230090357,-1.9987354968348294,0.7919032102904572,-6.581049600160017,-5.048388847469929,-0.11188413953641967,1.906532429745607,-1.809744821062681,-2.69867129037553
113,-2.2727738198946654,-2.1220134697219497,-1.554263935138175,-2.0167856671270097,-0.7751337949730916,-8.483354231564512,-2.652951578647419,0.8622570296008567,-4.2470869436645895,-0.9616916342761652,0.8651469607425535,0.5548070633109846,-4.025680732188998,1.7473829897740092
114,-7.37273799420366,-4.331858300723218,-6.601437825064965,-1.1855346339336965,1.6284609654822881,-0.34346928236184726,-2.2890902680672185,-0.29430382182208814,0.7809143398495306,2.101970272124985,-0.7394457620516867,-4.261806305790697,-3.631338774073034,2.104075137524486
115,-6.713174356027122,-3.092913238512575,-5.744790234256254,0.18205133481297153,1.7891825613681334,8.38926669364544,0.07082200547209988,-1.1202892489465401,4.8855140857604615,2.694758403761279,-1.1753854532174195,-4.674831752903797,0.39222046001309285,-1.0314686361335978
116,-0.4137722028832402,1.310761704732207,0.9081744761062445,1.0920881631127455,0.10356040643224317,10.43274424097447,2.9358583224235253,-0.3315011476994012,5.559883761420219,2.636488089739608,1.6733034353829024,1.5327021370448943,5.085517385255501,-1.0702867328002574
117,5.953466185840676,4.668684325491994,6.463365991956428,0.9980700203480201,-0.879630233549582,4.381256694643378,3.1174502245012086,0.9008808553494919,3.4328719566975794,2.9849854317301534,3.7866891737483055,6.467654423291266,5.984895581047809,2.5389646519445366
118,6.766495161587581,3.1912952025247145,5.46135724652809,0.2696054247314223,-0.31506719017192364,-3.625137275338115,0.2320816873095225,0.7812720789124461,0.6685853395117006,2.2856303326183864,1.0871334984752012,3.9133060911880024,2.247471798734489,3.3057337226650914
119,1.8698482578565665,-1.5575898510581876,-0.02510197132561882,-0.1183873273893907,0.2806108511390122,-6.625892274822174,-2.296400967485662,-0.2819699959782853,-1.8662556952654632,-1.0422668439163882,-3.6324701198546254,-1.8079799312816691,-2.6710230939324466,-1.1850815319198857
120,-3.7460016933826923,-4.2751102911151255,-4.104031177944882,0.12309305293179147,-0.1269360784740183,-3.85983938402282,-1.751260554574113,-0.6177520956490066,-4.334240244417525,-5.583607654528773,-4.449156567580254,-3.656232060746824,-5.364851085236886,-5.119829462707886
121,-5.353852636764195,-2.4171902368470777,-4.19073464543931,0.06982603323927876,-0.6836888682713324,0.08422481442841556,0.542214879636112,-0.139505489837915,-5.390481837771848,-7.214419616763243,-0.857917140377002,-2.216476167335952,-5.3562110489125665,-3.5725199928711016
122,-2.72409994408425,1.170067341849872,-2.0325984913515063,-0.881439615243735,-0.3908933030266765,1.528429263301118,1.565553580685982,-0.10428777110108106,-2.9100421075190854,-3.437065185520684,2.189947925711722,-1.9901403134407945,-3.4665651312675605,0.7147307727674537
123,0.9858431831542446,2.5705758097208937,0.3471965960578003,-1.528204337161148,0.36646225420580675,0.9689160759112325,0.5617602441432485,-0.5320995296472624,2.0050457522282694,3.041133689162177,1.9300995817546105,-2.205740415494856,0.19071582807667697,2.78190993718291
124,3.107687047483854,1.3971944465900876,2.5062286590831873,-0.3185292315793009,0.6639494318656771,0.6149647265464305,-0.7955995757975719,-0.13501346804831366,4.998687556050063,6.802330476285682,0.6859943233768766,1.1733977482942304,5.030517754055644,2.3797451823969635
125,3.1768232711745665,-0.1080117227251097,3.848817060684263,1.8751353280057266,0.38316664853806515,1.0130184654278829,-1.1163752245392466,1.09454177589452,3.984016815073242,5.7677682769882646,0.7668196843463425,6.452155574869886,8.207112951552624,1.8121489343466495
126,1.867792894571508,-0.5249386130391726,3.0134893755252583,2.2782570287061525,0.07703217406873329,1.0727070398720062,-0.6023344278453826,1.3879936691869519,1.5689723265678779,2.6098728128720237,0.9982522293456061,6.684091934230425,6.407813555653259,1.1619949031425238
127,-0.1048274754788399,-0.1273029328505041,-0.041634681928841594,0.048550703896852385,0.02803280363906988,0.25386450083330636,0.0647428152193264,-0.019820802342132886,0.2739974150237458,-0.02582701302272563,-0.038741485973794,-0.06528677987649942,-0.05235448471012237,-0.4167432192304194
