,AF3,F7,F3,FC5,T7,P7,O1,O2,P8,T8,FC6,F4,F8,AF4
0,0.0370751585050683,0.03033375818587786,0.020671514509453683,-0.0129657920796507,0.007082186470768925,-0.07787621773742437,-0.043703879245855615,0.00570704400563638,0.035914613230599496,0.06849236383221417,0.09350931162300469,0.03654936050379495,0.09037042131402265,0.07024839258420337
1,0.7631737900041897,3.5073640618107604,-3.3258652414205,-3.3901837320774084,-2.3592265211944263,-6.884575120451647,-2.1900523986524765,0.7758790780922619,-0.8913299886487177,-0.7567688928916507,-1.2045137748384664,-4.261668119913352,-8.53074664432766,-7.834005714265971
2,1.4961837500584365,4.133848203163815,-2.9272687287081562,-2.8315643625065756,-1.1398245201130588,-5.5233696243751345,-0.32404986409078457,0.46551992407715614,-0.7448112864938627,-0.9454390405933745,-0.9934932143085214,-5.046717047671258,-8.189430675180198,-6.141359116848031
3,1.2755044410760488,1.29466898339457,0.35581586603377546,0.35745975498057353,1.273214360783231,1.6442919029788603,3.733203392983723,-0.45586204436653555,0.09414965890798054,-0.33152296038198753,0.44367329911584663,-2.491024499279191,-0.7038148506315507,1.7073421374838955
4,-0.6244488346850545,-2.3751684474668417,2.3211823642198777,1.701819088386572,0.5857337678375658,5.629508123681666,4.557491452351634,-0.6897922722031853,0.34820200610419877,0.5802110950736249,1.3316493792120534,0.5716836054468089,4.930297163967291,5.018851882000156
5,-2.9361497793502225,-3.2449672067664967,0.8899961502364583,-0.040015090609391415,-2.066495397549907,2.7214624664386395,0.3645599932867952,0.02167599955231908,-0.305163862415758,0.8403761908686699,0.4528307708261727,2.0945294091285556,4.075977317847989,0.8690630642074081
6,-3.1186255536654874,-0.9815244021266415,-1.4260794645073602,-1.403513215606042,-1.8192480247815876,-2.031123302642816,-4.425362815956949,0.6547639772675586,-0.7211539129067805,-0.05172195404583926,-1.433232825256682,2.081084773787735,0.09192538650456196,-3.5331380058759536
7,-0.3158019964016061,0.7739813200629219,-1.2450859905868168,0.2060086022461247,1.8280168553039553,-2.8147162271566883,-4.60871808961337,0.43837167656195625,0.05196310471198575,-1.1932492536889274,-2.288839899542809,1.4676964185179329,-1.9446339617337212,-2.253874589970591
8,3.1946486441223922,-0.393937523617958,1.0442772703036471,2.4838175388555097,3.8508321079172485,-0.14946634053612862,-0.5772373096600568,-0.23419450123349533,1.271038267027351,-0.9468483012066615,-0.7993009212436035,1.066750750385162,-0.8036027885279792,2.2463864535445017
9,4.220164453652525,-1.6828139746165391,2.114371363801567,1.8842683533964326,1.3453679259839917,1.5048367417610706,2.441619837929092,-0.5907196180358089,1.3411993223063243,0.7460960858198246,2.1529973141389704,0.9511703041994354,1.48093552361326,4.401922057894716
10,1.9841026572718932,0.6666150123926171,0.5023906172432914,-0.939544955360409,-2.3434603300334835,0.2771654794547678,1.2801181989961194,-0.4381113229203292,-0.11549463692744118,1.7331464493184017,3.858715044594254,0.1519830970403676,2.4254521629422885,2.703060909259414
11,-1.334226800130882,4.595937154388214,-1.5357128060267764,-2.2748829521446265,-2.9030755931162173,-1.4664792000522955,-1.1466507857057675,-0.02623174405126026,-1.653141630769988,0.6082501678012437,2.191591829559993,-2.009030479573224,0.8047044756472008,-0.5842487269828512
12,-3.1493138481901304,4.301906394618871,-1.4055073650392116,-0.8715292169805333,-0.6847330137990428,-1.0320060101609985,-0.2631935407736992,0.4277944133902631,-1.5229443730906365,-0.8961015791415079,-1.7939799495683726,-3.894997334064071,-2.3406146122873728,-3.2479574392720325
13,-2.853455024991939,-0.8895492748765894,0.29147246056364495,0.6962304723002393,1.134560409362057,1.0865111599861426,3.172863478933,0.6747439500441476,0.3724825503371145,-0.4992947116543731,-4.371998366106408,-2.709563241514867,-4.07948335833509,-4.219454175813121
14,-1.486734792532154,-4.833336711271851,0.9102552842721808,0.3334661452784616,1.1798380893670206,2.083935991093637,3.659468039485892,0.39116634150034485,2.0958587446996706,0.790284561315701,-3.1163019530706344,1.3789063654641527,-2.4068507663896277,-2.924198958258178
15,0.2305158233282691,-3.3430417805294548,-0.22694060228781407,-0.5905877969716408,0.44598279529816404,0.5624057377656213,-0.9451224333061224,-0.32529749448053014,1.563910726771602,0.2619321430402627,0.3931137678227171,4.350240057632352,1.2926941409448784,0.2536565222287033
16,2.3760499887076882,0.20261017133029488,-0.7730267372976962,0.09151986803802549,0.05264959461736639,-1.4778157197843007,-5.3100286243932855,-0.7597533926647322,-0.93388089417425,-1.7410850500900554,2.77168328923588,3.20684714067369,3.6495736912605095,3.503688451305024
17,4.058927584206548,0.8153041611186514,0.7983446879926939,1.5191144464249213,0.13910592448584247,-1.1482045073172271,-3.448999041812354,-0.35982024894398,-2.7193344946734928,-2.049863608989247,2.645138125898307,-0.1580148858366912,2.942798300277831,4.682850071982191
18,2.8203429608080826,-0.8144568619274861,1.9394647659008224,0.9552516827507724,0.0236263668138533,1.0734175202897602,2.432291794317111,0.4384569864377086,-1.819939194241253,0.15569013412321853,1.0218637212893886,-2.083142062510418,0.4331960446020699,2.8027801371184555
19,-2.0967530631761977,-0.7385610123456863,-0.5484611066090267,-1.6616953750907806,-1.072575940999901,1.4175456995700877,4.275147285984729,0.5913632281489873,0.6653638742890241,1.8703142854492854,-0.8157194476204789,-2.2004820103556844,-1.569276323137726,-1.2892900502599753
20,-6.500086448468681,1.7035077580313096,-4.295942579927928,-2.860287316364582,-2.3992060876660855,-1.7191565503162074,-0.547724453949105,-0.2359519842059595,2.183020001505982,1.091109560336836,-1.9519766051566854,-2.256367103294784,-1.939479271848611,-4.840977710503427
21,-4.543866084182367,3.7664713375531567,-3.033938638293867,-0.3464331607943334,-1.3780062739397048,-4.307393934432489,-5.085740742666807,-0.9974569716891968,1.8934638902314946,-0.03183323006599483,-1.363014054043361,-1.4930985779048955,-1.024796633508041,-4.435832190604585
22,3.3374280190220444,3.641454253011889,3.775176873645714,3.365866870721471,2.8099149099352223,-1.4542668083485129,-2.4263409541504495,-0.3750051529807195,0.9451724690039348,1.0309532538083113,0.985353475893055,2.1196698447665865,0.34576462303279143,0.6289037615687101
23,8.75153330159831,1.4014454127380604,7.904453863112436,3.8852531075438375,6.000576504369595,5.025632308480073,4.530599283250715,1.2776051110109006,0.20619447532259141,2.6292059930249985,2.811183793671075,6.099652002231996,1.4134297585771178,5.923072777582094
24,4.738225948369397,-2.5258267241427372,3.0451483516249636,0.46656670202954886,3.0455385536019923,7.420323380047743,7.146407768423973,1.8286286175789714,-0.6537016890086943,1.0508610175939517,1.3804406044753244,4.45179294579617,1.321080744024792,5.304450255825431
25,-4.799901685212334,-6.405207336633832,-5.582192980615833,-3.340230970932325,-4.423045978876066,1.828649053552032,2.5099059482824866,0.05539534768395779,-1.843737808694826,-3.6557243303437317,-2.7597781235220364,-3.2564081656172075,-0.4880666793980566,-1.7593217387824893
26,-9.107725750286061,-6.51107249052484,-7.916098797378154,-4.109758130157401,-8.236517649390311,-6.018352415217868,-3.9799332931287057,-2.2143663124065838,-2.6121175923421482,-6.709583196152523,-5.361487554454415,-8.789729842523466,-2.9605404404534514,-8.197743393629757
27,-3.8989336389140186,-1.2304991289552205,-2.5379680558336366,-1.8426465377493704,-3.705662079029103,-7.536769214532482,-6.498458455589145,-2.1292677567398495,-2.0870795651125134,-4.093256721269688,-2.842581402613964,-5.3230558963866175,-3.364101544007722,-6.759104945598688
28,3.8174536425769783,5.21900205976092,2.966162810825125,1.0393041493723325,3.9964666602015346,-2.001553969260944,-4.473595479285068,0.30788136221296003,-0.20856812999301633,2.4659923294764674,3.2877485209458195,3.0472548621448134,-0.044468251975201586,1.5704765701076009
29,5.726837523790609,6.900447536587805,3.6489963860858072,2.5090417316336557,6.451054157161281,3.421663494305111,-0.35287451738079273,2.1964318353540877,2.2260890666024453,7.131416422155123,7.2582484529125475,6.916166582361903,4.759596786922406,8.560565150862248
30,2.3947832916552994,3.481379846173393,2.1843255714673058,2.4349740017861636,2.494077296503595,3.7769700197393563,3.664404812267671,1.645084514272314,3.891066798965499,6.179362490434506,4.9087043848606795,4.022031332629049,6.346989156123722,7.820784584295671
31,-0.10825125920570206,-0.11227127891955202,1.8175834194507747,1.8671065548272858,-1.7043600319420669,1.6342602540781772,5.454153093228579,-0.18113800891176912,3.5780785880784824,1.4781121201005138,-1.5194361158572425,0.08402702156401293,2.4944206180486126,1.1125625597002824
32,0.0189333535478185,-1.1675916922803893,1.1572621325047605,1.0844145472244773,-1.8017773434981839,0.9589056675976266,3.357642804546722,-1.2739094079361426,1.2217920178474984,-2.4781200506019037,-5.623343632882249,-1.2218398840717324,-3.7767259830735647,-4.74116848319187
33,-0.5604720829220645,-2.1310113430584834,-1.4775503344492595,-0.8692880646637291,-0.035613592385312996,0.7157705187921798,-1.1922650819445628,-1.1564971815011866,-1.80214786249425,-3.6489499842499877,-4.161107267496682,-1.9888920770527465,-6.972091868121117,-5.59613405385277
34,-2.9517137067770576,-4.767364684355189,-3.724158051364553,-3.7130633392424035,-0.1270678760984529,-1.6272557430285797,-3.8533627715418937,-0.4062344974889557,-3.828546089098192,-3.3255524467029445,-0.4189048250864469,-3.435305923203888,-4.508234564134353,-3.1174541355635523
35,-3.7068639326982,-5.5495107829675,-2.7095191056317867,-4.393376590919048,-1.582930812631605,-3.9311300265561617,-2.1671132086599476,0.5142608132821114,-4.192522350282189,-2.9311124592924274,0.8619474321274182,-2.8068450856032374,0.8146690580581575,-0.8802579077302526
36,-0.7631192157028699,-0.661868612622013,0.2872288861918866,-0.7585123995998105,-1.5847847546633675,-2.046818191628115,1.2403454500854314,1.0792558500089107,-3.0842107251461433,-2.0188195169888714,-0.1548695665351123,0.7074381459988794,3.8284533846881788,0.22477783619636843
37,2.791840986937924,6.48616125921074,1.8323954759789605,3.9943202593244336,0.12432741342280912,2.82035643556051,1.9069146794975116,0.6548681018945319,-0.6005445756382615,0.285140141196295,0.28092122853233037,3.06557649775647,2.623394168100051,1.5215137845159756
38,2.9074952816865784,7.681880944915118,1.002127102386831,4.325982646096766,1.3155234061128769,4.630945860727097,-0.8866692623302767,-0.47524978938988754,3.0059629652554842,3.312147904072896,2.9641809728410315,1.6358219398301106,0.402609174701227,3.2175997818357027
39,-0.02835422250212163,0.6978686137128552,-0.31735062895072513,0.0753750461161085,0.986862711318978,0.7530242815053904,-3.4300317445935136,-0.9911402195780225,5.942205664204194,5.075445951893526,4.090498946477377,-0.487050026631671,0.7174868945056023,3.7299263865271817
40,-1.873241156971521,-6.435566744872368,-0.34731056897568197,-2.944779477206279,0.3347003777068798,-4.388365109205809,-2.293864040876377,-0.22914734877226844,5.374759582780565,4.109032601122086,1.0519693910021566,0.1636752434973353,2.2055062287909633,2.060384037948262
41,0.058571903079862646,-4.981005074555801,1.0402573940036477,-1.235389086864747,0.420260460222696,-5.036954150710272,1.72969156451954,0.7624119402498837,0.9150335977344412,0.9370897113959686,-3.121715470726124,1.8150928771591437,0.8551576967204139,-0.7903682269013709
42,3.5229447001013985,2.984436694114378,2.494652532365767,1.7309922251452252,0.8275879306650687,-0.6454742046774845,4.7957569395088555,0.6196658606097906,-3.6393856322481444,-2.305361231965829,-3.659366241859014,0.8866460467767899,-3.1605148533835523,-3.0170041182414153
43,3.532068328948928,6.920858767744571,1.9696643517196308,1.3779571135171857,0.6483579070018485,4.463579534146213,4.088625797523901,-0.4353877967541566,-4.461073930542127,-3.9517303830754322,-0.7852907899940185,-1.9725396794593082,-4.961906371852631,-3.632745964142199
44,-1.49708994813705,1.6277389929616572,-1.1716627066529175,-1.240964094657368,-0.3602061380829812,5.941348744081596,0.24731357391741027,-0.9107145266117365,-2.624508412048197,-4.073366379522588,0.8833000208740355,-3.0131068113178685,-1.9999025991299664,-2.630225934408183
45,-6.667137410335857,-6.080763594112694,-4.274437349897332,-1.8968459460302192,-1.5963014188932911,2.850040223453409,-3.4483804596931833,-0.1078148377899236,-1.7813655113908677,-3.1252217443550667,-0.4375932240236,-0.9348957533913114,2.405556818966745,-0.3338279854776507
46,-5.811691997393212,-6.855427308219468,-3.6979521600805745,0.11927420400606531,-2.0545278785264243,-2.247308601798255,-3.919133687013311,0.8935208762040416,-1.8789214245973276,-0.6207422860449995,-1.1133113925196976,1.6995623234431725,3.9953533214378387,2.47917901492153
47,0.5491661364281414,-0.7927848441213067,0.19920795561423976,1.4450754839559816,-1.1964944377048872,-5.461649978867283,-1.2082001716736868,0.6941032829941346,0.347955447804144,3.1154485305567547,1.4970856757036537,1.995544062276831,2.3476498866885036,3.931052750440899
48,5.521606580766339,4.346879920676338,2.84205396917266,0.01586791973022076,0.3471165663611759,-4.5362793595496065,1.2337601218519443,-0.43340238760076955,4.63664101128745,5.238540389571869,3.8938655582687973,-0.19702920673225632,-0.6671633015321766,2.140335854256502
49,4.543094791799978,4.09401238841721,1.5298189778210245,-2.0272417281179527,1.3307422198855516,-0.5851274980971916,0.4680511305061407,-0.8679465057488287,6.22049600276325,3.296993913107775,1.51632212029331,-2.464080040119516,-3.3227158850406333,-1.8814176298575758
50,0.3885565721270591,1.1722771914375394,-0.8259611347513648,-1.4068732424975428,1.3099592507072348,3.021741749914383,-1.7293922475600534,-0.013695078914674079,3.002076422516876,-0.7308489524769752,-3.4179860986609745,-2.147664563893003,-3.457313716542757,-3.9816343554066798
51,-1.691362195503035,-0.41268575803287455,-0.11524305047019603,1.8693672841004163,1.0451885476892828,3.671123780384621,-0.8988812223555662,0.7724734360438845,-1.267366735757685,-2.409527580274885,-4.172971383882256,1.1261079497912447,0.2856722278852887,-1.5213038869876152
52,-0.5266174210796419,-0.07163146249982974,2.9766358174465877,4.247412708079471,1.2606673918991835,1.5338414328832357,3.3267049534898074,0.2601386814940148,-3.090409609043796,-0.8221559563179481,0.7042851391235267,4.666182686571278,4.842116252191464,2.8934224351249584
53,1.2007749614960899,0.7755532214501306,4.045603083640983,2.714233709372991,1.3967767623907348,-1.0624128655689762,5.723499942976242,-0.7468008925235947,-3.7666674754495437,0.5424633694239773,4.889309699927935,4.898871190677913,4.8137985527089935,4.500660033689445
54,1.141366460665726,0.7567854578782891,0.8823178947709333,-1.5960745901058115,0.13218342685150367,-1.9484152935963914,2.5311245242367715,-0.6777730547631132,-5.0246959012368695,-0.6922185561942499,3.057551920743225,0.8860546077982647,0.05377882187756274,2.0206125648630966
55,-0.9824034675459398,-1.2624297895751493,-4.120416580994731,-4.655316033974604,-2.6442691013217225,-0.8518250856242703,-3.2350634691418225,0.42265200841666417,-4.501300841471758,-2.583628761593616,-2.2250660388526904,-4.516190730983152,-3.7851627181437917,-2.0578477837204288
56,-4.0397487446096285,-4.770406113117679,-6.993412115734009,-4.0812686370023386,-4.755424659052621,0.857427008526989,-6.076309441524359,1.0553769666764483,0.4295327530009714,-2.4141249250221626,-4.95613792247058,-7.277005440578653,-3.9973699051744234,-5.233961048375293
57,-5.672240877311985,-6.147257834897537,-5.6675274047061635,-1.1516185721682366,-3.4896749368627673,1.7372951023610477,-4.613155388836681,0.4442599996700627,7.016008108921714,-0.5523825843669624,-3.4514206540377166,-5.608970152129005,-3.671711851845199,-6.009307247622697
58,-3.010589377323411,-1.9022422565051098,-0.6694456032947905,1.719538060939356,1.0983573356817469,1.3142637814040086,-1.0054067056414953,-0.5856234231054812,9.296942004074054,1.2486301110523121,-0.3245784715192477,-0.600173614982206,-3.4294023004787286,-2.692975680213112
59,4.082948073693316,5.881634288993834,5.577258723654396,3.590539852689084,5.3305757522383015,-0.10150783352913241,3.0943562550682797,-0.9010292075332288,5.022990850691069,3.0060676980104097,2.5903626573312755,5.33988632149487,1.225150131658448,4.4910690511492355
60,10.398897107062847,10.203321958159435,9.349234300904643,4.183144430697837,5.38427802614214,-1.8951366261966007,6.17148382238899,-0.39060477663170257,-2.2142363134839798,4.986313745901182,5.12416887294211,9.185180615528013,9.48046758184524,10.251827331599442
61,8.944828200125118,6.583085989871879,7.254821687009408,2.535476595025766,1.4952551115317023,-3.2177696823930733,5.136675431490798,0.24345140502213147,-7.226042325923111,4.639654095621752,5.602270658093558,7.610556184864078,11.146929114530767,7.9148730704217884
62,-0.7909707031143138,-1.8716958446405343,-0.38524577631208845,-1.3752556282872046,-2.4053202005111394,-3.0551269046397764,-0.9558239151749094,0.5062953853086044,-7.614287898421813,-0.7012988425815767,1.4064705763362935,-0.04222105344545747,0.8283539204245848,-1.8984030459838646
63,-10.072589194706113,-7.859471909776116,-7.882089933460623,-4.748104187646657,-3.345860555371308,-0.796699327467737,-6.710269206369866,0.4671277646539408,-4.279395670954865,-7.8190330234134855,-5.756351957472529,-8.48504784328563,-11.145808025371922,-9.901886294690499
64,-9.757488697525757,-7.235708111690456,-8.633830581588658,-4.284073972839556,-2.1719213370142354,2.8897691847057976,-5.3994820989528645,0.2572529461777408,0.4188115913119502,-8.983639412507085,-8.858566721439065,-9.907553184026316,-11.232101176787538,-8.299893662214279
65,-1.2948220237992414,-2.2717302298524635,-2.579441433877539,-0.4744650050733645,-1.1686063454206024,5.811026097985487,1.5520377398592613,-0.1846254851364903,4.21510594841397,-1.753313895883825,-3.5479641090350587,-3.002006487693712,-1.0228357199655647,-0.016238680127269242
66,5.022379168330858,1.6469989585442333,3.14370331898359,2.597021723342904,-0.6268948313486897,5.581039582389671,5.448168522655966,-0.6404663823124572,5.681827685452942,6.407127462088872,4.771274413181672,4.474683901332528,6.290153830545188,5.288990716448822
67,3.3038469906953836,1.8277193887422878,2.892742701084995,2.2909173469274773,0.5880235131653911,1.791305062424061,2.0601821961773497,-0.4992819577140155,4.657279728902373,6.977148331788808,6.6704414246661035,5.057811765237665,4.451834011538783,3.0786558292820216
68,-1.0703424822403773,0.6210815883322394,-0.527496435179607,0.34296907982964464,2.2541547857061417,-3.3825372553061777,-2.825154479245234,0.3302251800581009,2.1418187480680473,1.0930455252217035,1.1330773598409345,0.67065425766113,-0.25619390745034865,-1.5890399517431355
69,-0.3707457951066111,1.7626071612219378,-0.503120824119062,-0.19658265200292638,2.6567551997572965,-6.941155839510267,-2.3592954467445804,0.8880426185014318,-0.682154925943627,-2.968427189392854,-3.35225272571301,-1.3206381279597101,-0.8923483313335754,-1.6718239944050635
70,4.1203837756395485,4.81523770679458,3.700047656194207,0.802075481675504,1.0612850399841025,-7.056214707926528,1.7138412087484463,0.30641023959455327,-3.2657185456134368,-1.2763979006951447,-1.2482776931217088,1.2664752339245955,1.3581009300870523,2.7733544626494897
71,4.846341611223334,5.135730927978358,6.033780835469885,1.0610416197724426,-1.1185401390501668,-3.6055302588230145,2.820787453556065,-0.8256379882074634,-5.098354912536184,1.8890812654223519,2.8299551350211294,3.626430790274396,1.9722427590789862,5.331752432318335
72,-0.18411281840281374,0.3331072829984334,2.3874611447667604,-0.3558920777222505,-1.8791754295349685,1.9747341701607202,-0.3259357958771802,-1.0866153589492242,-4.954342715130824,1.603915884706685,2.533150106729646,1.9732205788729438,0.33232745347484827,2.045082257215867
73,-4.739882100562055,-5.62240424712528,-3.8848573127479455,-1.8150359437013879,-0.7846882746420389,6.871672075877964,-2.8996158580760967,-0.1036673651389522,-2.116652717622195,-1.2999930702014397,-0.8066238347395377,-1.7282670677523952,-1.120923384419164,-3.547539534158963
74,-4.106523505218634,-7.230088034874807,-6.831064931999647,-1.6614542134916992,0.5786212825274578,8.085384300120674,-2.0264807133228713,1.0034313957085708,1.8792229735172137,-3.1582075186171443,-2.353050427135353,-3.9876139568498337,-1.558204880080513,-5.574947736607424
75,-1.4229427235430308,-4.331810531121734,-5.15985801350928,-0.3730443986606013,0.37989637713582325,4.702350537112891,-0.10228231462400902,1.1210971975198396,4.364700285658697,-2.8741403514424473,-2.2165616072463803,-4.3820598999399465,-2.1838416878841698,-3.4915883897616813
76,-1.3963443038498928,-0.7085183279983465,-1.9477218473154796,0.4927087996786596,-1.1100412398023933,-0.9793541519610941,0.5244077768724844,0.35656810626623103,4.482860459828104,-1.6038397215957816,-3.1301205278389372,-3.7556049657963095,-3.070662578170196,-1.294535343748462
77,-2.3851797859282438,2.240720923792671,0.8029269669365703,0.49638076797314734,-1.5737864568255742,-5.217432197202592,1.137885444359329,-0.4606783843418101,3.4845391094253904,0.37473437981805435,-3.301091752678037,-1.2606405448568427,-2.2800192775719177,-0.44654979582556653
78,0.4859519536339669,5.564369605613742,3.7034582119592123,0.5080395343520824,0.26986930636562934,-5.921111137247958,2.9261613935160713,-0.8550603073572614,2.10266627580829,3.2257341018514807,0.9442221629291828,3.608679608119591,1.215074755304811,1.7244657996772743
79,6.492491655660945,7.504059506213924,6.436415281401295,1.019193880887695,2.4449523869190757,-3.8550169076408434,3.612338250814937,-0.8456311283056603,-0.47290947043629494,5.201820580958141,7.0371320193911755,7.93133495376379,5.122293071271085,5.822236957772553
80,8.862062043568994,4.193175676085632,6.293927480065625,1.2404448788795934,2.056618961030279,-1.104867483699661,0.7292126186971991,-0.4433371296007739,-4.328189106649416,3.888555863745937,7.989575889456366,7.556448727573956,5.8003426880148705,7.422819589033757
81,3.768787295310909,-3.2234589942122907,1.853017500642649,0.33190049484720274,-0.48201405093868366,0.9905458675660657,-3.968073814287244,0.3385431802592096,-7.077562273592904,-0.24193162862055637,2.3229023296603506,1.9673960389973282,2.565699158068348,3.1710433490176664
82,-4.312693658843048,-7.628262188949136,-4.058698524458187,-1.0604219982023007,-1.662734322156682,2.369614673598383,-6.06460549461857,1.0242396852494926,-5.815901149962024,-3.9569981991369567,-4.0751792609239335,-5.048344935268744,-1.5007126893886678,-3.7293439026447213
83,-8.311291543129519,-4.87241584789977,-7.101946254776228,-1.468080787774377,-0.02896959410295374,3.3193900757568056,-3.6172747868946185,0.8856772248450923,-0.579316629217127,-5.052850345815917,-6.422413633557276,-9.055002990078789,-3.6324220427586207,-7.572887219086688
84,-6.679485313170447,0.4418563381304772,-5.998086081827433,-0.7423748582422319,1.226241705752679,3.474306943239587,1.0541397811540465,-0.06810620276415347,5.084713610523121,-3.862641709538467,-5.5411058934337145,-7.879759162872299,-4.309868152186218,-6.89835837352664
85,-2.9262208007060577,1.660665760837175,-2.64546308001023,-0.26397593926775664,-0.9398213902789125,2.12412403840983,4.316004288095093,-0.7848771545270331,7.286150168766877,-1.1946316365785328,-3.23878370016888,-2.1327149721194436,-4.658522160536925,-3.7128333667451887
86,0.6579255927956049,-0.5402809926532701,1.1188868924269872,-0.5270446704190326,-3.8171924058441506,-0.31140153486667116,4.645321787103945,-0.4049034972838015,5.214131737692082,2.4057646000655835,0.6690415339585652,4.909298329901353,-3.2580796013520184,0.9193315131731197
87,4.472286978999952,-0.1611480116458403,4.533808464393454,-0.08061649291392718,-2.0680363722593578,-2.056970613933401,3.014047391826028,0.4674699362653301,1.2790907775856384,5.017074543560652,4.883869155624428,8.488015561610714,1.4096840587989057,6.00774214454812
88,7.4218534478924525,4.025456868163871,6.323718467920502,1.7975742213851893,3.701277720707646,-2.2264301595688822,0.811899665458429,0.48357330391892067,-1.8244956250712898,4.134476287796675,5.835616162625253,5.980283704673564,6.64691099989557,8.018422577919301
89,6.24938104319,5.9390021967795645,4.871251686009107,2.9215283822561684,6.289245142743829,-2.136800226138139,-1.624743714174064,-0.49132754800062983,-3.606035452665269,0.3804809007412241,3.032993264542918,-0.002843378803408708,7.419085290678934,4.471968289319758
90,0.6690516706046752,1.3634167661878198,0.6187541222105064,1.0154752809680248,1.7771066402963935,-2.776244704101116,-4.0819623586693865,-1.0867093261548058,-4.917148655866502,-2.2806225255528534,0.3543224005594544,-3.854234528553983,2.815887897869963,-1.3450809696999966
91,-4.687442881319795,-5.067506088993008,-3.556366822999548,-2.2398495515451193,-4.425194444621768,-2.492498082763462,-5.058239520195739,-0.4020458961681224,-5.280541247820022,-1.7378513131111784,-0.45840958211216026,-3.133841362621628,-2.5092137765784237,-4.116956483160134
92,-5.754599933146868,-5.938877544937188,-5.132094054283423,-2.95297388708167,-4.988678458961996,0.3124347013812208,-2.943940171840006,0.709911117013941,-2.816974948724328,-0.6033233570511288,-2.3326740343916157,-0.9246894037080063,-4.2923128956850425,-3.5067560486353475
93,-3.581887885992761,-1.1926207167516594,-3.978524564182669,-0.6683053548165941,-0.5523023124978625,3.6908544489036355,1.2977350195314847,0.9790735701292482,2.5028766257483466,-1.5456450407370494,-5.926832348210501,-0.9037598847798842,-3.243433812530527,-2.794042499771962
94,-1.3323560424726681,2.6322786577607586,-1.4259578234688712,1.0181343662788636,2.4185958645349523,4.4963110780501125,4.40145122402599,0.48108157816035846,7.1470189297276905,-2.39962949925384,-6.031070863793269,-2.0450091975812352,-2.2370481757147314,-2.377548274383194
95,0.3404728239031972,1.938408981301832,1.2447219476618758,0.1706269742554127,1.3133595664465803,2.983510071459645,4.445087871352812,0.1503478422456252,7.1472113382575895,0.1214234204800306,0.3476722841952881,-0.884457519589282,-1.7363990490332897,-0.12468438814155909
96,2.2744514076486926,-0.3247699150195101,2.936101049595325,-0.6394557889461435,-0.34211539954342984,1.6214994833718175,2.6136789994255314,0.11956530374970575,2.4262983534102474,3.675246535687803,7.1680850911527365,2.1976053949417875,-0.4301958893749772,2.929639585425529
97,3.5571942297387626,-0.6646209817122098,2.7897273563572638,0.9654040688892227,0.30769867133565876,0.3951505427550154,0.5789147317427583,-0.338473988576647,-3.0640193167077086,2.8087521388338152,6.555706386080892,3.0364826130238955,1.6517863628709972,3.121614715474481
98,2.5426179249559016,0.30474561258246796,1.0799750941797193,2.7624592526620892,1.3909832954565364,-2.7155376398999906,-1.7867758747910936,-1.300455864833454,-5.31544208924815,-1.8942750447171752,-0.1834330475880442,0.5083901774583794,3.239672075820344,0.5300951774962201
99,0.08461950981471804,0.6513972339171674,-0.5750135174959079,1.3090085095921582,0.35340480510033867,-6.752232515989029,-4.493699179586779,-1.6181775371484268,-3.795792820978822,-3.489212792061286,-4.621525944859286,-1.1576502767959331,3.6679954240993182,-0.5747640133355364
100,-1.0488584525358708,0.6516505717307974,-0.6347771591769314,-2.20512873196036,-1.6217673301447286,-7.245009604040871,-5.21894238426606,-0.3042570757224815,-1.1973730120714527,0.7545721916811655,-2.6396051239201563,0.8810404980899429,2.781776240659299,1.3798486947006436
101,-0.020095805991410927,1.2875246585917215,0.7160394221893085,-3.1666879929575487,-1.631016636169532,-1.9078096184870923,-1.7665332526903714,1.8704074735877445,-0.06453865549754273,4.659085822187816,1.6495342308111665,3.0836426881101495,0.45111869769107454,2.6835006661518177
102,0.7820022502440533,1.5815697703625458,1.4588811183835635,-0.25795750479433527,0.39959229804378704,5.597110154352782,3.788250381597436,2.714563730626041,-0.018231062055429136,2.3753517126379067,2.8008497257915135,0.9011809355545337,-2.5094239940616205,0.26257705353517397
103,-0.9798254184619212,-0.23983804071965048,-0.34610286235931886,2.449808167015465,1.6364401164586426,9.073190731038068,6.12651617394419,0.9640190868288738,1.116076481801677,-3.052512134286956,0.15878642430066534,-3.865880667063809,-4.341928935799938,-3.716763925525674
104,-4.0134869309571375,-3.559106130037378,-3.8665460542654815,1.2175684127057516,0.40544248708774283,5.994064578810408,2.766348739723439,-1.842216735126924,3.54457027259982,-4.7939851481858735,-3.0852708667252777,-5.4811219273971155,-4.0029737364933435,-5.1305140056617535
105,-4.398808396694049,-4.958604050931336,-5.234725895075656,-2.069998036602253,-1.554149023542175,-0.4637027960050927,-2.592700231659345,-2.703959322571744,4.366658446071973,-1.9118051652252728,-3.632887399567594,-2.387853128964251,-1.837023425248939,-2.946285935849886
106,-0.48848592688917103,-1.831148842060595,-1.6751874544621075,-2.5372080228401566,-1.4951536308796474,-5.000755704293098,-4.285257486058541,-0.7602137931690968,1.3733550235124872,0.9316598867155512,-0.7496655978636539,1.4738209382512595,1.0692936631543764,0.7089000896536332
107,4.434831749915907,3.7686205969294058,4.2020805929492395,0.8580579355881803,0.6891349885055821,-5.108046666695545,-1.3179250988062012,1.5107836429857369,-3.1367439323876747,1.167112877107325,2.938028011262582,2.9404959761034277,3.2450996287556273,3.437572099847451
108,5.773975220007963,6.300411821557059,6.616109444461211,3.8192433190497037,2.3173799989319703,-2.413538286335207,2.1083290503160383,1.507397027722525,-4.462209734009889,1.0218711540238672,3.9475659061357287,3.042596824867693,3.571127017525876,4.168385596833019
109,3.007765046638842,3.0068085653423564,3.611556656672243,2.5563716076620464,1.3974071649004107,0.10618552054831712,2.476228806456062,-0.2026307223457257,-1.4315538492403244,2.741593726545826,2.0060212506576662,3.444989352260289,2.5424071807743536,3.208939872857548
110,-0.5132701762809467,-2.28184476793046,-0.8298046662059049,-1.251231903379785,-0.855946147772279,1.145361501726053,0.8016164696672219,-1.091185043134847,1.9120813521010473,4.521426581662403,-0.13665147353279197,3.0327070700608525,1.5044278105158537,1.5282512272394335
111,-2.4305489743152453,-3.769043217350762,-2.57966388736461,-3.1392822077223803,-1.7986420849500715,1.1783469235302086,-0.46484164827428526,-0.25237968837944896,1.4716762519696822,2.618074033436177,-1.118115132352111,0.027573883637063205,0.26019605713592675,-0.5027952338698716
112,-3.2527600341045266,-1.1059361932739313,-2.2703713149644207,-1.8495331985136985,-0.8616964817316713,0.947787512259636,-1.5800675627875314,0.888182213600434,-1.7849432678115726,-3.4700966418325656,-2.136035643017274,-4.502871915948587,-2.503381418228465,-3.168963893687495
113,-3.5022229841921693,0.8107171581137291,-2.6550784173277777,-0.019882088491405478,0.16736402470442618,0.8678891306570549,-3.557553885535211,0.9879698865817045,-3.318179982261116,-9.049912322757693,-3.3279761549984594,-7.25810180927622,-5.8076604686573905,-5.557943672668766
114,-2.254195198145963,-0.7733076019071954,-3.6276776877611856,0.3935123547392889,0.12701969178086162,1.0856353229153832,-4.0062243224168075,0.18412974943744229,-0.5774839780467276,-8.17302183437938,-2.7768314296087655,-5.958913508241789,-5.953988048947183,-5.142835385510928
115,0.5951465073549252,-2.7299283880678633,-2.4352459005269793,0.3880974320625167,-0.06084646766288677,1.1207346077545988,0.38268718586955985,-0.8263959142634743,4.314419820838257,-0.01984084022356441,-0.07636087178823536,-0.857761630183363,-1.1260541958455326,-0.8457815812144253
116,3.258406386627476,-0.9302356225922677,2.055291995621877,1.1965454985179376,0.5702288044788211,0.1469298166324901,7.087244308456407,-1.4664209949994882,6.785517321866211,9.105879538629404,2.74929065532491,5.78243496233552,5.3290632224069725,4.664098890571265
117,4.195751123802279,3.7002595362474886,7.046165763092766,1.929134082096175,1.2407392984749002,-1.5130880067211376,8.560533748666213,-1.0209898194655338,3.796354892275145,11.34024870182746,4.530966215158266,10.279775748175254,8.062672464801661,7.396532393344614
118,3.263215565678806,6.09446031221017,7.885648926128952,1.187263833778951,0.818986693149643,-2.1495352029941497,1.9364518436251128,0.6385365703640404,-3.3287985800943467,5.032320475284383,5.26146538717028,8.848625042821942,5.2870378711532195,5.7573472650758655
119,0.5850402248283347,3.0808358933314417,2.4683713588399345,-0.6429461796380426,-0.2555279180561695,-0.9769691768611952,-6.235453963990445,1.9900526673874663,-8.938540854652219,-3.953083681033408,3.1259729351864136,0.8343445756263621,-0.200970079041906,0.8469308502306528
120,-3.1842891614077926,-3.0792093654567734,-5.845615448676899,-1.9996079000186164,-0.8494529672332799,0.448537252943902,-8.114364596709562,1.286319004534493,-7.408475673173107,-8.687068887540152,-3.4492176857371626,-8.946043073558094,-4.713166510559463,-4.943986707416528
121,-5.464654234083989,-7.107941863927601,-10.24932123001984,-2.0840633866797353,-1.016342856502738,0.46573915624360374,-4.052809202313948,-0.7661231819041356,0.6819087028143336,-7.459584489490018,-10.097299966176452,-13.003631850965663,-6.622125257999282,-8.232830369400316
122,-3.6691545098121434,-5.7711656242684395,-6.825470344765597,-1.193511184731634,-1.3641346353956565,-0.21979833563843237,-0.018695029122534762,-1.6238115922043121,7.89008215156466,-3.17459776587064,-9.133538788284453,-7.902489106720856,-5.71784346199596,-6.124714742532444
123,0.9247818815976261,-0.42945952532098985,1.249897865158952,0.18752687579269797,-1.1917145812710677,0.06704235621173577,1.6692831240094474,-0.5041925216189985,7.463006504175896,1.367739592583798,-0.027118024749909243,2.144561755108059,-1.8100365530811475,0.3070772647233867
124,3.989212824978353,4.753445306724327,7.104670880370362,1.6348058191709438,0.650662273188879,1.1973104941952588,3.580712280147808,0.6736708346994141,0.6196090960732527,5.235234293897497,8.553471718148714,9.403879980510968,4.18144614062167,5.946054474258775
125,3.483197059453453,6.515779159503405,7.3494068152375664,2.416570387495077,3.043762389738666,1.6635804997274632,6.09330404302745,0.4822037710393774,-5.436062924838688,7.274391805527644,9.663989738948795,9.978558133543775,8.60418986768137,6.940861287597404
126,1.5285310755710872,4.453576945296548,4.077381586737305,1.8086319516234548,3.061916226373823,0.9005534601473776,5.309812889290819,-0.10201972001106371,-5.434971574027181,5.545161809628731,5.301646237195299,5.827594396272152,7.262536655461074,4.183237851218718
127,0.2675974071795915,0.19433577576645414,0.25047631242506435,0.0021280399579517092,0.0051259210178598615,-0.43254649214374946,-0.17938121128718687,0.03318633283860889,-0.25176498488465754,0.18768391944271057,0.152290074438832,0.27832523692836475,0.3085053830820276,0.3041042676399991
