,AF3,F7,F3,FC5,T7,P7,O1,O2,P8,T8,FC6,F4,F8,AF4
0,-0.0751071064414412,-0.05939772596680294,-0.10048045372510436,-0.020340627173491672,-0.010862460317799949,0.09531468724305955,0.024870204768250605,-0.04510154854582145,-0.05482418872989324,-0.17096236939702972,-0.14474951257566068,-0.13967724041472201,-0.15398351292731632,-0.1527528116786035
1,10.102785372601268,8.949045494666978,7.413020370551737,6.538811804848634,1.2237855984894437,6.811689487540321,11.95431815321145,1.9509982741990242,4.158932109448823,7.117288030575059,8.590039440446334,7.79286564639176,3.161500033500122,-0.0457753711404319
2,9.92073656800077,7.884057548128158,6.840726841371365,5.2620784583148135,0.6112710813902782,4.320729744424994,10.717415156035393,3.424720875676149,7.0062538956289,6.7908849174295165,7.291224531098785,7.549720845565879,2.260100812389095,0.41623983444204604
3,0.24811126262696367,-1.48099412646339,-0.8134453674004477,-1.9793394451059036,-1.184082184834735,-2.916035252053865,-1.0308943019074486,3.5358244903506835,7.392917566935687,0.8831285056631908,-1.1831720836889097,-0.28165052107068617,-0.7842801689763172,0.5929472896182915
4,-8.417315910033444,-8.29006224975038,-6.9990035464248805,-6.503598969130619,-1.9041865576346615,-4.0663231835713,-9.344321135228952,1.6679409025391612,4.9205122910951395,-2.4867734907720807,-5.848253023991455,-7.054995067375547,-1.514061782944657,-0.14575661943126444
5,-8.14989757651451,-5.966986469979792,-5.733583239950977,-3.87339657785023,-0.5248937528809164,1.431107821191668,-6.8537126254991865,-1.6299360725565817,-0.001987801600825083,-0.7417232146132755,-2.695135591733937,-6.088444210724864,-0.33827574396864696,-1.3364471340444521
6,-1.5243102149826662,0.9727782481130508,0.1578067785122953,1.6710571222649526,1.6464401226613734,3.69975803789215,0.09500229557016673,-4.537951964651388,-6.083756652048802,0.2527051381826313,1.3522974474347713,-0.22614845278218662,-0.8496678878834075,-1.935785417642029
7,3.5670771084117914,4.363199030937454,3.809526229949177,3.9590121586055598,2.3986603287606636,-1.4463630500141753,2.8875341727348007,-4.921191026349906,-10.491976862628222,-3.678652906411865,0.12904404019867532,3.0013333867052356,-2.582772878308148,-1.1587332717521928
8,4.013406809149303,2.807250798367866,3.030497033323759,2.312648861628414,0.8070960824708195,-5.829828642644944,2.1307975850421244,-1.7182912451442334,-9.355834670647544,-7.080213574904776,-2.616340300193506,1.963971531562169,-1.1294472446619952,1.262271194180839
9,3.0370409684673145,1.1608509909058036,1.3860216026137382,0.3311590672270085,-1.6746359576324379,-2.082152256324764,2.891057950426089,3.5869872471508093,-1.5368035804215114,-2.253082917003446,-0.11629178497714973,1.7526997270948539,3.9565198550702783,4.192867998063606
10,3.0913389575487145,1.7631841946014664,1.4911935105192844,-0.006079081779489945,-2.4236258902354217,4.703394734714751,4.150887819852588,6.739259965725822,7.986934723083036,7.8502102609386215,5.692343933299453,4.320168206975508,6.609764556399891,4.60759481424985
11,1.9773817617270908,1.3595158096816498,1.2710307336058235,-0.04857420788714253,-0.5522737588397507,5.210612746386304,1.0584072350282467,4.00910002794371,11.580639276439529,11.326059527465484,6.169200033203605,4.158116480194897,2.2996568183964876,0.4833648443044147
12,-2.493868258397926,-2.4104408385427427,-1.6871145213643663,-1.2389092052844903,1.7436202513034909,0.018808323172957914,-4.881791708371679,-2.8751721629329596,6.904471891577385,3.0998658100093457,-1.1097477751170457,-2.687835019843221,-5.010184613501437,-5.385617547418004
13,-7.4592788850403595,-6.056098726674748,-5.285229158235251,-2.7338073748830203,1.7076654540524112,-2.7967281152336576,-6.606479245658209,-7.096225028655099,-1.0526337815103508,-7.7514294709555855,-8.184985319890332,-10.27447686381571,-7.612047456584122,-7.338989769211868
14,-7.49987641525105,-4.756988834946291,-5.146989188760459,-2.5986632768861697,-0.44067933413671556,-0.889332688056911,-2.3119495704724793,-4.214937367120325,-6.281432118512315,-9.875524018813396,-7.2392227855184945,-9.140595436387756,-3.643087460079153,-3.424582226077945
15,-1.0778147353589804,0.8431457534684337,-0.3253358353635168,-0.18779678930111865,-1.7950395224603255,0.40100470958905643,2.4353234877171146,2.3618054418592744,-6.9067945243911835,-3.177859453049168,0.06676519261341844,0.9932370901448061,1.9924983011270911,2.7549421940555847
16,7.267781747247215,5.628659747113637,5.363767391354402,2.9620727338366524,-0.6018232822662605,-1.5165847227798932,3.857384265287987,5.723819978732774,-3.87644583958695,3.966114809140872,6.414293419538192,10.3424389632671,5.013553905606848,6.95706129941673
17,10.720917100984028,6.209127341904184,7.185160972608501,4.271950994720324,1.518928677163884,-2.604871601982353,3.58586218507273,3.6587019126382136,1.0738270979202327,6.146689363732567,7.493595007132337,10.733226665635408,5.439425602646598,7.442340252541068
18,5.815529502119635,3.070904445593146,3.511586845627599,2.3696240466100496,1.751593798392409,-0.13666465750891887,2.4849267432916826,-0.31100152294365957,4.769643301448431,4.126442750673669,3.7272086826187425,3.5635108727188816,3.81270033112465,3.379606763580104
19,-4.270163389214264,-1.9058075513437478,-3.1054493014213977,-1.4358974107204208,-0.3214646516252999,2.6901067284461138,-1.0284559324270173,-2.740420864848373,4.008723806080715,0.13162622488734826,-2.640568032041707,-4.518394428999115,-0.945960565790734,-4.61026120980792
20,-11.319204133829615,-6.314799430764963,-7.622159451363436,-4.0636357998616495,-2.1640385896069168,2.7201917000869065,-4.927077718942941,-3.441843538861983,-0.2603819062817051,-4.069862401354822,-8.03152252519923,-9.081302960817835,-7.3229904725320045,-11.141433086509881
21,-8.814445233512028,-6.647403898626887,-6.095334257430391,-3.368954126863402,-1.4076017009272794,1.5667730687106607,-3.9658054229647672,-2.974004811557266,-3.130095234796926,-5.708630741175622,-7.841687128429525,-8.767501423598889,-9.124902516175455,-8.955515988792262
22,1.2905674081088163,-1.348545117027963,0.646387077002382,-0.12574595431998536,1.0835275295191853,1.1335960098610094,1.3448564432741528,-0.7745097136900309,-1.826813899683153,-2.6652689396211793,-0.9189123523558442,-3.2078623228230345,-2.323180441432286,1.7948422494915948
23,9.623695655408415,5.39668489143977,6.897028490560374,2.6759103628570418,2.121702516801866,-0.45121139869196203,3.8707951794430935,2.7379198649955154,0.9921484942708724,3.0715309385480634,7.1513106005922085,5.37528857122806,7.727821096420811,11.27313357311393
24,8.740358722368915,7.055903539845987,7.077764723541415,2.6653589274038927,0.2627821789577693,-4.212182789415792,0.8860991084000729,4.872423459481175,1.6049179720437259,6.52352416762822,9.03001740652671,10.836770210569357,10.844726078447632,10.460690129721153
25,0.6227883703681152,2.5533469331751517,1.3194206503379018,0.3617974950993389,-2.1028670175010094,-5.896227062196787,-1.807818041222828,3.407322168103443,0.2629016823049338,4.66912464654295,3.7272136052820803,8.174935606324198,4.054121051692435,1.2885511608391331
26,-6.299935914906934,-2.7879290303978266,-4.771124122535411,-1.4766399178005059,-1.5850369547671503,-1.5974087137456228,-0.29382558768249517,-0.6414280498414581,-0.30963831741399683,-0.9395806818602782,-3.089051619541722,-0.41090059818256897,-5.060113607402078,-6.676438982374307
27,-6.373176718619523,-4.337479123208444,-6.0280774598667834,-0.9037573636210997,1.762121302760644,4.832028162253067,1.1257754275342402,-4.035002201464418,0.5734843370515756,-5.772054289561909,-6.183284725638098,-7.566261026115458,-7.964123884861063,-7.409135335037258
28,-1.3730827220489106,-2.6259422825860272,-2.498870916465805,0.9564733548471628,3.8695851137473785,5.946559287508337,-1.1083152233344011,-4.255387710473013,1.1321593348392036,-5.816236395934722,-5.045065714474563,-8.349757669926804,-4.207438216199636,-3.13482612226664
29,2.9862195430683336,-0.4173875129445667,1.7147447670094729,1.1920006259984037,1.193855474176376,1.2854366147264726,-2.4693468359335777,-1.3473661330536915,0.12633573027793127,-1.1123715632602083,-1.791846882248044,-3.785949713650367,0.7376492393649132,0.6920121900530738
30,3.1885948530310246,1.065802117599954,3.1736738136854328,-1.0582305491071726,-4.248925830883091,-2.1548393098877723,1.3992622798011354,2.1128005801423932,-1.9040733244864936,3.5267388779086883,1.5515562091852986,1.7394094313006754,2.925502822536826,1.717923169001291
31,0.5482430592969407,1.8867308075480926,1.9988222741554578,-2.8985130046869476,-5.921520360655915,-0.5097689783128185,5.591276011966294,3.0924005357716298,-3.6416472759810716,3.4519205649241247,3.375533684969387,4.5056421285061745,2.4937458015317313,1.588767358773259
32,-1.1636191255388477,1.9016662954024426,0.573003012596259,-1.2317303494847291,-0.6199968552530807,1.6902229615804922,2.8890842351755195,1.10736374848487,-3.498193492610482,0.14876949783125748,2.9848142686515424,3.8430922224346387,1.1809430824068228,2.374921435297701
33,-0.2677344610583617,0.899109470575492,0.20000724162811034,2.481425109806487,6.102185365552949,-0.7185952321409526,-4.412593140460583,-1.244008522897593,-0.1906360355914746,-0.8546271091941461,1.4011735574989224,1.8966221832475245,0.2395725387415162,3.3181735975190905
34,1.0978859346969168,-0.669441310872055,-0.12130592872018478,3.531595795812049,5.966755079277077,-5.2003721676137475,-7.371330231239228,-1.3541637699416653,5.170340474104296,1.629439177754415,0.1103695263299618,0.6336148786702868,0.10903343564584513,1.7678391062556635
35,0.383787301257242,-1.6739289922388148,-1.3466264547924776,0.5142668592256873,-0.9067270076022561,-5.178661316763792,-3.0103658980061327,0.5479227769162123,8.360093648604385,2.7161022937218515,-0.6568088180387502,-0.4057062722621046,0.37589948554460434,-2.4057481338260236
36,-1.4091537796497027,-1.109380165426894,-2.1573459741557657,-2.4503192713628685,-5.6657924711016285,0.3848416117692879,2.857325285283157,2.089716661278434,5.641577900873683,-0.38096355194175335,-1.163204464153305,-2.0700328583941023,0.18115345361643,-4.962366196937734
37,-1.3420591775743775,0.601441544503569,-0.7918941087931493,-1.6814992676742184,-2.780244298758804,5.722646028887814,4.881159580160891,1.4249713211948964,-1.7930896978322148,-3.6034898322581297,-0.9507958834149871,-2.89274756429814,-0.741922613416568,-2.211599375721379
38,0.5587391842086854,1.4287356676792775,1.6045271338970593,0.8329561600272237,2.6431631030664327,6.125827549859693,3.9453497604855032,-1.1261303975437722,-8.452741523196863,-2.7191307662778312,-0.13264046957852527,-1.2464945268602943,-1.7663347634768791,2.9931196648976006
39,1.2073529509526078,0.0544761137887982,1.9046570617884369,0.9330245856256342,2.8724826255291696,2.728303475969691,2.5373003196616213,-3.367460646942313,-9.809144183370373,-0.1497400661056381,-0.425211691100007,1.0146492892034809,-2.104203653285641,3.750962411690062
40,-0.4008299597694353,-1.9120216031907817,-0.4551286980156767,-1.2250530643258484,-1.3732383972651987,-1.2337969270658184,-0.02713451905435739,-3.1059185265746208,-5.820576583750228,-0.4169654437440654,-2.469688977025851,0.6734505726013101,-1.3337773418779877,-1.5380889424095405
41,-1.4504501851115192,-1.7328552665773456,-2.2735883401190704,-1.795222441431298,-3.03678717484447,-4.457618810799744,-4.386500836041509,-0.3762700847002911,0.6584809432453871,-2.0806007588886013,-3.348155719471107,-1.506621743308901,0.38822142767040657,-5.997291541603743
42,-0.007415424631289733,0.5663191824173538,-0.9717012592161247,0.530707906833181,0.25676155476426055,-5.829259159475572,-6.948321271009854,2.4546482968020538,6.912871061267373,-0.10470574870916208,0.033009151270177874,-1.3741267106025903,2.0009156797053134,-2.9677418792840355
43,1.8410285639819906,2.2586999946143607,1.8934329361689584,2.650912447243785,3.303836533605241,-3.0287391920347133,-3.655509771601374,3.356938238913703,10.685476234082463,5.123631379018027,5.549114081073315,2.2361003236059163,2.272667022711931,4.912616326425101
44,1.5491487178354584,1.9936370976726876,3.0220938140204683,1.888096441506037,1.790253105830181,3.3272573168123416,3.3561310878965256,2.6951145473516833,9.598390632932162,7.354492591658385,7.431491026066995,5.309655116095848,1.6267807296436425,8.843007222660468
45,-0.10454216962312454,1.0521242304149747,1.5235834450370893,-0.47348470377450774,-1.7508172229500292,7.223082370348501,7.1450663277128665,1.7031276090684813,3.0775095080740207,3.46864458469883,3.511464972422608,3.9144458363721384,1.6660625596105092,4.576011141490083
46,-1.1697961723169916,-0.013587541016098872,-1.09465410154331,-1.7815799679827395,-2.5952304347520143,3.608618879294987,4.225554213468117,-0.02569391729385964,-5.622553815846622,-2.786178615753411,-2.6396085271906315,-1.2076398944355593,1.685221692848141,-3.5190126650619824
47,-1.6758386052761192,-2.329627306137603,-3.3142401561787045,-1.585232283412012,-0.44399903287975384,-4.0648771771773555,-1.6598829651828837,-3.4365319481113623,-11.657989106748282,-7.1043413171935805,-7.015345119361071,-6.10920076664124,-1.5107410727944686,-8.38175629610106
48,-1.870923871996363,-4.689965463924399,-3.8200229814629956,-0.8573531158066016,1.4825536104325618,-7.138165514741197,-4.5619168152701715,-6.619409292915162,-12.62015572652962,-8.781005424242434,-8.335327503709726,-7.14459792848811,-7.360329235891222,-6.926043760063443
49,-0.22242508736674504,-2.9118654764350462,-1.2613597575459417,0.24685891511046124,1.4321593646757693,-2.5093766365658556,-2.7269520421067126,-5.364084561095177,-8.517899782876084,-6.875573040107727,-5.47915475300131,-2.937861626986768,-8.489519132386468,-0.9924589953172943
50,3.24743816845042,3.4677005169543227,3.3331374649806538,1.6586696424578216,0.38829542158581754,3.985584536798072,0.8203849352713248,1.3202046372823968,0.6280645655376949,0.9495865780433222,2.4634768208527986,4.129846832669869,0.3133990346887434,5.102096647541968
51,4.346928756165263,7.66669603752424,5.570792782371731,1.9297767191560575,-0.417030956151019,5.727948890468823,2.3816116691968983,8.207351968508442,13.02035843850669,11.73301717292958,11.156884012465795,8.33262894598653,11.75490764310711,7.1755327371639925
52,0.021318145649244787,3.5942728399768344,2.4666524530515326,-0.008586191663367524,-0.9818566768979864,2.7797661253926216,1.0988472697868354,8.73560276634947,21.133402163626403,15.344634908357126,11.773266601546357,5.577222870401646,12.190418027006176,3.8005418815656213
53,-5.526087934023574,-4.917626455571482,-2.8861358473424126,-2.3257799305591345,-1.5567179403406306,-0.7278841409561402,-1.0283192888058015,2.263372976549758,15.510194938451715,5.654123515886069,1.5452117834862606,-1.6792444891245317,-0.5271865903622054,-2.104935333191936
54,-5.118504046504481,-7.9034855470703125,-4.6831843709164085,-1.961274157557833,-1.4063727991926191,-2.8048485125908647,-1.6626598828858672,-5.28133424160753,-3.4708051393518353,-9.38378408565347,-10.083962613425857,-6.686304507549483,-12.34145005441351,-5.299283108660711
55,1.448690183353715,-1.8824217332196915,-1.721081713651759,1.1140000427456387,0.5575137698470347,-3.7886197013404117,-0.3437778164607043,-7.625926220092239,-21.175688390814567,-15.087515630639915,-11.20052670736731,-5.381872000862889,-9.978981951807196,-3.1304586650136845
56,6.5052433423922675,5.727702644610798,1.765929190802327,3.30580976268843,3.4922736863385078,-3.0967085635009908,1.4571075962146,-3.836166198858878,-21.959848703099038,-7.022022893611754,-1.720351897911652,0.3530760761901846,2.4941919620126907,1.6717038623812996
57,4.229461013683673,6.005311342631572,2.1341288722982616,1.6970067453024575,3.974261129636995,-0.13362326516314801,1.8609689179115754,1.6055178149009413,-6.620408740176431,4.457538113890007,6.855472784638744,5.176512827749578,9.55146409025972,3.7753372363946465
58,-2.481693856273532,-0.729057098359574,0.15180670122119477,-2.2941223851896693,-0.20540718301743732,2.7720651305388433,0.17989612081935857,3.3986992427901805,8.639497939555586,7.4320748295363375,5.6899387764685665,4.57363802524416,4.047204696493637,0.8969644401378212
59,-6.122297594325225,-5.927343494105973,-1.272585381278197,-4.2995112961226285,-5.574090708583504,2.59896842694757,-2.1890205095750312,0.766384019336525,11.722737861830621,1.8924753006872428,-1.6653914023516936,-1.297530841141699,-5.084652100208043,-3.628462392599246
60,-3.0862185889163114,-3.465932312090966,-0.5591684736076128,-1.7410088998237063,-5.496934059412489,0.5399936438053262,-2.4639114806794016,-1.5118838659260605,7.115474343609037,-2.463665011298783,-5.006333672672682,-6.326202983255087,-5.7260382457599475,-4.153096339883279
61,3.110120553730007,3.3049930438874084,1.6505108220619655,3.0560337381038374,1.1106623340634052,0.5288136490900939,0.5313511235103331,0.9812088311478822,5.3071918118275905,0.5242607169748453,-0.13912880166973846,-3.7782902215579677,2.1104401745383257,1.0556276773995714
62,5.833685896409093,6.04453399295969,2.997143729184805,4.866192374178398,6.691401076616642,2.496899277725631,3.755698406358703,5.370370463089701,6.137898250012281,5.927155386407048,6.386061655682334,4.609982082384794,7.4997152245147145,6.791646054837192
63,2.0876075368910585,1.420112059914188,0.9643509366078896,1.3664934024987507,4.086939252762153,1.7184232380035296,2.5758176194799685,4.092362129583636,1.1229362675762877,4.499226942726997,5.259508742399143,8.33327703428581,2.906620874206165,5.49465209550941
64,-4.123296113542851,-5.212879020800907,-3.743652472401534,-3.5995492417365527,-3.426513796700055,-3.271632587687305,-2.5904696322576433,-3.9079896597171717,-9.937551844350802,-4.464213857142613,-3.6676518458382636,1.2353456597231802,-6.642252545845214,-3.359423399967644
65,-5.749500530480348,-6.240651468435105,-5.970913132543688,-4.23318599400645,-5.953254707143126,-6.686428499788772,-5.075989444281278,-9.310027975695277,-15.206800449118859,-10.519289217975961,-9.698236809440841,-8.31760501455409,-9.509092482888555,-10.04569053470772
66,-0.8295183287921714,-0.5323209056982714,-1.684768521903713,-0.08373443384080625,-0.4852454432474286,-3.2639639394342823,-0.6513649547657214,-4.345831707130407,-7.200776909774034,-5.121750407715908,-4.183032965852432,-7.252672421240339,-1.165163336821762,-5.12234225177911
67,4.743970477347132,5.52004306535486,5.295583752731899,3.3675952570631833,5.074529180280052,3.311111089444313,5.160053276368385,5.253100841862854,5.30751465590129,5.5982985140782375,6.853546466776737,3.517496728664912,9.592504054228067,6.944150757060744
68,4.361404575830584,5.566276746110019,6.591336936987747,2.131250852764678,3.4174841669349885,5.021376233587449,3.8090698996370542,7.242473526993911,8.716801167240359,7.774943857673237,9.00302103416222,9.110365379015118,9.91006374378164,11.06929256829906
69,-0.8613148953274115,0.36332890832664844,0.495475265458123,-1.2074357068540071,-2.1865007648707553,0.9767926583692785,-3.408215515148766,0.07758290313085468,2.9789863619316104,-0.5962894103001677,-0.9590788472284132,1.6716046856589637,-1.3924522569236812,1.2109973773324012
70,-3.743693242698551,-3.803379461916186,-4.899799513028954,-1.8049282865841743,-3.8148959173513886,-1.6937893164201527,-6.1353736701675805,-5.133244509165575,-0.07243002458286577,-5.980196609555319,-9.406895563456677,-7.7820352965292585,-10.919230733315748,-10.018167091584724
71,-0.7886232830604828,-2.826546413157323,-2.7139453724320486,0.5432679704056106,-0.5203756790355994,1.0827245178718985,0.14354470680376424,-1.044125618524265,4.6740047941671286,0.7986862597784397,-4.180100137182902,-5.1743659572961755,-6.804855697534665,-7.563492820841537
72,3.1769512035972887,0.7878835891610074,2.9157101503816323,1.855415021860131,1.9562483030695796,4.177782688245252,7.051313989524533,5.552646076345383,8.012744257916873,9.903076743181597,8.007542965562719,5.752465641980414,5.525734945831344,5.107381074930289
73,1.739141100961652,1.5911169352524963,2.9086435924793075,0.05328730732220431,0.775704384773934,1.112376976095192,4.983929245394191,4.106681161658733,0.6689263308132354,6.127432074668754,10.213847289585111,8.598123001392914,9.89682369940963,10.238754942960773
74,-3.973805464401485,-1.6674407686762176,-3.3254424307166306,-2.503754852385374,-1.0094127378816071,-5.961690162648384,-3.6298789631009374,-4.412389099254974,-11.87755197953985,-8.427002496950362,-1.5991777558315163,-1.631996563930702,0.8479931881761413,0.36628528018523476
75,-6.082756765549379,-4.089066447626372,-6.706374694205621,-2.5570178960563514,-0.6242012470969609,-8.451468775564566,-8.086435105450295,-8.865929744194123,-15.395190723504097,-15.95124173659237,-12.79976848685927,-10.852972655654787,-9.13812263873108,-10.941135883795985
76,-0.3160389938995539,-0.8993712491753216,-1.418731219184625,0.17559966907845903,0.7405278629731584,-2.381857562852157,-3.5154133717035063,-3.0251800431760407,-5.17057666492781,-6.496388728569032,-9.14527374035156,-5.897518881942746,-6.813309866652729,-7.63070471675758
77,7.405664838522807,5.4618392048844155,6.659680506023762,3.078181984532919,1.1364910038211284,6.381129439478802,4.146585811585649,6.47745506454088,8.372321589707145,9.57465238224666,5.1232330150012535,6.913858006193557,4.229251016692174,6.560857377114025
78,7.791467848957898,7.454064024928977,7.981227368473609,3.448206664093724,0.6683891636688902,8.964463705672557,6.744958929991389,8.98965488472819,13.02240256557134,15.529717767924529,13.244213054229945,11.001292610747008,9.518667927060706,13.136597076834123
79,0.25389313188576623,2.077737208285564,1.8784204974053698,1.0265474476688317,0.09640163157205861,3.5268223326470287,3.026337521853112,2.717845364330357,8.012391218001639,7.560569397692409,6.8563463187976454,2.269127520546554,3.462818354841289,3.9482327328274742
80,-6.4093903582825655,-5.10480995979488,-4.104587845218906,-1.8999610631731279,-0.5720490605417303,-3.475313964191703,-2.0629926343095035,-4.7639818050210065,0.9052465850740918,-4.475756992758039,-5.236542682683237,-7.077280604409753,-4.971847035352269,-8.702316018488773
81,-5.97885750239691,-7.356195301760535,-5.338779927435396,-3.0537772588765404,-1.3044331000282394,-5.494974315723757,-4.131724989925003,-6.8298630771435835,-3.8308130401149247,-10.57301334956483,-9.687072221833953,-6.754921256071847,-6.218050882036257,-9.883903579856527
82,-1.9236321479696963,-4.497824137830634,-4.11320344397804,-2.4145450100759454,-1.5699030335838073,-2.8274096428733775,-2.966850495470598,-3.9924688373683312,-7.207947175628899,-8.801852297126375,-4.26655423837413,-0.6872865064608443,-1.8035916603324813,-1.2212836840176062
83,0.22087485307896412,-0.33611350307249976,-2.5592724784326397,-1.1048726844985701,-0.9403144735832102,-0.18761858657488575,-0.6908322646916232,0.07431666870250818,-8.805202844113824,-2.45063657631462,2.6017714519496473,2.2646651661825627,1.2206008298953794,4.632673380427336
84,1.5387397003205967,3.680243661033343,1.0882994946415803,0.8529750666827256,0.6356435480613084,0.28270521211459,1.1132968100526546,3.5767455945482904,-4.935187951194398,4.536001511990971,4.193065397042929,1.5311503988674164,1.3676688284782998,2.9283351290150343
85,5.016115353984872,7.310691565541376,6.3970129914474505,3.4885335471048924,2.5696635166781294,0.6566450560419042,2.061278628669989,5.6171265365805665,4.165192287262876,8.386318706126113,1.9723153629872583,2.0417503908120636,2.2438415972886196,0.5335621015020791
86,7.016043972781775,7.131678168473622,7.545783841449896,4.469031831139225,3.1624700227378706,2.5287633822095006,2.2241901319040567,4.425363640974839,10.967749920407096,6.512066394812323,0.4165271932567247,3.549848127718351,3.996046110972948,2.141991296653726
87,1.852877706921503,0.18909156290611862,1.3244570765124921,1.229743925892242,0.9002834672080547,3.8774729570234374,1.562116696518809,0.005660680765517109,8.793766723949927,0.3960345790618647,0.5085190058922066,1.3524735441651246,2.336773265636111,3.0803255075397877
88,-7.064255685403213,-8.634192044169033,-6.244138438150481,-4.071546328506429,-2.850024048846799,1.9232588548919187,-0.0043626292310653125,-4.047654304401126,0.3014880658642349,-4.70824039667206,0.33569583219947513,-3.983799301640009,-3.2620347529860587,-1.033647061757173
89,-9.543088508552895,-9.989873489896828,-7.040222538745426,-5.564282190029597,-4.265430181876257,-2.569258417620323,-1.9779915755761102,-4.621069171223503,-6.372457553531835,-5.2680458972545665,-1.0323261384598157,-5.922879129248834,-6.705254247400465,-5.864069270099117
90,-2.7311427574154306,-2.183784352691324,-1.656945812582604,-1.3604784440070523,-1.707095486637762,-5.566294131403006,-2.9799677373383955,-3.003100793054,-7.66985103341673,-3.142801281826981,-2.671821872955193,-1.9257079286192165,-3.5998518237040784,-5.095447756537273
91,5.048679584070985,6.169194729250931,2.744483461823073,3.2976731347283703,1.814019755692066,-4.052297742739487,-1.8331641804837195,-1.7692561373263669,-5.915326687439511,-1.6092157334285204,-3.090254548832183,2.925284116586261,2.3663467033570322,0.21035450614969428
92,6.447432218381459,7.53236400465031,3.1696585741461,3.241992826589992,2.75629377986532,0.8980085727168073,0.8234738930407984,-0.0947089617455509,-2.417577531544679,0.012615598712319237,-1.0394240898085816,4.14585774153863,5.0544689743400655,4.459418249998201
93,3.468310544365563,3.596183533401117,2.6238565301299746,0.3544845782909062,1.6992450914798036,5.1235739744708315,2.7012429690279833,3.766031384981227,3.801905024882916,3.7831546084387657,2.9638253679098074,3.105001324123808,3.7244629696689113,5.117522983053025
94,0.6803413975130239,-0.4209557066405425,2.123170958644254,-0.516061354091342,1.0715391838051234,4.949823900974936,2.1061003028773735,7.117080932085817,9.80268957028305,6.9049048974600735,5.243729830483855,1.5680619555641413,1.2132470103687663,2.717872866255192
95,-2.2733043815054867,-3.3142247626144057,-1.1220274371461358,0.39908339972009016,0.31972088018995426,0.4760640281992203,-0.2275337956135173,5.17522490260133,8.809681301069507,4.064042133576638,2.28586559573105,-1.966652237255236,-1.6341691128171878,-1.9821539347450394
96,-6.076623493008019,-5.506053305820303,-5.829530969121574,-0.6338036264121789,-2.2875689193456408,-4.031393364455155,-1.8148054153480966,-1.3554212723974663,0.022408682816596318,-3.416011772546869,-3.374554172031697,-6.3647160468432835,-4.652047203371569,-6.133740800691219
97,-6.083487345635556,-4.5565759843782185,-4.998023713742436,-2.882741137452624,-4.406789456132941,-4.051588575900523,-1.0072378768771568,-6.128760899180805,-7.748591014268031,-7.059020697617859,-4.645291793727562,-5.30140271711472,-4.756308701227151,-4.81278994765662
98,1.1201809129932365,1.0185339630668087,3.1911513259237054,-1.620510555487557,-1.9102327768812917,0.04735609135335679,1.09330309310636,-5.500606264196731,-7.025555222970734,-2.6547266260871933,0.42665870848186704,3.032422588900142,0.30910731413379267,2.1147146538805317
99,9.01041459509337,6.509771601280128,9.299596491911513,2.889507016477554,3.472477464875766,3.155064385335566,1.6934736139122897,-2.4195589921001295,-1.4787793833269516,3.220149897741669,4.693611531523188,9.322547916119978,6.0993946585079915,7.1745665454316905
100,7.423082929992096,5.564606986887041,4.306834773988681,4.004207658369266,4.978059193368533,1.8339910260684653,-0.27380969900572005,-0.501110740857134,0.6884888337848607,2.5056700750973175,1.4775046859436956,4.351913451506907,5.416308177114937,4.154415170741687
101,-2.745089851303802,-0.9184475453072887,-6.575821642114628,-0.884214293314462,0.7496637900716722,-1.2938540672129109,-2.423179019869573,1.113945301249215,-0.7995933374118943,-2.6207697352120793,-5.317616621436499,-6.512990254144062,-1.5038135704880935,-3.308769635144874
102,-9.092856383858898,-5.386818162286224,-9.700865977956468,-4.989237199184817,-3.07908723403468,-1.6911014334652714,-1.8203299919964233,4.08643966068976,0.34643642945075237,-3.3459485405366127,-6.003856945122228,-9.043120397289382,-6.245958513780144,-6.393671927133844
103,-4.275601703260518,-3.4007301969814296,-1.492946540082016,-1.9102122277342828,-1.8065703568848663,0.3393575262512698,0.8453239795570967,5.91357225154634,4.920920919917648,2.231371873384636,1.2962858207836772,0.17669821782080597,-3.3810734155377977,-2.2599223195704536
104,4.138952270012885,1.324927535623818,7.002423145365741,4.286623545587638,1.0864915883800335,0.6301514053024803,2.0156989446378764,3.023350121118323,5.938753472929824,6.074657798424974,7.710811724083301,8.707812317760954,2.5532780133910156,3.3846107180547507
105,5.101678264867354,2.8992315966972244,5.876817612475431,4.846034754656284,0.46639714210409206,-1.5700867047591172,0.41206156685856643,-2.8572917369354536,0.1503630706645236,2.177911326932036,5.544539900916074,5.514709702296298,4.110685973284741,4.152564957554883
106,-0.5465942107808753,0.813441074505179,-0.945758103775286,-0.8945793658947196,-2.0814430250842584,-1.8600848203989975,-1.0561106103440445,-5.7705268073449165,-5.596376751181193,-4.476213713639285,-1.9090348745940031,-4.291846689998301,0.7672098649261297,0.26460068906413353
107,-3.224038829814621,-0.9740708871564024,-3.4679505999933964,-5.085388642797692,-1.5569558419698262,2.0125630044338934,0.2694147577728736,-3.027028110553904,-3.833692536763379,-4.970428341496333,-5.694761876532181,-7.488305546480548,-2.112831009207567,-2.8372621681072308
108,0.3894999960855021,-0.36687987189024346,-0.1923857504350989,-2.8763657856928377,1.9157911126274887,5.390832830747824,2.6722459185357934,1.6653973518586132,2.8125519259376457,1.24248999501816,-2.793613479666915,-0.8246550540806488,-1.2337953988561152,-1.5749061423491173
109,3.758280688209659,0.6747739752003995,1.994457281878031,1.7820190161417566,3.4371052040937835,3.0041247492102765,2.349474480005533,3.191050757102234,5.456768287940951,5.970993138453219,1.7700038135616611,5.967108683486785,1.518601405961444,1.7774252666517314
110,1.4907787106891126,-0.0467627833327144,-0.42517689718360724,3.0076526566268007,1.0669579499019692,-2.934426506420442,-1.392403964898538,0.6610171300791661,0.6122509204254919,3.0478795820100886,2.622252264884168,4.238960783423237,2.434033771312117,2.6108982047420763
111,-3.382037014761208,-1.6307005130622176,-3.37998586856497,0.7356061761914611,-1.8412190694682378,-5.701402707220449,-5.081375233705204,-2.656270747881563,-6.449530744101803,-4.503648767407641,-0.1994417550173485,-2.925887402258662,-0.1097437754128429,0.037656332702029234
112,-4.875034213476965,-1.5336706188127809,-2.6955902558722977,-1.0252804877729964,-2.2512206185121557,-3.518448358048675,-4.933507061196319,-3.181345175448485,-8.593035800588794,-8.492534834141571,-2.8997516687871663,-6.167254317363913,-4.017997602177308,-2.549908378863826
113,-1.650398118498939,0.8776484949215051,0.47191830006888535,-0.4733063554595759,-1.0526730889393952,-0.6810628566938229,-0.6810544593743827,-0.1394596125446617,-3.702556035788903,-4.498230197443492,-2.4078226396590177,-1.8667540037914523,-4.752125904180876,-2.505363846051492
114,2.9686608875625673,3.220701614958086,3.0984738763252833,0.6684872583777053,-0.02000123308985455,0.4194215183911294,4.332588549913326,3.884857829324553,4.594850483765408,3.9639524182331787,1.0749641454995653,4.564833360172598,-0.18032072210340888,-0.8167918632064113
115,5.142438273676565,2.5245253896772453,4.078853064051419,0.6239666655735828,0.9652099780850558,2.3264578539630594,6.162647202522914,5.060233363027046,10.4013212066109,9.27580956255558,4.282821648960991,5.991167058516833,5.442143386210927,0.5768442712438584
116,3.1021703702050503,-1.2950761421307853,2.7653600802802503,-0.4640350550462673,1.8657214816022003,5.8326354903994435,3.493148315398937,1.9225101570641128,9.733107619330015,7.124303552401752,3.7508684579965044,1.3700502177260976,5.550763889010212,1.5743744619537698
117,-1.6636361634174899,-4.563584535453504,-1.391486312079008,-1.523255183911888,1.1149619354615212,6.249645486780552,-1.2636999902270212,-2.7826526982514164,3.246317928729481,0.2081903896549621,-0.23267428650857358,-4.075485501017624,0.17504482429617516,2.6369237627806177
118,-4.709468877896105,-3.3002154703762794,-5.4236344368423985,-1.5145930055448529,-1.2733045701011383,0.5545595403034295,-3.9050894799812297,-4.6245439116943166,-4.35699390413633,-5.0951472823481945,-3.2554679043564883,-5.028268725902837,-3.406310704752837,2.934236283770818
119,-2.707653078967007,1.9153901256130976,-4.10823916550367,0.10154780274643307,-2.2106734587602177,-6.193040767899883,-2.460996241976778,-2.2463206191922653,-8.358567930960325,-5.276045016152213,-2.0664937782368775,-1.3734166380909747,-0.9677574340265451,1.3635144995980475
120,1.9076047125157574,5.548832056436342,2.049249619737155,2.258510460566359,-0.029033205466672894,-7.06691405261358,0.3335619312834802,1.0737695094156765,-7.9372974945268,-2.545481744231476,0.7446954149798255,2.5373433927151603,2.2134864385190323,-1.8160752102318545
121,3.17005099828682,3.0707652739405016,5.082891841441432,2.470576481861091,2.152631465287431,-2.9830725434757057,0.014683465914100982,1.3424545300611364,-5.6060194958842,-1.2316518764699897,0.12239985931425444,3.0246940113035685,-0.7544048783556349,-5.0385131675210895
122,-0.47849267156395786,-3.1312186662037624,0.3851448890877445,-0.09147939575976081,0.8963526907677303,-0.11643401294123237,-3.346619175139712,-1.1494290213167546,-2.891154361686774,-2.0429626847083124,-3.6727284733195145,0.6380433883041732,-7.233870920840137,-6.033778575388853
123,-3.623642198796956,-5.879523479259038,-5.283456694902788,-2.613678682504745,-1.901398067840761,0.375452999773492,-4.060675718326141,-2.1188312713643884,1.5746698175226022,-1.2738459098653887,-4.365874988744001,-1.3520801106912694,-7.388204278464719,-2.807120804376663
124,-1.282176289760694,-1.7621666724664422,-2.8184105242166044,-1.8815111565956264,-1.7538894556084688,2.7577026926322143,1.6619981072410908,1.0069137085543372,8.27649780211545,3.5217850572939695,1.6236658753319348,-1.007442416759511,2.3880200596418995,3.8994577857479906
125,3.87930999667043,4.462735000385995,5.24663815787627,1.0969553001168526,1.2893037956651328,7.041202870453597,8.937564485404668,5.158436636312761,12.999237391209638,8.638694476106142,8.873115902872334,0.5234306549917648,13.058116744531139,9.236725822751787
126,4.910437738981542,5.448614374060052,7.442402258107723,2.1838526057939696,2.5689852825608126,6.921563194562953,8.852663236845595,5.005035157754945,10.056936191772108,7.647470762941711,8.618660158405978,0.9822484316163451,12.554386596493124,7.866527492417851
127,-0.013629007091996818,0.026933938549350174,-0.12162210581223262,-0.09800047126067789,0.03225422043531542,-0.010660515398291697,-0.06944371199944244,-0.2483771110200868,-0.34068902303974896,-0.23593122220279483,-0.2498083968806587,-0.17140525912985927,-0.022539679490056558,-0.03040140273909163
