,AF3,F7,F3,FC5,T7,P7,O1,O2,P8,T8,FC6,F4,F8,AF4
0,0.056078632645605635,0.09555849554671124,0.054526327811649226,0.01751326611801894,0.038504512606641984,0.04651262174612941,0.012804820979682104,-0.030048473863940835,0.01413235140531061,0.061465933210008344,0.05869619695822058,0.02895399314421561,0.05850016685566874,0.06861512362745723
1,-2.59655591605802,-2.9119443475357794,1.9676125359149939,-0.5851866020822297,-0.36514053560592236,-5.412423601209576,-2.0875860225848393,-5.181470047338005,-10.054744018887847,-9.187039943835192,-6.720055425963115,0.710939963464941,-5.397105352471388,-11.578725706536883
2,-1.525392816076252,-3.3550550664167305,2.4616049958259802,-0.7852971740724872,-2.302017295709085,-4.677270715753241,-1.125210512125333,-5.234991816487114,-8.225878010408465,-8.937904914524294,-6.211580925184427,0.6767372062242596,-5.265236198147173,-11.469410439270886
3,1.603340763723334,-1.3981112099813944,0.84461663621386,-0.50506733841667,-3.258450781195903,0.889492664508621,1.262826157691061,-1.16644948011954,2.301900939570674,-0.24887032025216396,0.10757680844070294,-0.27883426362354635,-0.3209450539313566,-1.2813379967694971
4,2.652882036983654,1.07554462103119,-1.5250920750490766,0.2474197255923707,-0.2992025038921671,4.714420381983322,1.5139004670712501,2.3198234965966216,8.248863126471088,7.093533105411363,4.803552653506974,-0.9033221698001567,4.1715413676104225,7.438413518160538
5,1.1693629739268943,2.9832003109745813,-1.8296843390061042,1.2987804801928404,4.236569388443728,3.4833427749187367,-0.0993148791562225,3.1878484343575724,3.967498720038047,6.289145073448144,4.2730723146448355,0.5827802373326457,4.99759852648871,7.86265444085267
6,0.002637293185092253,3.8656813183013505,0.698777146991185,1.7734585697088563,4.839975314734939,0.10836208362286648,-0.20500270438494192,3.0420742031020387,-2.51521418800738,0.6444773996274717,1.6549640088971278,3.342129219284092,3.037777890439523,3.6121546683444836
7,-0.0875209242395621,2.400992652922723,2.82649892533265,0.5945843357188284,0.3178070080762808,-1.6661281209426726,1.4635318428896928,2.6171422092100927,-2.478372735134438,-2.3733942682755167,0.12882322835771765,3.3842282379558477,-0.10044326699021086,0.24736273493853395
8,-1.2263401818717259,-2.0048353516056303,1.0252006550996227,-1.7857450377724977,-4.433539077351656,-2.0066807248014156,1.1002699577785726,0.2737734493262982,1.330714089138825,-1.3628767481614694,-1.6024106800518414,-1.4472897616025915,-3.8649705928153035,-2.322896978145083
9,-3.5361969200337247,-6.225862990946608,-3.2721741567029823,-3.0638631394434928,-4.718394599751704,-2.6377444916711608,-2.4541914883473432,-3.959778231731848,0.8016502218922734,-1.1024060318512938,-4.638850624735625,-6.998707469340184,-6.553036150985901,-5.702385528052536
10,-3.604347019504208,-5.424728739727873,-4.761475195714163,-1.5732268860480543,-1.1264600147375736,-2.6659419354040597,-4.559465742149233,-6.306937882011547,-3.9530681765200484,-3.3462755814651923,-5.333383775455862,-6.591586911507689,-4.906062703786271,-6.900623787363417
11,0.34272987141001865,0.6055107870072999,-1.1647016688752914,1.4374528268978695,2.6034581352885087,0.04280612562879696,-1.517574666008005,-3.694391123578914,-4.952059325600303,-3.4485623774695475,-0.37933648245142476,0.42206158202783484,1.4889234234720101,-2.358831588929103
12,4.813653913804693,5.963882096721769,3.5935690053947886,3.083483080354855,4.033178616328712,4.309741105863382,3.2849099555599923,1.7713590508549872,0.7196381548375681,1.4687069172448999,6.148201869155326,7.0679809714476916,7.412998270375561,4.734142755097294
13,5.1595147981878124,5.469733231111376,4.522029198416577,2.083067869921989,2.8600456825532095,5.697648190828081,4.1585241019826995,5.297678918342322,6.094586852880374,6.315838670541813,6.650605614959917,6.945875621565772,6.888297155427163,7.365176744537776
14,1.4723247323480337,0.694134935507191,1.6089730903643806,-0.25035776813863786,-0.2502202605792801,1.9543316808528892,1.2705419016080732,4.97080823111072,4.547457855878099,4.728770335234462,0.47175703696864035,1.3392960966381426,0.48378041644244735,4.003690217853321
15,-2.214511434085186,-2.97076766342579,-1.304945814373936,-1.9517775804210071,-3.5039690576461573,-3.6183748766262163,-0.7070258040735993,2.4545607793612327,-1.107468093833762,-1.4580600571666202,-4.856146035621102,-3.5439801617488595,-5.04748503266465,-0.4498761872313022
16,-3.4361207759760717,-3.1598815349987226,-1.9491673002747956,-2.173844032556384,-4.184879878766042,-5.718955123936274,-0.3570191514185904,-0.48711984133674696,-3.4589877085851954,-4.845362681449111,-3.813396019622818,-4.1376351646534495,-4.8219993100252125,-2.5110738784230495
17,-3.0394676515728594,-1.6681563315466625,-1.3046291391715235,-1.0072180973798046,-1.2539128278709746,-2.972693795922576,-0.6672239038009153,-3.1882511349465124,-0.7202075503638357,-2.70567067233734,0.4677919044119779,-1.9643922664936475,-0.8970348327419834,-3.3205417863426407
18,-1.8922396608863212,-0.24310040613496933,-0.7278400876382112,1.0314898221981998,2.7715790324624385,1.2331048020935949,-2.6373665989324544,-4.4920342601179915,2.049899952661281,0.8090779359027692,2.0391396286206485,0.11485052055187164,1.7624955126993354,-3.688348903716092
19,0.5112600549306532,1.1953870031704006,-0.2318430101269911,2.540740617382395,4.088192913989939,3.2475362508918546,-3.0060881429611372,-3.2086839818939303,0.4826886719418378,1.832755991052324,0.4494340177070927,1.1780927534914483,1.6506980694659303,-1.789131722988151
20,3.2935447618405376,2.2505902429077795,0.21000345321176692,1.6211713710685434,1.6624843881588078,2.6097043392483172,0.04678767130988206,-0.3748162442290246,-3.6509158597758646,0.8935295756779746,-0.5395720837854718,1.453796224161059,0.7332596033334504,2.2163016659760113
21,3.67451375892062,1.5174724376402584,0.1867295030823051,-1.5266498647455342,-1.7788577929986167,1.0128330368142815,3.287780833240342,1.6985946658867368,-4.7309977294259635,-0.1665019068872268,0.2796072294943324,0.7814112754274924,0.23162733298012217,4.254980501471753
22,1.1355975580406494,-0.561555663600591,0.30195535693409914,-3.3049785361458537,-2.7442940712908808,-0.2200644895447597,3.158926373752115,2.693484111860186,0.09090720404644016,-0.7062083770634827,0.7168342862397425,-0.4590354948048661,-0.27496538636517226,2.07311526042709
23,-1.133959242546403,-1.3976091584553614,1.6071569432825572,-0.7355057505394796,-0.682169761359491,-0.9438281730864281,0.7497638530156512,3.6100363054874354,6.577875343157478,-0.3410820733138409,-0.11953114660427949,-0.5724869828296906,-0.5598696269503578,-0.9489468992544465
24,-1.2479937880306473,-0.4140376235415926,2.6759403545905087,3.3771602124625426,1.3945303998937202,-1.6371995217999573,-0.927484947338615,3.19198247391141,6.746991160629384,0.6817178780867651,-0.7785663637898226,0.9094391196191949,-0.02648178926685374,-1.1039696916795616
25,-1.5858377904503556,-0.3713082965151095,0.3485092728323291,3.0078127884958312,0.5249869507118461,-2.3632943230759267,-1.6004295595406015,-0.5672027039908463,-1.3189961297143755,0.4083813841426789,-0.7897101013306992,1.2591394674176644,0.1872249107115183,-0.15597676345936023
26,-3.599393922544866,-2.23599141971904,-4.590954789867794,-2.1824474866443695,-1.9959524988053747,-1.871200850927414,-2.186248600838663,-4.981839050597942,-8.507535102243398,-1.772593367437456,-0.9319964986047895,-1.5309102601833342,-1.1114076411244174,-1.5649087957792445
27,-3.4798641363643843,-2.1860780369701156,-5.909920955685347,-4.930780047933172,-1.844716834734297,1.069727534049155,-1.4539538898618114,-4.363574674371746,-4.555685844047459,-2.193569936100068,-0.39290453573873124,-3.9715827336729976,-1.849952019626626,-3.4694526161684194
28,1.98858972846634,2.4282366986856707,0.08075920607417222,-0.53584562230053,1.980018593678653,4.492948598429776,1.399184681062996,1.0107309498468942,6.927376282171929,2.0861125133465737,2.0604971101269327,-1.0931030052882407,0.7516061290508278,-1.0337736858808577
29,8.051454615560369,7.013032346491724,7.611117541747192,5.362036372577606,4.70846732631447,3.9287180857515374,3.2035515655317863,3.687589653788411,10.447043892174053,6.495469108694282,4.107836059966345,4.90119301161595,4.426131079006223,4.815232209783256
30,6.83017500655538,4.879643092033317,7.630624611259844,4.444440162360665,2.166886088278343,-1.2215562101630852,0.9651288344516864,0.06412261079754411,-0.8324238879549168,3.5528555275894225,1.8851252942624999,6.08077767611774,3.6772323933049003,6.916795721224304
31,-1.376515351362373,-2.8925639880986984,-0.24667052928699115,-2.0076824075113673,-2.9199831349437373,-4.855037035851912,-2.216844819266678,-3.5244685536475653,-13.77869728630965,-5.46980342679453,-3.423156104077091,0.1724234227178019,-1.87729856969911,1.6868680871879083
32,-7.955248058583469,-8.277697841625992,-7.367774168985163,-5.297752136497642,-4.604209465847971,-1.9004871928102227,-1.216503386129959,-0.6645467933545715,-11.666989766284013,-10.255228875990367,-5.943825751871398,-5.876989150346827,-6.120365412365587,-5.5570584964524725
33,-7.314810182536614,-6.720368476571744,-7.434398108312698,-2.313574537183403,-1.886281350534086,3.3695747276752015,2.2011652944420623,4.699503959417879,3.3858138898988073,-4.79703343847178,-3.1556156056038778,-5.963804390952558,-4.749069996303035,-7.727517444733608
34,-2.2556319987822255,-1.2831660549572097,-2.654546441652773,1.2182614808316365,0.9808615320523087,2.4482274897028025,1.303882550523661,4.3069841672318265,13.855492369655524,4.928968849933778,1.3073863684794074,-2.023707025062888,-0.02308363111667497,-4.247083166487097
35,2.658778884632052,3.7776684773876883,2.2458826854827634,1.0464962555518695,1.4319895282018762,-4.578983282821877,-4.258661169085504,-1.5860340502864674,10.292277449945407,9.473949765669209,3.9546758813007656,1.7364568777683396,4.124213486891991,1.0948674496136435
36,6.3815423397334285,7.413699594987208,6.0187997245666764,0.37812063848095934,1.2895310212550903,-7.680039144855184,-6.122501343981199,-4.83994714213531,0.655486168591683,6.76823945148159,5.055243481886994,5.002195239716931,6.319189094213335,6.221110231105707
37,7.820876669891667,8.238886992330805,8.074957461249594,2.55768824855762,2.0852356753575076,-0.35549684007091176,0.81920411827734,-1.779998375646715,-4.66869708918733,0.9016754354390634,4.380537048837978,7.349310644252973,5.289573306855021,9.535762840209745
38,3.746058072543983,3.137262181698207,5.149512640972368,4.163313613629881,1.9809287957274195,10.61520905963036,9.723081878432422,2.1206509849250827,-5.926691868225121,-4.901440684397959,-0.3197751703576538,4.553931526981664,-0.7355201838925719,6.534831717579186
39,-5.150982180549511,-6.534751993235412,-3.8242112637757515,0.6058118403741705,-0.5833161425335373,12.791937960458878,9.75080080404016,1.262581242729357,-7.067521922004527,-8.782416510145605,-7.218867771406043,-4.502281317691389,-8.619728363704796,-4.4016949861335934
40,-11.001199012416858,-12.262583046109825,-12.095247955205075,-5.297055448821206,-3.2743572212093786,2.920676457962271,-0.2513418708226268,-2.0572139647951775,-5.6666616751474885,-7.4008170309595585,-8.782038332192721,-11.634736572984517,-9.88446053650554,-14.344365573926602
41,-7.215437842251458,-7.4093825872781975,-10.448113491707565,-6.363313771723166,-2.8594562089009377,-9.762392359291187,-10.601280390903442,-2.070183017471944,1.2968377047359063,0.43364020362237093,-1.5222839446599228,-7.827060288969556,-1.0973220334475395,-11.317652799116267
42,2.497902036545709,3.5077840407504715,1.0973775200114937,-1.2488326416935385,-0.06463274719669278,-14.368968176872432,-12.08567631135362,1.530366140538199,7.957079315539882,8.42084049313563,7.031225998321023,3.724038072064412,9.119269341318597,3.054894391266788
43,8.640490030836048,9.762081505674368,11.524003447856535,4.0039217649014125,1.6440718087681023,-8.899669647106926,-4.475750537929495,3.6489202179738918,6.302893208519522,8.195495018429673,7.34674786404318,10.415767889436855,9.662650438009122,13.32562473051059
44,7.418965457214006,7.285429518101392,10.993183132317931,4.685268778307712,1.1791019094571131,0.6642899831898593,5.617892449013013,1.7190129175154478,-0.522429986322092,0.7945181820567843,0.9040495283284179,6.335828412008954,1.2739145899554483,9.79506563491104
45,2.690299915117722,1.4312223790719238,1.6915155319942259,2.4254578232910453,0.5455834777520296,8.17650604659935,11.29688325992602,-1.0080422563268423,-1.9552566803359828,-4.068874829105942,-2.764581010592385,-1.3531947154918138,-5.278894294382721,-0.20278874404122535
46,-1.7915179403243306,-2.34892112042081,-6.217432571448075,0.3260230171866826,0.8078919172431639,11.308702175688037,9.379449488572147,-1.080655653531407,3.5040330155351764,-1.758510117308695,-0.5014670856243123,-3.917019442456945,-4.260804459689813,-5.056409549668452
47,-5.813364900970468,-4.374318505595632,-6.995741259012897,-1.6996806457441203,0.6760767131311826,9.650275877487172,1.6480915993339804,0.112767701652711,5.54970285266846,1.3862708335511076,1.002081082171301,-2.211463515072509,-0.8820122416773934,-4.329092120327567
48,-8.235760066703449,-6.001551886452405,-3.713503931230656,-3.9959758457268,-0.5082187158729072,3.25046556560859,-6.284543541296328,-0.668362578972674,-2.175516036986654,-1.0500581394587618,-2.804285425131466,-2.0835387807138623,-1.1302941898375425,-4.3403231729311615
49,-5.514409626007664,-5.084745635475624,-1.1717821554713148,-4.004777909218356,-1.40441075374155,-5.513781495385268,-9.256494521631074,-3.1153985463931564,-12.264762591121515,-5.747146595713657,-6.655937528344774,-3.73032860211591,-2.8579034592172716,-5.1725945486739136
50,2.469943645529811,0.152483367105797,0.5969835440966667,-0.06907701228707404,-1.0722572811877837,-11.39032193215498,-6.520538390105816,-3.876674910839258,-13.504816870530087,-5.605382657169969,-3.733112694738227,-2.083177959684756,-0.7396651734862194,-1.5927649895559246
51,9.471530977719803,6.458120363074793,3.662710272225273,4.3945251172103355,-0.2840825315494765,-10.391910183053831,-0.8746021663435177,-1.0995555436206674,-4.266797774998473,-0.009634112586118723,3.96253489519329,3.8119563755089394,4.644960868328857,5.965725770803944
52,9.316635519552937,8.546356963437676,6.521873869731642,4.59545320417246,0.17609030772259962,-4.024995023699797,4.582862913333911,3.8060751106010597,8.294956856231085,6.2124136861806525,8.576633650201154,7.951818664770076,7.3898476321789195,10.222098664161079
53,2.806247508403938,4.894788046901546,5.1154643205673835,0.7121277974530699,0.43129611445138794,2.5067457444935437,7.158139233456468,7.677674563993467,16.95909645110823,9.645394928549226,6.559166999406066,5.276201380707083,4.111123479276733,6.856875163397694
54,-4.415008388587644,-1.7230253219019467,-0.9948507562602859,-2.7983265676649016,0.5070982135959868,6.060883681930279,4.744685720608967,7.141733360584165,17.3718631818713,8.716899292717711,1.0477798514148415,-1.681799800988826,-2.393130447782125,-0.920520617388243
55,-8.222188696744057,-7.384887221284736,-6.752894700894071,-3.057361315815841,0.3537805897809497,7.537068903318045,-1.1123673162216643,0.7662300528511425,7.224836910292208,1.5773656034795471,-3.9314483835780094,-6.393509270522899,-6.908167547724207,-7.671098184767774
56,-7.471886015835411,-8.699202151131397,-7.009496100380416,-1.0509793728075474,0.6326545379583145,8.042053737569725,-4.457079368539543,-7.89327290515108,-10.148000255497635,-9.788602633804514,-6.7562385737678765,-5.9640700259579695,-6.62999778684803,-10.113510998974451
57,-2.326369022912962,-4.016800106438347,-2.1241099745541367,0.9529617606675056,1.4561703173725453,5.792010582915748,-1.7236652629729403,-11.553287292256666,-23.1282736614538,-16.26488982509829,-6.446849947217788,-2.5444815537151735,-2.300110053650868,-6.645206947748053
58,4.5263592685833745,3.879605149524333,2.8846964966070465,1.6042234723034885,1.0493038379967234,-1.0480165179830672,2.323577406841989,-6.570031067949127,-20.326527367351954,-10.043504072352764,-2.565699754362784,0.9225495250320785,2.9283710815148423,1.4941769676777554
59,7.327921815658536,8.184930456211093,3.962587431866974,0.6473867179744385,-1.7450002268749703,-9.555926106942104,0.8052820853587094,2.4986014563379975,-3.3754666007951717,4.125355497404817,2.409366953995725,3.1782980725053007,5.23875026262707,8.256255985986382
60,3.2660088537075835,4.963983119455144,1.8951774909134198,-0.8971558008303321,-4.28506012127921,-12.979616825946916,-4.390861082142658,8.278409158256546,13.627449687956585,12.922929615000763,4.7109315755468595,3.823101149716059,3.225233552956362,7.815130544109218
61,-2.205479781785773,-1.3404043070898286,0.5015204391893627,-1.0798680466666155,-2.759101602964786,-7.835321569720959,-4.8981635666767716,8.407978834954129,18.832165582430633,10.326958496582655,4.202696697239983,2.9890414029949977,-0.04657066858862845,2.281645255437142
62,-1.793815390329224,-3.2736013793853456,1.4255612088278287,0.6832029961378727,1.9202788977319751,1.4756478538229094,0.8676923981412745,5.159229367891651,12.6627671998587,3.1555950896339677,3.850144248359123,1.5756858157695286,-0.5208550000241308,-1.0750710595784878
63,2.6825662273017845,-0.41590759589725446,2.0074968318336506,2.1440938574063564,4.449033902752646,7.378530946629107,5.031619787440059,0.24688062810027447,2.6652418566282536,-0.5434990472383459,3.705163108172903,-0.004490194022732264,1.0673458213303966,-0.49648777159266366
64,2.654747396271118,1.006177177105528,-0.5160161732020924,0.9194241396928908,2.383198664510062,7.7416910713798215,3.1243149191772566,-5.344202094185982,-5.7190200725323,-1.6721153496758938,0.3093914251056377,-2.2512000812409623,0.4222929927615537,-1.1340101054609135
65,-3.5657411362200815,-1.5817970671722186,-4.159020562536763,-1.774936294616133,-0.5650399829306607,6.615539467881131,0.7873621064265642,-8.31406892285638,-10.488779136008127,-4.902406787706312,-6.242088469866167,-4.320134673718257,-2.9582363593221115,-5.015974146082725
66,-7.571003877072855,-3.5724257747686843,-4.458565083495067,-2.41344520223434,-0.5761979799412297,6.143243543239043,2.734092093033445,-5.4606754154958965,-10.464204346683744,-9.030688436204274,-9.793787235060687,-3.6711963253299267,-4.5016223951755245,-6.98571562590291
67,-3.7198998310484543,-1.4966442933321698,-1.0735058712569432,-0.2540823070634564,0.43627099864966346,2.561697298333316,3.4698085558366065,0.8638687167086854,-5.878828524515161,-8.227699462163072,-5.815357242442636,-0.1493403412653806,-1.9539732841966744,-3.0922905307449686
68,2.758106965651358,1.650304591435671,1.7354555956879767,1.5523045633626391,-1.310514470340028,-6.381350858186736,-3.0807591365442253,4.518604731684618,0.6570490135543647,-0.6003925924025978,2.314233412651833,2.3559518659000473,1.2851677627675442,3.4201177380973133
69,4.758814543739282,2.290249780207388,1.6614606409456376,0.7504219096785071,-4.289655976469923,-14.177351393507038,-11.016636797032215,3.4068766054953596,6.227953684149479,8.717583929375598,7.704279408726185,1.2852953259086501,2.295630102216747,7.2725009897934685
70,3.169358711082406,1.5578994402071762,1.0858016109524542,-0.8827404309536263,-3.3742665893934256,-11.9199960414797,-9.392129912184677,1.2887138793874857,8.804691193797915,12.281353239013246,7.3701198024116055,-0.3279529828821411,2.5229574594498136,6.831030676186779
71,2.2827980955130194,1.4027142546326334,1.991754145386099,-0.7200129838816021,1.855823500523414,-0.6260010762710077,1.4007875146849744,1.1141801776096043,6.456216819962296,6.684263307117013,2.9541292077879726,1.3776428507600886,2.9666987727426437,2.7519295502430503
72,1.6569607906924646,0.7936828797947232,2.589204700216114,0.8397500075189271,5.646828427285725,9.133369687279455,9.928411901388364,1.1572289727969562,-0.5375466612311384,-3.908707340715339,-2.3240792317474956,4.491581790663142,1.431280081238876,-3.2684101625504747
73,-0.9860250815702534,-0.8273562324140129,1.1040319392751894,1.6358953104950613,3.992669201851256,10.301700189342707,9.507350094397458,-0.5832338485642246,-6.675349702472127,-10.105651653841974,-4.944261645964937,3.8663342009686072,-2.087522734498043,-6.788988379783279
74,-3.554254278177668,-1.2735768518758999,-1.0023798088642097,1.0034829136568468,-0.3531202706555654,6.0693810374103405,4.5241027673213186,-2.4352304845923944,-5.59540510153692,-6.231666909940133,-2.845733226222506,-1.094259009761941,-3.1984647124262895,-3.93931429277573
75,-2.9115669906163304,-0.006508745012094086,-1.9813532396826128,-0.18754075395923323,-2.6708898997215504,2.3177416865588167,0.3731974387069962,-2.135002208646141,1.2940967925413207,2.598712933117566,1.3822075943954741,-5.563221729632498,-0.3363714236496951,1.777961065998368
76,-0.9961350146473836,-0.1643107411936926,-2.695801367346341,-1.349284674125771,-2.347590744630228,-0.44304996822829357,-3.7595352009776875,-0.6878995005801993,5.341842677164644,5.899566983560207,2.106887033222498,-5.978800613245032,1.4096182675153406,2.5021470022732704
77,-1.4680543513522346,-3.0099560816641073,-4.102713965501202,-2.221089250384863,-1.6093730884756567,-4.310066797933104,-8.832737335408796,-0.3085656182357617,1.6106601065249293,0.7360246588349921,-2.034322699495575,-3.6450181207238073,-1.6321657726051848,-2.2696177097116896
78,-2.7097580526749043,-4.481099972782152,-4.211223485315812,-2.0133307209394706,-1.085727134846943,-7.802901400874116,-10.238124250107823,-0.5937330731427625,-4.728160764096091,-4.9748377113260585,-5.3018419670249,-0.9547802122063006,-4.8088772100196255,-4.0580389953335905
79,-0.043099285776207634,-0.7423761529281244,-0.23166327600481076,-0.1498984434539506,0.20430733386466385,-7.040645617363181,-3.810656305401103,0.43961012711924485,-5.418884515170116,-3.3594242128591327,-2.1180940700685857,2.314264977750716,-1.7842688368727018,1.6863797207633915
80,6.076094229071198,5.615765117045313,6.708245372655428,2.350780249637806,1.8880691791296906,-1.6098365781826018,6.327354338739813,2.4754542991571493,0.15503232321698035,3.336894421358568,5.107539740491467,6.671934396483685,5.396195498771711,8.11528773606617
81,9.143786431857292,8.124868615176112,10.804147565854786,3.379577236451889,2.218400620896506,4.1028407780226415,11.343913881085106,2.77890347915529,4.575729145631919,6.394087668162736,8.575986978595937,9.238176718902388,8.485255952864136,6.756297524561029
82,4.64875985992668,4.031156062712097,6.93015852016462,1.9294560476917342,0.8584517801733792,5.753588062482427,7.969084479470664,0.3795037203484822,2.5544049748822526,2.0800929970325024,4.530692561995119,5.838473324944422,3.8054638924296165,-0.9229673542352498
83,-4.1058697583862696,-2.8504315944523406,-3.0452827266328057,-0.7059111196014246,-0.47409403210621187,3.646406607747658,1.1271080299654708,-1.8611808052954615,-1.7607709145665098,-3.95880600513903,-2.8385273517144016,-3.0816805946584256,-3.734962991534546,-6.798946705201683
84,-9.67635978105263,-6.760410873597932,-10.998700668465595,-2.3277607659567896,-0.5678137931021229,1.6068597306506986,-3.507949595716383,-1.1363475498347722,-0.6876034952754635,-4.2796326709615675,-7.0081039372296745,-11.088856990272102,-7.278222190961721,-6.916559913580482
85,-8.361788835253622,-5.944917010669686,-10.850715313463128,-2.1725017167635876,-0.29631156607127657,1.6040348396739332,-5.57937962986644,0.7984690438245142,5.0996911272460945,0.7325792446169638,-5.917749437383372,-11.618474575489486,-5.256337689537103,-3.6824030571874267
86,-2.696824398825908,-2.9393453266228375,-4.341029301199124,-1.2552695320842913,-0.8363025161331223,1.0824639787625399,-7.065987909336449,-0.06007389056628036,6.011535268969303,3.5608553456706207,-2.0330201046600616,-4.41493665679174,-1.103344985265342,0.19477580402627376
87,2.981293399832653,0.10819590915432406,2.802758760816939,-0.5193461802925632,-1.6031546595192743,-2.769612762284566,-6.691926615318833,-3.387298386973642,-2.7347408822237815,-0.09214516179314154,1.801479368703259,4.577522998604229,1.906080002481678,4.0930979289302885
88,6.645365659277658,3.5707900487249056,7.470484974918228,0.33290750875911373,-1.1827498220798638,-7.305248750356573,-1.3904970971203052,-3.9126603712517793,-12.050693778488315,-5.078039771692647,4.123771986565241,9.203687828121234,3.425266875991358,6.344567415511499
89,7.676259565337998,6.928552557010197,9.266978275241659,1.72796469455647,0.47521960040364825,-6.5242001456519105,7.201411438672348,1.083948833856617,-9.575877384871806,-3.6832992922952976,4.147220373982496,8.154602744013248,4.1583255057859905,4.415319602653688
90,5.041654071907049,6.669974362080087,7.145656559469175,2.7964761837372145,2.040062547570481,0.32709599484913,11.779448190456993,6.740498858835616,3.2000107099203645,3.4490199308400946,2.1903464634113625,4.1621506895150855,3.561632933577469,-0.41202090729359186
91,-0.9350231601449204,0.8482787817023042,0.4997862368829147,2.0216445832326286,2.440257300571757,6.237097304153535,7.085973552585987,6.108832515762003,11.853761157944708,7.688661286412444,0.08780803612627529,-0.306600289579742,0.8598684998390304,-3.2621146790805424
92,-6.515763155143712,-6.236556490967676,-7.275930482568069,-0.637950741815614,1.441482328963625,5.310128027934918,-3.1444334931967712,-0.7174325078370924,7.61343677251548,3.7718890984329394,-1.0184816575245026,-4.627989040260607,-2.7581040523315745,-2.5507182719039316
93,-7.270325620009691,-7.851427340896464,-10.328818833786418,-2.9566689799162647,-0.6989295765832906,0.7900444283980567,-9.470338684395246,-6.348884684424909,-2.263876302177263,-3.6239287976198757,-2.195481869092055,-7.632337769351751,-4.788637000047262,-2.0317952720202768
94,-3.0027884075525004,-2.974298884802717,-6.307638783933765,-2.572004414668887,-2.8237354283300684,-0.22169914768591895,-6.965264042840319,-5.196488653150987,-5.757563459785287,-6.477665274542502,-3.9439703873995215,-6.694727946912933,-4.013841941038968,-3.403411127493567
95,1.9238012267758522,2.701367294706539,1.1135232021338222,0.036607581952412635,-2.8804484882029104,2.238551781836429,-0.07555564611705508,0.22459346954077958,-1.4100928672167086,-3.013901669246317,-3.795737604767556,-1.2248819173824728,-1.1718017063279427,-2.281220479965766
96,3.4710892887156457,4.021319981367891,6.028622844896827,1.7210340941449485,-0.22260926104433856,1.4149249921439198,3.5941594308035545,3.4823731616318616,2.7264002647114727,1.9427143394115451,0.12473339781699606,4.691046916557571,2.2041265824997134,3.7110158628288734
97,1.755726314452979,1.5349520083972392,5.581515952863801,0.5397300032035275,2.425973274971639,-4.659887535424196,2.194554279030379,2.179417712489271,1.2398843957011636,3.5078010417329164,4.615244799199058,5.875857865334254,4.072317165708544,7.866418043128453
98,-0.14385767296532437,-1.0052745627208286,1.7933745392267857,-1.5049888175822923,1.6794021114551199,-8.68694150739688,0.026524646192492833,-0.6431630485175951,-3.2926656921505306,0.9791971658824556,4.571401627453572,2.176183975470176,2.533328793316653,2.934321435989965
99,0.12475355880985001,-1.2306126006041085,-0.9077293892524498,-1.0031203388682184,-1.4439018421203413,-4.248934140195678,0.43760739878456545,-1.4654246802973925,-5.30240695767093,-2.436421662075508,0.34219190484581735,-1.2077604869750822,-1.2361606662601594,-6.041697012356478
100,2.027437592632709,0.6913701051533688,-0.311076450033115,2.0560220581517776,-1.9724660408829189,4.54803856364508,1.8511628068781079,0.029514640579261606,-2.18210701902034,-2.3232933256522115,-2.337544130016032,-0.2754624616147613,-2.4464764239948105,-6.798096163129054
101,2.8924493396269515,2.923191488262838,1.2290301891297748,3.875884146543602,1.9222967621795188,8.305392688877399,1.3540283319406112,1.7814517275534543,3.9040580125329267,2.305580920726271,-0.5287211191971979,2.6910183620981036,1.2739772307617678,1.9735267821370421
102,0.8000215637566942,2.9439241089747736,0.10645488871668737,1.7207119580806143,5.143198116364148,4.3916663538965315,-0.821261532630366,1.8109944691884075,7.5018132850283585,6.2325989321315145,1.9426378763047683,2.3424368901586785,4.894784068209083,7.6567084311687195
103,-3.0336542413241228,-0.36312460785780376,-3.2583026537208655,-2.464984495687648,2.1405121852662896,-1.201575691160471,-2.147645278671434,-0.1719614482166214,4.551389678573908,3.3061387439495693,0.6033362510235685,-2.4748607252609007,1.7749006717518767,2.288594903780525
104,-5.327016143963131,-4.742056520613174,-4.754172500033919,-4.459753978725417,-4.717424940403948,-2.930074093910031,-1.4335156109742027,-2.418877409644672,-2.439691810651964,-4.614759221429881,-3.1032725401247196,-7.040541268264836,-6.147404037538848,-5.824494406575147
105,-4.150893858722445,-6.1000528222880215,-2.3119580579497336,-2.7008376970741264,-7.447262676587147,-1.685563245474659,0.15129536802723473,-2.6148374297564603,-6.087502585408066,-8.510038782002992,-4.310857949251783,-6.418666592134897,-9.307297036845725,-5.45704548492465
106,-0.4383219599720992,-2.7471974002517205,1.452942131322997,0.5215651160139273,-2.857528654255597,-1.0084854251402475,0.8995809867918171,-0.523626872570145,-3.1287904710677945,-3.9446499470269183,-1.6434756653655365,-0.8424959861307258,-2.939314437739369,1.0162399188134519
107,3.391619295761071,2.646541171244076,3.1640177991273926,2.237299939798393,3.5940694630145993,-1.4642857529507332,0.19059846114941584,1.4570066359577363,1.1873797486240374,2.9142317857119426,1.6533127798779115,5.108914585182644,6.1844341997101555,3.26851764778863
108,5.172829433041044,5.7963143279347245,2.829100046393395,1.8973787381168536,5.513007055968658,-1.174401843104581,-1.1456788947670489,1.345450737113032,0.9198698581712397,4.456969923017763,2.9477922327811403,7.427495459067902,8.505532392974526,-0.3472387472986363
109,4.113819650710354,5.036688652535276,2.5966958638537627,1.2034710899793646,3.1954584734947744,0.33527986545108857,-1.3389111269222782,0.28300244283340853,-1.627467618437097,2.126762788683266,3.308083045735351,5.86444860350853,3.6963352931386666,-1.7874007880080538
110,1.2975114302161563,2.130413566540739,2.7646191262327653,1.3962973671421834,0.8677643347024674,1.5265644528248041,0.5781576543846274,0.6026438278997827,-0.18651585267771556,2.1594219286408243,3.965253233009973,2.3991786377465902,-0.7893401051256831,2.61854394088956
111,-1.530205261170604,-0.8383327190884664,0.9878297949735084,1.262543359641818,-0.42005670596399514,1.4971158969488412,2.961027552328975,1.8833559498617465,4.40998603488521,4.090031039967318,2.596204294530563,-2.057977219233767,-1.3696475515109112,6.196388681217415
112,-3.6920920086661906,-3.554483008994486,-3.830123586442059,-1.1380916334925495,-2.5919310806564915,1.1706578577183127,2.8986225197046207,1.3136089755130795,4.80857539622611,1.409031764597598,-2.9601785699762804,-7.138214110817534,-2.026924481932641,2.2809042219319764
113,-4.877094144756719,-5.57019509104235,-8.022515723036408,-4.513036512695835,-4.74917829497969,1.4118776855868256,0.1002346802402959,-1.7704876690837734,-0.9271724232883974,-6.251601572631277,-8.583018733548275,-9.647528861119385,-5.262868658557787,-5.659498425453258
114,-3.75001537005343,-4.778253727431971,-6.1933767605195245,-4.426820252487909,-3.2788226111844816,1.1903921338264563,-2.4530335471572213,-4.252213038471907,-5.673189527764456,-9.932055351107504,-7.2052616611946725,-5.376750424257392,-6.357399891616032,-8.5321193071931
115,0.19655048290312452,-0.3237293265189378,1.420739538810721,0.5883341719042541,1.4858318007052405,-1.0843079962400908,-2.675239195419469,-3.2488038200808544,-3.9015973146489475,-3.8588393068122144,0.8406202413195834,3.808618226132106,-1.028801334694103,-3.404208375003842
116,4.358808059816525,4.710868933601488,7.781010397168549,5.415724745937602,4.274537835669219,-4.327676700981962,-1.729072467109763,0.3765581351135475,0.9722401524879382,5.590788219145981,7.019744752724482,9.724685573008774,6.424587716864738,3.6644130922245126
117,5.484907732122953,6.330574209819427,7.400703315806237,4.433983729611856,2.616840740221212,-4.619979744942296,-0.9405380342462037,3.695857150618807,3.130473899923691,8.582479658154098,6.231222482461409,7.8454580083613115,8.348910839492413,6.098037389423407
118,3.4866204504385694,3.9937823309103413,2.578378905867111,-0.6128355602950033,0.22548505130724608,-0.1192435194765778,0.5116522106460294,4.709463088336453,1.997958745968051,4.2958311243870995,2.481040787822828,2.42520564355544,3.813695058605542,3.9609120091757157
119,0.3279778374187453,-0.15912850061363137,-1.49735549238282,-3.2537206383219,0.04196818121081065,5.09105583424998,2.765760783696151,2.639649241885419,-0.07204949490439345,-0.9334383490539574,0.12998932693680132,-1.4766446709919365,-1.8448387282326388,1.174429924080728
120,-2.997824117967414,-4.15828214445371,-3.8220623803671994,-1.53631640494459,-0.2768985488400211,5.223473070754073,3.3906803507831396,-1.843589097452468,-1.9136071515833173,-3.4690284582448143,-2.4333777365830698,-4.626661570370923,-4.882689573398924,-0.8509450046060318
121,-5.568643494896035,-5.986788982407694,-5.639834439150943,0.42576841553009315,-2.420379585274382,0.5350676002509822,1.0698997935203334,-5.295290554765563,-2.0515818450793035,-4.021822270715062,-5.912092121625443,-7.959906575715905,-5.330624518539921,-3.3065999717561505
122,-5.06336761728416,-3.643128446501297,-5.403072082354169,-0.19719263988895477,-3.0863025369106754,-3.0085789112712686,-1.6566788833236719,-3.8687345483701314,1.096718590354305,-2.8375201302691564,-5.509235966863118,-7.399463556287629,-3.498871498588892,-5.387348838945955
123,-0.6929228819063045,1.5238537680156499,-1.1036679779630008,-1.2220814107062195,-0.12546782429081393,-2.193100885130551,-2.060939773263205,1.1228128063385343,4.462198322930777,0.22527404484293576,0.5171463253784054,-0.5190372120682439,0.37898759469524157,-3.886666525637767
124,4.26680291427012,4.610817370389026,4.758209503020457,-0.04498949888370769,2.6894403022806865,-0.1300099118581718,-1.0076575449830698,3.798276582514929,2.1565727160524006,2.817590642282475,5.523526154124571,7.269464193963191,4.016744388132695,1.7667032518948627
125,5.896805651510412,3.3007294849407143,7.35726160962825,2.1276428800621647,1.9161032715870976,-0.08224552435864864,-0.5588755978131281,1.8416587160804327,-4.606246167038282,2.642611821467822,4.329595314722255,9.280112454972018,4.801634388470995,6.9828270404902115
126,3.8940584518053636,0.8650688110695351,5.182730680077253,2.385154830735833,0.06959307759959095,-0.7092833452912956,-0.5100612744133223,-0.47735064544400957,-6.603679547757508,1.0606046800902136,0.9651413622413642,5.700774459163076,2.960280614127358,6.445984515252631
127,0.31336466343909575,0.265251955805076,0.30207917748638946,0.19043726103540243,0.18622889556708305,-0.02129652813195978,0.11335278931415485,0.11402196258686972,-0.032376034049407774,0.20201810490000396,0.20130079366043307,0.3892569153823333,0.3088605374815194,0.17637301517470474
