,AF3,F7,F3,FC5,T7,P7,O1,O2,P8,T8,FC6,F4,F8,AF4
0,0.00461892125986442,0.03144263557660547,-0.014965523343634969,0.01409766715114652,0.03633690864363883,-0.003525274062558481,0.019462316606565305,-0.044639509073381184,-0.03768578488824725,-0.010123122807374624,0.024466378976555327,-0.011066252222559747,0.01308568067035279,0.005585453888344784
1,-3.654620716193323,-1.4821929416830033,-2.6035694259108593,0.24539352910874215,0.3392933028736863,1.2974130632100374,2.0774198938739645,0.8280922587130938,1.0942113095832757,-2.256836139008304,0.4195195595730569,-3.320476192388901,-6.891499008250272,-2.240353239494645
2,-1.9255945776171097,1.2797073190284924,-0.5502931848588,2.4554840285315427,1.8041871342965594,3.1375369640852555,5.238045222390057,1.6924466691032947,2.1272440195433937,-0.25985122162063223,1.9063385749731125,0.47378198886827766,-3.564108301696041,0.8682646674299965
3,3.1876869432249446,5.093080480196315,3.9640514026923057,4.129224211506352,2.9640136321876427,3.6115273279571922,6.232918308639237,1.3610656515319821,0.9039399262732022,3.361968840618014,2.948531150117312,6.922939152008513,5.567192068664601,5.257144050562251
4,5.169677275271737,3.7339899739294897,4.88944864228791,1.6872086749351638,1.4162866624219497,0.7671002609600865,1.6240582877557075,-0.6379073623144115,-2.9673159462597964,3.062958871578973,1.452274743182004,6.562851359500036,8.288113592165386,3.790265443248972
5,1.6752193800712825,-2.443434373377273,0.6538871266947314,-3.2531465148288055,-2.350387319178465,-3.527210095349223,-5.655237061096657,-2.325407831698659,-5.156379079556991,-1.3006449621595226,-1.676193440656732,-1.0468542417057822,1.6817595857852308,-2.2438936161195877
6,-3.0783181333298444,-6.398295273578976,-3.9668732983610115,-5.094735594584415,-4.637624311321836,-4.829539398038951,-8.427312985061006,-1.5795982162462423,-1.7797151741123818,-4.388450405933374,-3.3666291253134815,-7.153148782396474,-5.548566305314488,-5.205955105518299
7,-4.531706222029319,-3.8164176235654477,-4.577038356725913,-1.943964235440658,-2.7557435579203626,-1.7767550471468723,-3.946441558442039,0.5925514354674611,4.1914139099228915,-2.87820735180925,-2.4574469283350244,-6.267214444519147,-6.2086856892843825,-2.6783690963129594
8,-2.862912785098635,1.6023513569808299,-2.204611250880249,1.819994664672701,1.5405598704598304,1.8891609520004884,2.870103693162826,1.4316924765911472,6.064023822400221,0.8952763936661589,-0.6107752866352009,-1.7961063709977532,-2.3119977463451415,0.2863826260658791
9,-0.3813370981798789,3.8749959115026846,0.11439316969039429,2.2115053898913364,4.053837773588872,2.4841440577986758,5.763075369435345,0.6148208265405738,2.323586269163171,3.2173795791432402,1.0093215800847224,1.4417345601285954,1.1926981580259157,0.5931797009102845
10,2.5434545815476617,2.407392199387752,2.188760839654811,1.0663945789959286,3.0363496585685215,1.3499152849837572,4.0820045226167405,0.31608586913079084,-1.854709066641304,3.333643677764461,3.0319498674305634,3.6489289947697485,3.3407156147419688,1.4453021565257993
11,5.351919953324644,0.7321180779117967,4.431143234765168,1.6197176410425422,0.47805885657794334,1.7295330001837685,1.5376880184073132,0.9999034392190833,-2.439126418319667,1.9374069597898211,4.500251990583449,5.745932807319143,4.466577777517872,4.379786404211663
12,4.18819377806496,-0.15317865990372254,3.854989148738528,2.0462802739472505,-1.341459132443807,2.40286418433625,-0.12029214907900292,0.4076144255983886,-1.6165633120520653,-1.3583058216275457,1.8530172615537437,4.328749957644642,2.2116715549553545,3.851471609090149
13,-2.916730768238337,-2.1597177935498975,-1.7929017299839056,-1.2379538674405617,-2.294227713766845,-0.6573970011211673,-2.5648479512824482,-2.056843148589252,-2.7462165726968264,-5.676417614004118,-4.9601622479539245,-2.779701583919507,-4.011063884974701,-3.6858906907412656
14,-9.055138234757043,-4.167753398218841,-7.247696084759722,-5.525381842483962,-2.661233910603472,-6.055457120687936,-5.6720516053826415,-3.1326632854380563,-3.775509679566403,-6.332981226267815,-8.49753733853813,-9.03034614975498,-7.682069231867375,-10.035551772614651
15,-4.78993014381774,-1.92239485336419,-4.4153913691792,-3.9907649734754584,-1.5555000871431035,-6.401997211258147,-5.188712700541389,-0.3743950559854676,-0.28515490621181466,0.13601242094947205,-2.2782272299022623,-5.436879763454732,-1.8262922917140663,-4.349180821609578
16,6.965108828601244,4.011674841713229,4.981379959573623,3.1762206078011586,1.0583693675567714,0.9902011875274372,1.0243246267330408,3.3436156778249866,6.06184781092839,8.625700009886579,7.997204221336132,5.362878855786875,8.854281361344865,9.008648155882724
17,11.3234950250697,6.332835001393791,9.029403386632103,6.966224362823773,2.8988937733226474,8.165113466881952,7.46732153675927,3.274509141186086,7.742408171847541,9.179375069853903,9.518635544538103,9.880298865849186,10.604644477927351,12.907834377476783
18,1.4649253009212573,1.2029105851342403,1.681421661560525,2.216485325102424,2.2325144128998424,6.405987173716664,6.772391803517301,-0.4337702070258768,1.7295587683538651,0.126881065907571,-0.0956553936088973,1.8992807675613892,-1.0003346385989293,1.0423542258753515
19,-10.125341858693746,-4.94296821383652,-7.68486006906051,-4.389514986437211,0.5206576901015554,-1.6757887412170211,-0.15383641126114797,-2.918142231413219,-5.345877998638303,-8.266221704273498,-8.547589007922952,-7.984918906473225,-12.65693388396561,-11.715907557868618
20,-8.45410151612256,-4.30355867007213,-7.017168819935261,-4.198391928899989,-0.12189105465992418,-6.014175706657465,-5.076694655664063,-1.4963015755149527,-5.9351979858942805,-7.008313413050647,-5.770926721310224,-6.855666821942487,-9.950915734828351,-9.565155925075715
21,2.741685816799847,0.9111372556001882,1.4624575342324198,0.9254952803483866,-0.3635827063310451,-2.899620671430419,-3.6646396065835845,1.0147645671863519,-1.5249628593271354,0.08058127505429045,2.6550118508123903,2.639875848282684,3.184678155576227,2.6446209024788314
22,7.4703462116828,2.6352764198736396,5.516784011072725,2.7452767504348685,-1.8208001493583268,1.5484247448542572,-0.37263091682720867,0.9816044816704315,0.954223791328931,3.237663822949305,4.936376688262657,6.99787680529419,10.356001047291254,8.068996866713942
23,1.262192857936806,-0.5764499388075282,1.2060772900511367,-0.42827672427082575,-3.371518217540554,1.4114271614520297,-0.4810352138413907,-0.9143346461067945,-0.1845391586229056,0.6080023718710773,-0.23996709914774278,1.2522679455135721,4.909708889218136,2.0079898895183836
24,-4.348304769727873,-2.5936377442109437,-2.8831923355152687,-2.5932193785481097,-2.4489765048044188,-1.469962678579378,-2.197759307927109,-1.3477982758317086,-0.2633930714000331,-1.3811221307239987,-4.025528734688071,-5.317682973512393,-3.5141449762780725,-4.379531040365141
25,-1.1308982021119256,0.032806788841425946,-0.17321823167614453,-0.33189678229297587,0.9270062262815498,-1.6191737603283123,-0.24756625753900144,0.633918679516928,3.068033279340243,1.2404885138988733,-1.0706631229783508,-3.44033865563282,-4.395243116996482,-2.326487758920644
26,4.579256624609213,3.7460131302869364,4.470364969990488,2.899714038637645,4.105787713208071,2.1682562019731177,5.313460567221125,2.6531093632964056,5.800444532854401,5.310224242476043,4.444663616994494,3.7593356351423957,0.8387263241686637,3.808683495216672
27,3.6902946541456627,4.041190602771125,3.374192594811245,3.0148856396078503,4.893808946386826,5.30552847281523,7.927553660122701,2.333626026826323,3.3593934345128083,5.5474561451166995,5.664792565156124,6.200484354367799,3.872663724247903,5.406605059627009
28,-2.3625256324891617,0.6215425749003224,-2.6644700135269153,0.3165226246159864,2.6833162993781405,2.9611009400714035,2.682972913589982,-0.23969148725342593,-3.163825456905157,0.04391450599221537,0.861655851396369,0.48729637053348857,0.9953191833068564,0.8440194931766288
29,-5.718562427053739,-3.6847567407327046,-6.537944490037232,-2.5060669972236704,-1.8561650828449656,-3.65991569311107,-6.5545020839782,-2.99862728885415,-7.8672466658023605,-7.7328676494628805,-5.591222400391988,-6.2989228770715915,-3.8983552049269865,-4.8537474276887425
30,-3.3585025703936933,-5.545695488141165,-4.510880328026326,-3.5010094812974306,-6.056270258820444,-7.541826245725447,-10.41859540349518,-3.646763699201525,-5.966843151325648,-10.430468643827774,-7.444394542373683,-5.975722472743453,-5.012368020959625,-6.649219118749359
31,1.051312024576728,-3.1333674001834897,0.6109156893847503,-2.017290393069645,-6.082050243729577,-3.8561026934640203,-4.787087192151443,-1.495411353396276,0.9926348068186455,-3.8923785337272574,-2.5636252519123737,0.752690710724969,-1.1482420736331473,-3.455126278386989
32,3.4796874189179463,1.9296552052274123,4.41999779734609,1.0925491777191199,-1.0022560177320972,3.4838869255945135,4.164987241647427,1.6670171437217371,6.061898895014689,6.087427273245666,4.270821594541988,5.855702768251804,3.397612435282029,2.0698765934794254
33,3.405351442572286,5.403391690071827,5.373891089992962,3.4575445122668063,5.053830864111153,6.380117282682103,7.597705021667312,3.213377847134766,4.59776188840548,9.372605884975528,6.354014589413532,4.385748659636156,4.257989417426738,6.070142607708073
34,2.116090239884332,4.57809636226146,4.038163638292773,3.0765045265675304,6.711236043222655,2.7688983628008184,4.2645657031616935,2.467112751206569,-0.05307654923163784,4.528976061904842,2.877446953347796,-0.3042491879630641,1.9722511355140218,6.181733042590639
35,0.16488259306534167,0.6303557735124065,0.68989997626005,0.3916612499973976,2.8112983705755052,-1.8191950832896566,-0.15616846324330563,0.874741078409815,-1.5347963045640587,-0.5271314753571882,-1.0892122342609043,-2.67250205365617,-0.11114122646546182,2.3916609318026856
36,-2.3149391799977432,-3.211781808098246,-4.0524127389458755,-2.234820377306932,-2.771686976405528,-2.606786727652033,-1.7765321077768241,-0.45713767708007713,0.4792022924279754,-1.4199948894177237,-2.043084741100682,-2.125955188831788,-0.9696499681771494,-3.2292497292431106
37,-4.070786687957288,-4.401919571818351,-7.24770717912964,-2.8650214115234616,-5.1546035535118655,-0.8286495509139229,-1.817298933327295,-1.7377795856331066,0.8488010612590587,-2.188087728044816,-1.522462082103925,-1.257832181640403,-1.836666725950537,-6.818762272668415
38,-3.4052458044521514,-2.565666006416843,-5.471923081798035,-1.527838019138124,-2.936814997352293,0.12845506782644997,-2.092895759860543,-2.808796601234879,-2.262945325289485,-5.257183992131361,-1.7981628446971458,-0.7056606004880748,-2.6114217350503606,-5.062290518278361
39,-0.4609113535020553,0.24890970269831392,0.4643886900818704,0.24081362465828665,0.8833454672497848,-0.34824733509931494,-2.07269046924308,-2.3704536047220386,-4.575005785188297,-5.780970447372906,-2.1386452330926393,0.3378188845311309,-1.9867207103099105,0.6266775671242182
40,2.701544523872802,1.7044323991630819,5.376541813270636,1.26306477456458,2.5214548569858186,-0.7379454524843558,-0.9676432185550724,0.09453100877677068,-2.3903518709557074,-0.41911056966086946,-0.8482998862974671,1.209861301548446,-0.2077737042240499,4.434775575065711
41,4.450940873213033,2.186800917911323,5.82805146218655,1.878167544508001,1.699177090578912,-0.16108789112056282,0.8197058549397329,2.775864418006867,2.3647335299247905,5.789778586561404,1.756966666677861,1.1742960156358724,1.459029109139396,3.1646419871435763
42,4.392864684545809,3.4608729245064516,3.6890332715994107,2.5478578896839466,0.9786605826629248,1.067105040016638,2.6795265526208722,3.1686472949222613,5.192924386868184,6.636533873481279,3.903839598687609,1.462512793791242,2.9667316789578693,0.4625031506314807
43,1.9976787482950666,3.976222858084134,1.647594375334651,1.8782877322635343,0.9915995265655007,1.9932470880938988,3.5890642364234817,0.9784956232755226,3.973701172769252,3.073856246213967,4.08641192556402,2.4459333935213445,4.222047823108333,0.8128410778530071
44,-2.9311349561501645,-0.15524440547801174,-1.3349437286772667,-1.738049273564093,-0.5955647885345171,1.3509839944617121,1.6561540610835301,-1.5248235719197416,-0.12383820237150008,-0.6156915231313657,1.4095770866443913,1.2471635439591164,2.9420984804105808,2.0577606039501632
45,-7.635999163495139,-7.47304869177983,-6.288663008408789,-6.011039546978241,-3.935104483346158,-1.1057425912326693,-2.972123924544154,-2.14052425818469,-4.109800110346946,-3.6453013866839017,-3.6202300629372273,-3.687878517579766,-2.437673293405701,-0.980018921166705
46,-7.161167188929029,-9.569446570999633,-8.906711168370737,-5.398763499602249,-4.501739309129053,-3.1671479543775996,-5.7143310522880215,-0.9514096632878097,-4.820749328655466,-6.209976878601546,-7.438566706746797,-7.559426217330497,-8.094395067600573,-6.612090082485762
47,-0.05798813779199402,-1.6759226565660785,-3.8387344008547886,1.6108007795702879,0.6128408483089096,-2.001533062939901,-2.2207562071462723,0.42091580597542305,-1.3591769386142254,-5.01859328027597,-5.272539896867641,-3.949857609208571,-7.248541603563131,-6.533993720500927
48,8.131741729037968,8.936340865056483,6.084969179939445,8.320916892574058,6.569037637566272,1.779347850016958,4.577407146507927,0.9337135395958995,3.2427380184239207,1.7628705433432206,2.6427694890375357,5.33117813176151,1.147178642734027,1.9823301341615376
49,9.622934334345304,10.842549733603748,10.866663859885442,6.957595295178374,5.999519762492608,3.9143632165996745,6.595408948464286,0.7020525525106293,4.508645789464484,8.170133095900127,8.886975234047679,10.236201270592346,9.240473694738968,9.867524273760363
50,2.757648783428617,2.7672548249798763,5.501768114350617,-1.0957359304126002,-0.675344561977163,1.717548018647889,1.0520066743925738,0.12107196774831132,1.487551089183309,6.431847843051906,6.709543612712144,4.615816396292047,8.621397367428145,7.160844555459252
51,-5.823453128324968,-5.701187503181858,-3.468553788793638,-6.797092458993044,-5.597489973284256,-2.2502119709507493,-5.4263662711086,-0.4947928646001125,-2.1834910631426916,-1.7081072015276981,-1.2557874657931132,-5.398967516021097,0.2987816067404155,-3.231662771448591
52,-8.086955982274725,-6.93265079402588,-6.528340352218976,-5.185393783123176,-4.330264199735018,-3.497853664979984,-5.511703955826132,-0.7041562585191035,-2.963463723088538,-6.5577152848952664,-6.338386428861364,-8.737654936933492,-6.737375216573346,-8.908690167246249
53,-3.0954772593715596,-3.0429472945797666,-2.8716620880513313,-0.5396919416427514,-0.6997551246393319,-1.229884089723161,-0.31394523088246445,-0.32969379226356665,-1.4585696054101593,-3.711404153692135,-4.907836144495992,-2.912837196811961,-6.378727844162827,-4.161924806843753
54,2.5599673834313035,-0.043071226347426605,0.437156788141985,1.4409977777977336,0.6325483731145302,1.3793194448399673,3.4561682589465463,0.14720242558872884,-0.32311226269107834,0.9271917416273784,-1.1900689945426906,3.997157697329493,-1.4254619531909936,3.597100400078049
55,3.0404541079236664,0.527105001830952,-0.775146240477868,1.222194666163199,0.6920652515736453,1.7268301241342559,2.6832822476384375,0.25728832328719226,0.12523724128865749,1.2451106570110206,0.6642498727180964,4.371965551688537,1.8635782517420028,4.865308327368213
56,0.060251479758828615,1.2499863989200808,-2.5673341927236106,2.0553230910139435,2.1968924165301957,0.48056270686092584,0.2329892792461873,0.24175135874034215,1.4857351232855873,-0.3931654553822886,1.5959198856977324,-0.181158882312711,1.782227342186158,-0.07896856489592682
57,-0.5598134803687037,3.2604976155979504,0.4420053017360289,3.431442177716204,3.7951142377557017,-0.2056340402963608,-0.5271891361507177,0.5183787949611894,3.3417841045187804,1.180376465285101,3.3137601681080877,-2.6090092717275817,1.372370436901191,-3.4899502550267645
58,2.4857916728356164,4.545365619635342,6.539956098364475,2.448843966781389,2.5519343687549787,0.4832172035643459,0.30487320794817696,0.8764044713108161,3.044226720420391,4.49151036810998,4.125525738981814,0.020716162488112574,2.592482836036969,-0.9045292302396376
59,4.4516281281364085,3.072646608132739,8.290272502376137,-0.7425090445798127,-0.7985181405592868,1.3799056150801943,0.8462144676655046,0.675556923290576,-0.19649948517738558,3.7635475712271416,1.9379750265341702,3.644059474251339,3.3888551971954555,4.053427917731016
60,1.6317840889010908,-0.8052795555578444,1.9784549256303252,-3.2452819025952526,-3.1594526355930936,0.7428343020572504,0.19812538406006314,-0.37951829601503406,-3.716376661161864,-1.577312326800817,-1.9660542252739766,3.110626848842668,0.9406165840933547,4.788938229341929
61,-3.660452072020109,-5.0138496979424305,-7.143070135815164,-3.8485984432939007,-3.6260830497093033,-1.6823859547495648,-1.2742207513945942,-1.7277308295819633,-4.6229025130287384,-5.851245003651662,-4.704593834180746,-1.6050147019539402,-3.915207030815028,-0.4792803355410751
62,-6.458549198158889,-7.081406603157195,-10.473406460331766,-3.317061292427654,-3.1285364258190995,-3.7052441274325045,-2.618097517194414,-2.120351990691885,-2.615270141173847,-5.235528661707028,-4.95809789648117,-5.799577302829741,-6.827595759707957,-6.555878714855536
63,-4.869853676724461,-5.0904095966785565,-5.5291677807842925,-1.3846269809477363,-1.3656358626788188,-2.658939659597066,-2.569321963315354,-0.8530143364592025,0.6990069703874628,-1.7572212226890513,-2.7619342396051443,-5.336463025808229,-4.610329572639171,-6.918091066643041
64,-0.930542050063888,0.5312662339931856,2.0843181970495213,2.4391387500925137,2.065906735334746,1.0439326426652982,-0.5291427005058917,0.989619131213576,3.3305097938078294,1.2552880052101931,1.2171992214219356,-0.6810557538870969,1.0032316361612874,-1.187892879978847
65,2.6701385462960747,6.086984666195262,5.867184957824226,5.672286104448025,4.8277460271509005,3.7243621114297527,2.227723911090463,1.6383633675658393,3.6811444883401436,3.2479808855945986,4.81222696987824,4.070450528212644,5.2867871860568085,4.692884452102673
66,5.1771306930154966,7.716785171549656,5.4004104029089905,4.8325382206562875,4.122689118772016,3.049762817274637,3.5929554625817217,1.2860866347800861,1.8580865579009544,4.834381880048645,5.517225052359863,5.711888465118151,5.921661195880882,6.141068614804714
67,6.949866928188327,5.4382111131351,4.589931156253678,0.7344300762986969,1.088553974770222,1.0643941326366495,3.1067359536460155,1.7297501658313565,0.19457953896720198,5.358798665911247,3.619397373048126,4.690444827158137,4.545167039176236,4.673027957599645
68,6.555324312719592,1.700879655131447,4.3146002051043695,-2.352262783057679,-0.9184857590013963,0.42822608022584135,1.7947289572635796,2.5362275026817347,0.2965381358084288,3.3526303552599166,1.2631492692351176,2.63905196606724,2.396315435328932,2.9642529506248256
69,0.8774314660092889,-3.0177792350859667,0.6904397661910595,-3.003090530674752,-1.7305585204411458,-0.26775709102152817,-0.33996218703072023,0.43353261203955,0.017482673085663383,-1.8630797829388055,-1.7726708648471214,-1.090049016505096,-2.193814723142873,-0.6479209165081595
70,-9.148503038231201,-8.760646912769182,-7.404487271158906,-3.4931215095468136,-3.645740159332611,-3.4597572724595635,-3.8358585286025857,-4.96258074506508,-3.4010336638856904,-8.483628982972743,-6.789156250365486,-7.007024510592486,-8.867996037563758,-7.541498135329668
71,-15.022304086915861,-11.092133507608079,-12.963653245385371,-4.066933707973994,-5.549833160590166,-6.33180206024741,-6.456584179038336,-7.730243981204025,-7.259526893533601,-11.353996798374554,-10.223448708082547,-10.533393351408114,-11.174769781525116,-11.757180364268095
72,-8.736475923112064,-4.5393931773017515,-8.276678718707338,-1.882545189564859,-3.1571339683903576,-3.351938113594995,-4.351818826371373,-2.636752852069539,-5.1362815733594305,-5.7354411911177365,-5.585899012642676,-5.4692947793355895,-3.650612885175258,-5.6467953425858495
73,5.595919820684761,7.419612978392051,3.860771550563678,3.059652240593828,3.512306762950387,4.423028195844561,1.924193207017162,6.0179091255362644,3.581158007647691,5.748815833467159,5.997336349831329,5.848050871741172,8.201649393658128,7.280502453705241
74,14.604662320777612,13.215417785028215,12.362717757221386,6.368379595070508,8.056921584431997,8.677510208268842,6.589821902006381,8.564596452471447,10.614486515896262,13.343668603689762,13.681971641538153,12.274801801631229,12.440436309805717,13.672909110769716
75,11.360199153297444,7.492163795337296,11.06839487212008,5.320266271746405,5.731701469863234,4.6604803249753095,5.82393373716657,2.953168195664252,8.552165149588891,10.573201381018384,9.664787773176759,7.523805611467639,5.981135082967533,7.230780792881212
76,1.8726059690760424,-2.0552662531583907,3.850841008444714,1.6685702776315567,-0.48784487474653593,-2.6083940687000737,1.8570465053147223,-3.0512362207974206,-0.04129910644243236,1.290519584039541,-1.0774797954144033,-1.690999117225692,-2.1477384325896773,-3.2984899063969415
77,-5.249655295618572,-6.021376264604907,-3.301654353605009,-2.443700673821678,-4.579166449250793,-5.726561241284192,-1.7832735682549683,-3.7408135963583478,-6.858972417605693,-6.459038185150064,-8.082275103240432,-5.66298705409272,-4.457113659408547,-6.862529104713371
78,-8.127967981303984,-4.7555081377403905,-8.261058472946301,-6.116643519689456,-4.671757240880688,-3.7870230042509485,-4.382507860586149,-2.1162531049955695,-7.786317071026453,-9.341161714912817,-7.780891305276061,-4.028334134710968,-3.6195009000574636,-3.7330737769232694
79,-7.9739088915481275,-3.5175057626935042,-9.623316540491304,-6.806078983128995,-2.7612160178480925,-0.6463259906435517,-5.25668553464983,-2.0437157200477505,-4.606503122630637,-7.992686666796481,-4.017383737718144,-2.4042785517300183,-4.184931675150653,-1.1556096506620972
80,-3.9159669994356796,-2.5980179483161177,-5.088955235813574,-2.0047386745799827,-0.3869047476992772,1.4655519316625052,-2.2628295134473806,-1.4824032063181949,0.05849333071786145,-2.5804952570355875,-0.3357078131306312,-2.0513280122668514,-4.080688960337879,-1.372313103590804
81,3.3322622623896434,0.8027862008184756,3.4111802428085776,4.9496286230968325,2.005883492299856,2.5861427063175766,3.402702312834894,1.790577054485577,4.50343081993842,5.230811115274695,2.6766852439832185,-0.18996978315339438,-0.0695765730944748,-0.8406000338576858
82,8.125920050553958,4.949246549105309,8.598742749588146,6.85297592459179,3.277413147800635,2.2452737512243854,5.756125788575254,4.273808402959012,6.287433452899245,9.587538649905387,4.4375874166771805,2.6741653691021123,4.6907310954992685,1.802301936714384
83,5.992882087095273,5.106722773304433,6.147179862966268,2.3095909152274157,2.3672836913678883,0.2206585640008694,1.7376461434938695,2.3513337428904864,3.7007284734402206,6.049294793016699,3.8886411426859855,3.16115117186889,5.0861203767543905,3.694318009643045
84,-0.020490755768427266,1.139094367778655,0.3191304554930037,-2.182778750409333,0.20090021519681436,-1.5428258251962927,-3.4926817576778113,-1.1099518193266658,-1.1303330902978337,-1.7657988812257257,1.6829528339091717,1.4015160661939399,1.996956446835239,3.0169389259679753
85,-3.6394004789534855,-2.315330976182784,-2.3855542199229767,-1.9350354219465564,-1.3202103142934554,-1.1972117057855614,-3.4979777431724326,-1.533194407080893,-3.918365133774987,-6.1032050244500216,-0.44354792582135133,0.6672239677775117,-0.07113556564818382,1.1839058690728415
86,-3.303222893649144,-2.641974757610156,-1.7515703730522356,-0.15689630812136277,-1.6779497633603322,0.02322044899789003,0.49663720004099043,-0.1152757205503942,-3.1085255458183263,-4.320404195891594,-2.0507818445215347,1.1736146829139162,-0.39898719818130995,-0.5026768858915355
87,-1.6972677247217127,-1.4236392473079371,-1.8130382470260917,-1.1366286638822125,-1.4570163625997685,-0.014456169965218656,2.511556131098185,-0.7926414227600685,-0.881379816752297,-0.19012784614776945,-3.2752084161277404,-0.09247219995190022,-1.5153785641882453,-2.289101325906232
88,-0.11108057127411991,-0.2607206243383113,-3.0988300173342602,-2.6973896542740907,-0.57517268593198,-0.5564602376999402,1.0403475210519493,-2.7141346797514947,0.3873918315617754,2.340758551951231,-2.908735939981817,-3.22405172568107,-3.1871358264102914,-3.488808722717213
89,1.8263120680248248,0.9708015603418987,-2.249860285973183,-0.5686745752821695,1.1619884173111077,0.4044842919529845,-0.2068987417015305,-1.7230275788386131,0.5813729068020571,2.45575519442213,-0.19587982081951236,-4.264393813683173,-2.596549477744933,-2.358044317424372
90,2.5640734392378715,1.5468974813993799,1.384150498059054,3.317680496961499,2.278002431009739,1.8655082852690452,0.4022721116326196,2.1577799037463032,0.7980655044947886,0.7257156237066552,2.441727344334087,-1.368830087275255,0.0174846676912023,0.4745987722252973
91,0.1594624029430072,0.035014075306257324,3.9548678768060723,3.208830555721111,0.9021739580340389,1.0173799239677006,0.174922298024734,4.265464683273663,1.4600615214570734,-1.684998725422197,1.9692439373648973,2.160231479028274,1.226305098918089,1.9401041636293639
92,-3.0389911559973015,-2.1846393920808396,2.8905517712222277,-1.0348563659533934,-1.9006932868912831,-1.6340985897684466,-2.1517078831080423,2.1696287966091656,1.8357052485792367,-2.3911150602419635,-0.39072506946900715,2.809224349986402,0.4660454982006258,1.1950414228926316
93,-2.431037809129806,-1.702353992374527,0.2692342543298251,-3.2683121328308675,-2.6357822111523386,-2.4284451997280367,-3.401731184522026,-1.3949086344402408,0.8699475752752024,-0.05025477362439393,-0.6137675580122757,1.4521851408481903,1.0336282822045444,0.8406403316633921
94,1.59112377399576,1.4278986614049494,-1.1916070846542073,-0.5787006297915208,-0.22282506925223133,-0.36352700839222074,-0.9198163891968507,-2.88878487593237,-1.4310734551516364,2.734932556388283,1.6131790213398494,0.7250847825873705,3.402476164352566,1.893672014339677
95,3.457820392372912,3.0534235269795147,-1.8283225712976632,2.4319482855515844,2.1408642308540755,1.3141315443136656,2.92597020752438,-1.9129285153070472,-3.31675781147393,2.1075731817801584,2.0232147344983193,0.5418078183099407,2.954566005068943,1.4926123702035665
96,0.824000535265785,1.243593183154068,-2.470846472366216,1.280595561384718,1.6447035103073397,0.6528955592324929,3.94200490323164,-0.17875264405587848,-2.65855003441826,-1.2898642495228214,-1.194070527332406,-0.6868174684063575,-2.1127839899197944,-1.717124488814583
97,-1.84061688147902,-0.9334571028636569,-1.5456719066981877,-1.5525334323145055,-0.039330648062356616,0.08360295553592653,1.73305671971143,0.9580526737101582,0.5621997580365072,-2.652229391680112,-3.661816264257958,-2.097726248009937,-5.6067177477115155,-3.768072807573399
98,-0.6135744464903784,-0.8615963747607448,1.8669713790074456,-1.320940090100945,0.015210958899514484,1.5463712040285182,-0.6255376204519787,1.1009686558110734,3.641851007413842,0.05268765095568324,-1.2461225059846528,-1.3958425009731792,-1.8216224591748138,-1.0855567097094603
99,1.566456305155234,-0.37483127608982103,4.362595615896172,1.1185497969038332,0.7457180025205977,2.2444140131685764,-1.4037023391454027,0.5053962618888074,3.620578848420988,2.770566135076695,2.916185721100626,0.6221146510501663,4.299995115507711,2.8511069926617765
100,0.10387134922210262,-1.568211358722547,1.9506449971631785,1.194211586476719,-0.9030535255475075,-0.7971814027217337,-1.7015939658049488,-0.015849011230279444,0.42906296698744295,1.1267753824346047,2.4984943412309057,0.6631624352420347,3.264423271508012,1.9839684697827937
101,-3.170440691578172,-2.3774903455164638,-3.2161159886341233,-1.3930221210827352,-3.6265852730143933,-4.483499739634915,-2.1681349225304816,0.28963519875743854,-2.7880038135194574,-2.892300535302693,-2.172111113030092,-1.205625096211375,-3.8866625603863567,-2.5343036865327906
102,-2.730274388552158,-0.1388663965115183,-4.6177738686358,-2.1509833461339563,-2.566778807862731,-3.2656896721514888,-1.5151022571359707,0.8974138447645998,-3.096897485119469,-3.547999162092358,-4.021228470098635,-0.8873798285596588,-5.957687500920594,-3.482789121174547
103,1.31592913681988,2.9664712307064516,-0.6691780249809144,0.4841786632840419,2.4588481773561695,1.7745224156499175,0.4273923050890532,0.13328943249660793,-1.2564509858337969,0.14576128528351945,-0.006876768461924317,2.3829367694938375,0.9965244579913586,0.9168068329020512
104,3.0972150125946136,2.6204751991130952,2.8880193579568574,2.3979672871737403,5.0513990030491955,3.6619797771826907,1.412926345365603,-2.2844302165370785,-0.15966510718433874,3.0407475310632543,4.014175288900553,3.2243571279224073,6.852612586205205,3.870850530265844
105,0.8497799880807811,-0.407221719057406,2.103857706095142,0.8320240393794954,1.6080670998745101,0.44185650510634494,0.7794463598027455,-3.4568187731829694,0.16966466262680924,2.0666475458307896,2.6281774588761517,-1.0579645447181352,3.5348578359197926,1.3419106973678698
106,-0.08616407669927842,-0.9454479824135071,0.5389240423088575,-0.9103449483186774,-2.67252635308475,-1.5530664200093292,1.2980959726475443,-0.40667017700736485,2.510395694464028,0.6312323231480856,-0.6821130270949984,-4.178993361288321,-2.121342803163817,-1.1002918874042869
107,2.729619019745677,1.7459129607461565,1.6342167810539905,0.44898883245189447,-1.9039293331791627,1.4457828693962027,3.718040142145862,4.72689691492583,5.837019218440018,1.5893753238594979,-0.25900004009616723,-0.24110773078706216,-0.896514489066672,1.4570163909834644
108,3.0027800554966264,1.6436600090069615,1.5168311327278592,1.789804185619831,1.165288281300838,3.722048882132148,3.365358779791636,5.6971027951715065,3.935537113657219,1.2756852570143922,1.4156856312613266,5.165281698038655,2.366342184683549,3.370456852699546
109,-3.7779607994051507,-3.9627200761334067,-3.4984768840971965,-1.1288858655742042,0.3572938617215675,-0.30265779080189686,-2.6604255112289574,0.15554836417106607,-4.750468355677272,-3.593434835984081,-1.6036955663744998,2.5165695392245424,-2.037121563131469,-2.1793198498847985
110,-9.896414204435413,-7.6114988213791115,-7.400057875610239,-5.075119934059547,-3.075604956000669,-5.794808621325164,-8.318963918601737,-6.110852550785547,-10.866197176038636,-7.585843466601877,-6.575862755715907,-5.646079537557534,-9.261537415176393,-9.27120904293468
111,-4.920955362797674,-1.6245065697774488,-2.261734186706083,-3.1098023200288374,-2.5615854441285095,-4.5332253815217864,-5.619397148609233,-5.887896202113091,-5.357560556332444,-3.310349989308659,-4.624498520632307,-7.221785676646303,-5.845371157643101,-6.334097036408017
112,7.2160829468721195,8.524676665518792,7.213310823418024,3.891802377196452,2.436971018622413,1.9898244748823715,3.0173807154472185,0.2612908308682825,6.214450512753899,5.804285525006334,4.334456698325606,0.8570162443544524,6.908716732680576,5.017113613907828
113,11.530135844122114,9.66121911507466,8.23295780477976,7.008407152397235,5.080908155072797,4.851019544917513,7.09580722819133,4.955306313675175,9.84596409388318,8.669387283148568,9.332755631257397,7.699433985004557,12.404852861641423,10.695941895269755
114,2.9438451196010242,-0.46883653829003813,-0.8055619544985673,2.041762588035157,1.7277299973395122,1.211437327562396,2.7608339023726898,3.5977096472212176,2.533538500157732,2.4467691108377,4.054389671191368,4.920537915981134,3.8032028830496514,4.620688770221142
115,-6.773276999535306,-9.18480072298206,-7.1787580019001,-4.381028078432082,-2.939593701078577,-2.419530075971057,-2.51225457668127,-0.6205368249585375,-4.50153323011451,-3.905454259981228,-4.09336480553846,-2.0710054959950406,-6.211312947552499,-3.507950754980757
116,-6.445005100751254,-6.341670240216808,-2.9893155700218887,-4.686624130040527,-3.366819502837478,-0.8010915619327613,-1.7470976550885269,-2.167879065161865,-3.1515823496515702,-3.7055189047930677,-5.4362263623636045,-4.095605161712447,-5.871105305891666,-4.209725804185199
117,0.018215156803235197,2.4480053921565412,3.6900332701681764,-0.45568371294561505,-0.4474567610437904,2.872117851481672,2.115417957474746,-0.33635335944992883,1.2795428474187391,-0.9699072810896253,-1.1617983348646506,-1.183023355003857,-0.30122422416900463,-0.8672958586429911
118,2.627100172987663,5.5289185211557355,2.7138951428238394,1.9179646087020013,1.4352682083604906,2.7354121812087153,2.3622108717977897,1.2803188496569506,0.9207332582098732,-1.105505486675802,1.155257855798822,0.6792578769933326,0.652644158152142,-0.7029368273182952
119,0.5224715556106492,1.5314033864526966,-2.7230088082271613,1.066587356896935,0.9349432068175022,-1.351272439560597,-1.3523910918266417,0.4091182789602227,-2.546886276167992,-1.8226150320171322,-0.32600464475325475,-0.19525189221468403,-1.5005276666972227,-2.495484875004541
120,-0.2477158443136112,-1.753595889147183,-3.0764014526829575,0.43619582999279205,0.025505478351597693,-4.421411819620618,-3.9412828569435616,-1.5362647872248631,-2.695873270712876,0.8782049590541344,-1.074612255358248,-0.7414827946635935,-0.03391728630880811,-0.9651653345064028
121,1.3266426658827983,-0.8337458098672157,1.859153911898229,1.0026928232764765,-0.07036724163704605,-3.2484167558516592,-2.841971865097312,-2.103086209774964,0.9201887004523001,4.3389358738831945,1.1127723742802915,0.40576519469224875,3.419056819805791,2.877710593069776
122,0.9281877192482166,0.19698301080246067,4.032159252886675,0.37511102349536407,-0.027097665869018787,0.3990767372024028,-0.21524572465530856,-0.7341636744637677,3.3308472107025056,3.4941327229974117,3.1633977652176783,1.474863507638457,2.399868430371397,3.664571380052683
123,-1.7162264314839504,-0.9853538352353324,0.6756226293460159,-1.5324618779885528,-0.2564314938755572,2.826821286890431,1.5350835577801665,1.1261480608171135,2.0924346371874614,-0.7543683235854083,2.0959291679726277,1.1145369369413272,-2.0524452194654037,0.6488352392959964
124,-1.9469482282618398,-1.0928441927473043,-2.588194337211105,-1.6363970685667835,-0.1597205487032191,2.5393093309022987,2.359709686465675,1.8469619395314143,-0.5665268442015151,-3.281088491411217,-1.0520313073570469,-0.119089706810737,-2.847422626470223,-1.8395035360668808
125,1.170161602223471,1.4094787560914241,-1.8356948613791026,0.6678674496771536,0.37953894843752256,0.8834906927246724,2.6682562478229976,1.2332605399108323,-1.9249820174187842,-2.3238504891396463,-3.209300129935045,-1.0809018599442164,1.0987752164837925,-1.4715283072109862
126,2.6514207754313324,2.5489201588656716,0.022602403315630043,1.8290405098713465,0.509247556753985,-0.1658051042960995,1.90465068719455,0.39815077992079023,-1.4546510872835656,-0.6057205107539116,-2.693143267956434,-1.0610608861342874,3.0977677000473296,-0.28653635970236496
127,-0.11558026184117498,-0.13132028916582428,-0.0711901131389972,-0.07679886289648148,-0.16292315143200556,-0.09191112753962132,-0.07710072166828702,0.08101401453659188,0.018737642971971537,-0.11213766236660598,-0.15252519171230486,-0.13997595720714318,-0.2460967517662052,-0.16280141803800136
