,AF3,F7,F3,FC5,T7,P7,O1,O2,P8,T8,FC6,F4,F8,AF4
0,-0.04915829270033151,-0.018553165617236064,-0.018939303829703685,0.015947959144369833,-0.010136098730267572,0.023240236590140365,0.006537270360817429,0.011150194703606535,-0.02728187232505691,-0.04131462578596079,-0.026630187749283094,-0.023301417173766728,-0.04868689270380759,-0.04787800476661991
1,-0.6916217429431475,1.3843756510170042,3.131472072607,5.77631184451716,2.0862865424847263,7.3454572815457375,1.9420628608832706,-3.264299006298949,1.8954254425982058,3.695125155965417,1.1598316440295675,1.1473965375833899,5.888580208884246,2.4325542905789748
2,-3.994231483572875,-2.1548256518993814,-0.7850465829258418,1.9429985948809665,-0.08755722564879595,3.3429934767616416,-1.3794305464298653,-3.000576101074766,-1.788257647957778,-1.2725635804409476,-3.028091572080787,-2.7379262274305436,0.5567250328138424,-2.379954482109362
3,-6.824915700908109,-6.505934595621563,-7.4313777844756315,-5.989161651421565,-3.7214712218087427,-6.1918150658577185,-6.64512361561265,-0.0043736538781936,-7.419796448958281,-8.787462727044216,-7.7261344005269015,-7.0706173718831975,-9.222853514005191,-9.062780538806075
4,-3.949128583501299,-4.410189382783838,-7.014204753607244,-5.971881611871575,-3.1335409039346556,-7.660417519547839,-6.289329818359557,1.9404782373268668,-6.689560071526996,-7.20398588470078,-4.830092833381366,-4.255251925587228,-8.53572216027824,-7.0514888973780705
5,3.7597083827900653,3.0598685908887977,1.4494479965271547,2.079892597542407,1.424979231147312,-0.03853382550164429,0.566231740008139,1.0922984367820394,1.200259588877399,2.461645656026088,3.8372061963187476,3.8000412730054367,3.079860176027661,3.0475613918789235
6,8.961743586103008,7.570719412678613,8.617879168768452,6.60215784219478,4.130585431570646,5.312551114908842,6.64957496813422,-0.4481283827314829,7.816574482322068,8.506326270306927,8.428725711216353,7.738056735289368,11.041633144832822,9.732844039059511
7,6.482136190448339,4.809237277146736,7.3662350610886,2.0577708652353213,2.105102191730909,2.949772102618852,6.349702600945399,-0.27349418996902936,6.883869762033586,5.8374243444067675,4.817129623201639,3.9966077551873904,6.7225433130145955,6.722674028726481
8,-0.7636063869360646,-1.0740678438042603,0.7487057352754125,-3.8501098904107454,-1.2229571545570455,-0.3532192328647285,2.0708390601427897,0.8922671918460744,1.7045856712158018,0.7227679396061393,-1.1390781671217602,-1.5654968318955365,-2.37755342025794,0.16698044469843312
9,-5.953184496484115,-4.249510127425863,-4.077118306841738,-2.963027286565347,-1.9860851005143445,0.9224066540546528,-1.0480205149225972,0.7878752800842491,-1.5205216464021045,-1.3238655638309416,-3.3899872510930233,-3.475512929646854,-5.879678065095683,-2.4141014501355906
10,-5.932818685584077,-3.4995419285108285,-4.62128612410144,1.9363581668612104,-0.7694946194086266,2.363123189276181,-2.107642508968305,-0.6155307580352188,-2.3178250574270924,-2.2287054167447757,-2.6682473599415246,-2.7001633702649057,-3.780441634835638,-2.3394368869090174
11,-2.5665440629008556,-0.9839353868069705,-2.8871583594454004,3.3097671561188022,0.13416494091420447,-0.7823978964490229,-2.823956990797719,-1.2250837741582459,-3.4309455645836677,-3.9944191561160007,-1.9102789038918047,-1.4842161117156991,-1.460345542142572,-4.0144224865978435
12,1.2550167885709895,1.233015126267235,-0.5097709313193527,0.2724143293621554,0.6264077364285046,-4.406738408094675,-2.801019408154653,-0.3797117665149131,-4.123044122299345,-3.631625611861318,-0.911967429617746,0.7288516464070214,0.27387477787852516,-5.363647057677654
13,3.9062904118484343,2.009606282145823,1.9728680793899043,-2.1350868263327265,1.2830968282046995,-2.8825069498260887,-0.9336248001377376,0.26640132242731673,-1.7374159335965882,0.5518290284942234,1.307909519227989,3.393452296004258,3.1850948438030193,-1.297674062979924
14,4.299521904519142,1.1525400579760323,3.1200703758484094,-1.5470230736049917,0.864089259776339,0.976173380108259,0.9485163559850726,-0.11257614961938626,2.392799523083428,4.214962114995666,3.0669345888372215,2.9702103451182476,4.999494421209227,6.1427127304641225
15,1.9581968106957495,-0.19229259562400675,1.6410213962430293,-0.3521257737129291,-1.3633829702453342,1.0844666872514255,0.5284526819708213,-0.10575526804255082,4.015056594677028,3.035709362539014,2.1545608493048087,-1.3652561448431833,2.0792363171911035,8.40893750315018
16,-1.7339011402546847,-0.7059297077373051,-1.092241807268799,-0.502021727032565,-2.885279452586959,-1.2264092012536922,-0.46843998326257213,0.9954012065456707,2.137608698854795,-0.9913401863583546,-0.8817894559650729,-4.739374911741789,-3.692392868205961,1.797922955666008
17,-4.061247625148992,-0.5542428817714575,-2.2150950995821974,-0.8608544323481712,-1.079802057924772,0.0719294980709131,1.16380445054897,1.3501182549803838,-0.14184640580894373,-3.037470971207941,-3.414731491578385,-2.990775726997128,-6.353949204009953,-6.815000880589677
18,-3.2792871890346706,-0.4389442847945463,-0.8824362181163596,0.19442155878496614,2.259238210364617,4.532722543993294,4.035509380972684,-0.38314780236253415,-0.6609721504342578,-1.6588955274371637,-3.125074422340829,1.4920524747113784,-3.2195681563181693,-7.835647398232586
19,-0.08219426148804046,0.059789682467964025,1.1106569852242512,2.2945430059533214,3.053465299578552,5.029413221235519,3.484794327045695,-2.1631555670013913,-0.47554012976254606,1.2724576970251935,0.41571309990201943,3.6622363054808145,2.6659955239431232,-0.33051096964124177
20,2.801019778751367,1.0641040296772444,1.7589141189729924,3.4256704579687125,0.7103480867378914,-0.8589941527203546,-1.1279823701669782,-1.2432038762836906,-1.0051444990118046,3.3927881305654988,4.441998330100354,2.46194638801722,6.175872410837895,6.852211886299934
21,2.740291469431017,0.849226007341017,0.5668419605937259,1.7790825650382487,-1.5722353790595347,-6.348733594190109,-4.965082187692461,1.4783919519219684,-1.6937966264471147,2.5561966637485645,4.299444036505342,0.4140264081722388,4.256679787874616,5.574914725200273
22,0.19469275738940653,-1.2472837842700335,-1.3663230340512522,-2.0034051976336413,-1.669387401497133,-4.9209254419269755,-4.241925417442362,2.4566257523082196,-1.0929367303251842,-1.4454879365494988,-0.7484748848663985,-0.7264722971330029,-1.4003472454554824,-1.7298273771491595
23,-1.148345212457455,-2.1421357676389357,-1.9287672848785458,-4.371249713087479,-0.5300091213128698,0.8766652005856569,-0.548591680914637,0.4733016461776355,1.1194409593331747,-4.458195314793828,-4.637660748931557,-0.8774654610404482,-4.80126239272673,-5.259259275844179
24,0.6760473843629107,0.6886034933847954,0.031017982037706136,-2.6061878825526676,0.4119799312663196,3.8406475635555943,2.2690504983826223,-1.872612860162719,3.2842978670411367,-1.9615534541724924,-2.0204200400780237,-0.4215341962425894,-1.9934008311698934,-0.946280876771281
25,2.162579762371977,3.8155895589720132,2.3864211265376176,1.0847971407607686,0.9060680600027378,1.949929112762848,2.5909925414801114,-1.9413218127635319,2.6459086641614293,3.241357603285775,2.9922446237486455,-0.4951187928564031,2.704738903148217,3.9117053450438215
26,-0.8022299468829908,1.9008091762385453,1.5342614689466698,2.1180589805826613,0.797538832505802,-0.6390365390293576,1.3096207689713688,-0.20631809988847566,-1.6261695869833162,3.242068025321968,2.004246885740785,-2.1608481850406953,1.6918397915554282,1.3211163912429638
27,-5.456594779968082,-3.5487757672108136,-2.1107568311362046,0.17315506955120857,-0.2713779187961807,-0.8073115607917923,-0.13488553834191147,1.1381690098917876,-5.870245703115087,-2.8986640816335143,-4.2944073183204985,-3.5820402438286134,-4.18220927628148,-5.174793750212358
28,-4.836567918805993,-5.187090023624525,-3.434634368774232,-0.5589255305328444,-1.5410289380397018,0.05667438028333337,-0.7639034342770589,1.1013192956562148,-4.701480300846995,-6.068583460030362,-5.902615391520822,-1.2280489476715124,-5.556957851347108,-5.3334756058434065
29,1.740112087298443,-0.42958996253476966,0.00022562732370958252,1.5440601370342018,-1.389824966836999,0.06649563821215482,-0.3843208456398886,0.3651161720058149,2.105933737315308,-0.2880536614465338,1.3864462049918997,4.179793398495555,1.4334637355022763,2.350923145147548
30,6.6920980235069765,4.443492377168087,3.3906515204443335,2.696906871978804,0.4087539420702407,0.046214282366217295,0.20235454970076072,-0.17072812315802274,7.740953998849388,7.407971759265469,8.724567190222926,6.770185981460645,8.276804060892243,7.979521719855286
31,4.692419939105359,3.376116128939929,1.827423582588204,0.08860376610617378,2.0736045321544085,0.933132387347533,0.08069719361532254,-0.25581237714324495,5.935991480285658,6.751191766676423,6.737428960577,3.285990698833082,6.043439400897305,4.615733391679371
32,-0.28391456988292213,-0.8363583096665979,-1.4065557334277916,-3.005940006403379,2.066022992898109,1.167308635068988,-0.39218296381340356,-0.09744913543787614,-1.101799238541384,-0.8124492978689262,-1.355378600838294,-2.042888394359004,-1.7315239436093155,-2.2523400246194116
33,-1.934945683016095,-1.471658315476614,-0.1963684033634524,-2.117435992867797,0.7098715691167943,-0.7144535193595942,-0.1594431846148683,-0.040776553092946095,-5.567620194248014,-5.165387465704481,-5.706863756226229,-3.790780606059742,-4.966995036805164,-4.002311227229551
34,-0.9638150562362146,1.3881237709579501,3.1659530581344635,1.1848943599657065,-0.9481113183179513,-2.8810489152257976,0.3988153374765508,-0.33015633902164543,-4.077375534405879,-3.058227371516258,-4.107232338787212,-2.8220849354938355,-1.9987373085904845,-1.426938114917317
35,-2.182373200918073,1.226818413032078,0.8822755008209406,1.5035199790887874,-2.3898753385841403,-2.4093135331434996,-0.36283366451338894,-0.7493691953844791,-0.8101262330499898,-1.151948049513442,-2.312804490343564,-2.9919259523408446,-0.32299510550233346,-1.228882703710903
36,-5.1501028025566455,-3.7501391622643645,-6.324889689858362,-1.8843218858978537,-2.9346352977977292,0.33981898354817536,-2.273600961553699,-0.6150862875017911,-0.18647105251319368,-3.0747950689624886,-2.580344017748306,-3.4580806765910332,-3.2385897536840513,-3.7767390008914097
37,-4.155700025741857,-6.448724639151724,-7.952050254821243,-3.4789127061392473,-1.461421177911394,2.2749077946308462,-2.389545323892385,0.4039036312962964,-0.8142264224061155,-3.1886440025027696,-0.6828878684127432,-0.24719912141821462,-4.430015682071064,-2.6540036598766408
38,2.4714908286970885,-1.142818675111711,0.6430533860057189,0.3918414697629375,1.8045471845514238,2.1667128735853685,1.2288081113153202,1.4990338039265365,0.948877483518531,2.8909361716955195,4.9184482249078645,5.717184732356455,1.3449876938376533,3.929100632918663
39,8.660389255857607,7.16247474735242,10.12735710038213,5.755771657748695,4.359833452906797,1.7711546072591449,5.924495198797976,1.3705331233652862,4.615083948238086,9.474027824452563,8.624103080059283,8.26359548235149,8.911279769270841,8.896606277538599
40,7.925120324481993,8.675515745026432,9.448628803679318,5.746921725393955,3.6452961186579516,1.787758907583298,6.358931397572933,-0.1170046365223112,5.862062763803037,8.191206983623154,5.306306493064743,4.190675137937231,8.967555981163668,5.76962829647015
41,0.7062986713600883,1.5349882170095372,-0.21731779214890895,-0.6065571842121654,-0.1313455338583519,0.05759569799418619,0.286553921701582,-1.5104049765624294,2.0851165775439906,-0.6347081390014253,-2.6876250052599193,-2.9346372575357123,0.3408556825312668,-2.8260171864200507
42,-6.894313061195716,-6.281648269546508,-8.435389614555016,-6.772156336579058,-3.904127698901005,-3.9315717829763606,-7.860861948004514,-1.402600522372459,-4.253569450879867,-8.851242708282403,-8.602833277216341,-7.644347150562819,-8.471887108806314,-8.738617793307101
43,-8.985250931672628,-7.095688602860946,-8.109536509770825,-6.071270603486222,-4.404111586321483,-5.924666577279624,-10.076081722158756,-0.0777180538948335,-7.795130289952346,-9.793377319965986,-8.01467871251761,-7.250308208403864,-9.104184502762921,-7.145639418252715
44,-4.23901892295325,-1.8354109392054032,-1.4568534655453902,0.45628668240927356,-1.3043506979179418,-2.338290464262617,-3.1978053636093065,0.9281047611387122,-5.531816041758781,-3.73563638056505,-1.706409710117775,-2.147661643932294,-2.067544516084661,-0.17854847472991583
45,2.9885199886380587,2.5640262061046717,4.125946346158949,5.018218655911737,2.1559082379384678,3.4462051636344553,6.308894382925876,0.6987539637690184,0.25890141357662777,3.698809721073564,5.087839072454192,4.295442758229515,4.593166417125302,5.849025571432449
46,6.2024620331821705,2.068631890376659,4.018939856900133,2.6758781593508916,2.664482944347738,5.222019491228,9.060827193089297,-0.11767671060585147,4.864220434697697,6.817894115698471,6.630162994037085,6.877104866921243,4.673640054752089,5.953227951645001
47,3.59616271968761,-0.06959865753140643,0.7816120625629037,-2.1428416118049123,0.8765316272281188,2.7570180766889876,3.950560005486375,-0.36698766306618746,6.012059365346068,4.82373338981427,2.672638788704614,3.6950573734073893,0.6590294635857016,1.0364759469995564
48,0.01194175271658579,1.3186273689490535,0.08840180892427855,-1.8346608273489668,0.1475208617196067,0.7934555082343893,-1.6085694220560132,0.06335371944619149,4.321613689031743,1.5745889585624273,-1.025454227039745,-0.8931646655924993,-0.5813420066322422,-3.037365526570279
49,0.011282261854179923,5.0502262609526944,2.4438500717578533,3.268179771289657,1.2460818298889704,0.46860329975845194,-2.5527510804568525,0.34688175808647165,0.6305738403252339,-0.11572244457704572,-0.6990354282157742,-1.9727621794477723,2.083295668718888,-2.2083008355294673
50,1.5055981329146952,4.293002690878032,2.47587824300156,5.089193608406974,1.1624540567595527,-1.6119420178404098,-1.5986219256717007,0.1297223333326566,-3.879070091120375,-1.6331969597268243,0.24791744841843416,-0.6948276273904459,2.68082331049727,1.0855094590332945
51,-0.436313723727616,-3.3760805814982207,-2.3849348572052076,-0.46716047010075057,-1.8078214249459736,-5.508140232309746,-2.470083469721334,-0.11059908581843746,-6.15605847374808,-4.431907591312346,-2.272458217697204,-1.2974950271995374,-2.0594762859399625,1.6543824467460124
52,-5.415351141295407,-10.549563588639195,-7.132849657378511,-7.308966309431322,-4.638233542607826,-5.882757614716953,-3.60634516567731,-0.14577851725714375,-3.83932159403331,-5.860613815399141,-5.351127177183843,-3.6757306825347085,-6.766901859486439,-1.4626361358704765
53,-7.359905256241838,-8.229249387598745,-5.803987546994297,-7.17854605956321,-3.347633623283516,-0.1317291252906025,-1.8617615612127354,-0.29702954024984457,0.9552229171733179,-2.4426144410106163,-3.2719772054794456,-3.4711987061352416,-4.7757367712103305,-4.062426630399868
54,-2.354619165518764,2.443166659888224,0.7590093810273087,-0.08988961709601526,1.4628061828586014,6.399158187051484,1.7756128863580043,-0.44518266128433326,3.7046938872229385,4.1428571765694535,3.1338362099750925,1.044506242598027,2.3490593816551777,-2.2992814173326495
55,5.972578483786375,10.768847375806923,6.56047165566319,6.496111151324362,5.0524268862483055,6.74023232452436,3.926205672924509,-0.007760830959251317,3.04215177978802,7.6589588919089655,6.9356443158414445,5.811133795456175,6.913949820986158,2.673387513565971
56,9.947461662867955,8.881895246666364,7.2720457609703955,6.84388270295217,4.064308843280205,1.159288359594852,3.713860122600654,0.7244069714072049,1.375529607773997,4.33408221980822,4.2239229261747635,5.582347751312056,4.746606341431588,5.861191194458013
57,5.809750077463909,0.20924130613467867,3.218525237898735,2.189877481027955,0.07034511077241284,-3.651327126055265,2.5277540213059972,0.5856312322066045,0.5149429600255278,-2.5205255995514806,-1.6020525141112432,0.23190827441234485,-0.9848515694526178,3.6837567663145956
58,-2.4765810757947193,-5.797575284328249,-2.283786376259584,-2.384776318440381,-2.6351649268033173,-3.239029946415845,0.6518865905813092,-0.5249371525405967,-0.18567504967031084,-6.006262961821604,-4.7759815758665605,-4.646211323057749,-4.565142864867531,-1.9953466403700986
59,-7.36876038962313,-4.875315600382341,-5.561958372157867,-3.623949062685989,-2.010519038399581,-0.08380133020094066,-2.428703825415792,-1.0453135113789396,-1.3858235802806589,-3.203114984291195,-3.2670603297200986,-3.969800026651147,-3.388108565369553,-5.487022369613374
60,-5.5514488642180035,-1.2589032413798928,-4.913804434299373,-2.2363736127891256,-0.2617667039757825,0.8721860646408333,-5.174463814440272,-0.007642180123500276,-2.398131081748941,1.889199412292079,0.39234565460510035,0.5732040618211086,0.5845772716794495,-3.531489761970886
61,-0.8951683970274733,-0.5066367076446817,-1.7923104258055857,-0.9618677955530371,-0.49046902699386546,-1.1975876389189757,-4.746620247518903,1.283685819077272,-2.646114627877211,3.3156423629307303,2.3183041675937224,2.576824972177287,2.9604285227611857,0.9812683915404685
62,1.0986237471377915,-2.083338219652087,0.9484268144570581,-1.2267061655641438,-2.1562860217413253,-2.6852487750688754,-0.8917609843449463,1.0574483213495252,-2.0218330204039736,0.18465346859037984,0.9988546697015515,-0.3519126835861992,1.142438127756681,2.9722623195578755
63,0.46659876037007986,-1.0495318190110123,2.2924181218942263,-1.4294815432606869,-1.6855293758210022,-0.6943244638926211,3.2577454197130615,-0.33382810163357673,0.32339296829658837,-2.551974902172521,-1.2297137742882343,-3.1896388555039725,-2.4224935429334553,1.6502235559344225
64,1.623979872273426,4.018015705244789,3.3204339758620462,1.0206415762258452,2.1036488613291553,3.2848090193170116,4.737370592402309,-1.1070661659242862,4.598466177710256,-0.6538263988841964,-0.8346877978972695,-0.936016942559097,-2.5933793235920035,0.39073110616511886
65,5.200278842263138,7.830721555868398,4.062042156614849,5.3580540606813285,5.423453049414719,5.055269412108579,3.434025263739161,-0.7606798545288777,7.342598864544366,3.4645844250355164,2.1178282788593297,3.847350824370201,1.6996563314878317,0.7375044406434753
66,5.420214585621365,4.648892906838631,2.2745744105245214,6.489460453945961,3.9477261615536903,2.3577033734616153,0.8736844326272462,-0.3747079155455179,3.6324408125457244,3.422420800500087,3.151278998595675,4.592850207645293,4.996611243908225,0.16871317911909123
67,-1.3592899537202032,-3.851684706246021,-2.842577455594299,0.8044731902854028,-1.547496498518193,-2.583187166808735,-1.837672538586835,-0.3483318046624345,-5.441728115800686,-2.326409584765298,-0.8128930456911178,-0.12655825716265925,1.938654904031006,-2.8504120016501298
68,-8.802825400047896,-9.388385108012667,-7.130946924484782,-7.344137322121451,-5.747367268224686,-5.216444588859845,-3.71278458582542,0.24780365629724535,-10.875153967904318,-7.076566709779672,-5.829318410969147,-4.7732878364517966,-4.763127996011369,-4.703369642150354
69,-7.002150793162814,-6.097411394813896,-4.995163153080629,-8.735554874498705,-4.6123107837892,-3.2399348823576344,-3.1718990536779743,1.5491247438750937,-5.504260852674707,-3.7462195575504436,-4.5367276960494145,-3.836645747219645,-6.460036362011319,-0.8955470104430497
70,3.325349306780195,2.680840787846658,2.69216973554792,-0.840401617393035,0.46129825988372736,1.1449121724684925,0.00835929753747168,1.9181905318002035,5.675506409293663,5.184866929062994,3.5430175789750717,1.695238595375387,0.18657148899100612,6.222809364843784
71,9.466620653377166,7.798435755272027,7.599900312451037,7.327685352876924,4.3027477450023515,3.5406756631134257,2.782004053493943,0.28723249489981356,9.936235566351812,9.425968859553828,9.157341723242016,5.278686817037291,7.4655974486551475,8.06897420850778
72,3.0586197683301326,4.289330305252505,3.8459111498428586,6.0026330071390674,3.379832979752582,1.8986371721149147,1.8848407761810961,-1.7929524083071011,2.6128000069200144,3.4451740091000453,4.392980036639318,2.0139762434965442,5.797949089167564,0.46870099559288825
73,-7.6254286025750835,-3.2627373787412455,-3.7303948651847216,-2.256666640419838,-0.656406316326921,-1.3060898843625504,-1.1741594565267148,-2.0291897711207985,-6.4070703959726245,-6.279011040900428,-6.07659400412231,-4.9757101270179165,-3.220374820267987,-9.13642195729798
74,-8.174604093842978,-6.145812707771531,-5.683668088581729,-6.016301961901226,-3.0840678530360863,-1.896912010934578,-1.638336831286649,-0.5782171499385224,-5.459146577893347,-9.099704898455142,-10.003648800427078,-6.942979169083888,-8.264290663495313,-9.375347637008762
75,2.385635668991116,-1.3763003637353286,-0.6037552813516657,-0.7110728230647477,-1.5258669413731971,0.8769412880151974,1.321794431768471,0.44610769357518987,3.4649881806649265,-2.729770151419339,-2.9978501574935814,-0.05813124495978479,-3.1417058319563567,0.8191442719523901
76,10.588566957459394,5.359457824361272,4.059435187072282,5.719679689349551,1.6775379329156201,3.1522209619252157,2.9651602379971207,0.3598414720970828,7.768093753923585,5.263297088982082,6.455045977102983,8.517011375969668,5.303092269938933,10.19552106925393
77,6.7197631256354615,6.359495016727047,3.1917578341838393,4.585631518664011,2.684824586683451,1.3598181306957156,0.2335271674822277,0.6150694524288247,1.3526880309555762,6.9266852233589,8.140702498908135,8.509847194533686,6.6737241187522,8.506218287151544
78,-3.922167082700974,0.10273784431964579,-0.4826321101015038,-2.2585122748846507,0.575387910522664,-2.865772377524847,-3.3347680721882704,1.688906834787951,-7.776104084288609,1.7166398221904506,1.5961738921888118,-0.7686063955746645,0.10557652965925549,-1.9071219087083475
79,-9.866043686951766,-7.287475625995443,-2.776480998009192,-6.473596401049783,-2.1519176239882056,-4.5659641997794465,-2.8266207564526074,1.6634560064090185,-8.542463988674124,-4.421529241224765,-5.307764888470404,-9.524455893894073,-5.917350448728549,-9.807688573897378
80,-6.86877981132979,-7.9989121499392954,-3.183480246244669,-4.237477359183317,-2.67686863381334,-1.7067731132260142,1.0084197080221644,-0.6136912759011869,-0.3238137626702219,-5.238298444653455,-5.897042309206562,-8.967761686217473,-4.627031744086504,-7.618670908155673
81,0.7297224446040191,-0.45619061781849274,-1.8868697309675198,1.0378447317038022,-0.6456687115511286,2.5890002922146453,3.304508329108337,-2.9186787991699026,7.646868609503681,0.018197404536440108,-0.7114238177529525,-0.31615553349488756,1.790928531939341,1.7984875133631637
82,6.7958890746275635,8.085784385275307,1.7725245855416876,4.428293931528166,1.7968747169160055,4.149517081125325,1.7295056483559141,-2.3857125218345536,7.477800409150563,5.375375052925396,4.318010811057305,7.72110815388457,5.847720537772743,9.09823497918316
83,7.606314869822224,8.412642721437399,5.303041311029482,4.109692972392166,2.3065927702943796,2.159367187785465,-1.4483727872449312,0.3736260255149655,0.35571981289879473,4.077871707273015,4.240513765117485,7.955496642679462,3.3664644777369768,7.480822754296627
84,2.9054196554861287,0.11923124426209857,3.89870816126371,1.4127850826187962,0.7562948141731773,-0.9684187666442217,-2.8660824731298415,2.2153443373193573,-5.6591834026682015,-2.784978391531126,0.01951508265862858,1.2816048500548551,-2.3987350548023936,-1.0162716552424285
85,-3.332666688126015,-6.951748459561193,-1.715139032699552,-1.0336352873561188,-0.8129503468967246,-2.5368321652252876,-1.3848525529075573,1.7817152412267085,-4.160610706741141,-6.307875502179226,-2.9416093566942196,-4.543345792736395,-4.820255113989321,-7.436535649715248
86,-5.50606075630864,-4.834592043164624,-4.567472146159517,-1.6850214953231373,-0.9199473653337189,-1.776927490415467,1.385399879192758,0.4975192699695176,2.4788913216457242,-1.2410116641374294,-1.6068415894350634,-3.6668214356065505,-1.6063038448066707,-5.471602149083877
87,-2.679604405278454,1.9600240893958023,-1.9082790929633298,-1.6080595083517508,-0.48734033484375316,-0.06991532289748,2.5901759243404783,-0.34576146644067013,5.12539968817134,5.784275354286508,0.8487914510268965,0.5309985287225131,2.523265719237136,1.1556813987137884
88,0.16828949868207516,3.2286218582848174,0.46220144218000014,-2.430248919509298,-0.8829650869591699,0.7090794032415335,1.023903079704726,-0.9809897651962078,-0.7415096955777255,4.665156246222905,-0.0035703123701807254,0.39744122134388354,2.050345034839171,3.6765472869973825
89,-0.36419074167529203,-1.7224132200446733,-1.376274644292942,-2.883964123950705,-1.1782586866482616,0.33207516523660024,-1.1500868292057975,-1.4760299363251854,-7.559683155967563,-3.4703089528628106,-2.659185511484659,-3.88320308698714,-1.6568886185738954,0.19369391118107704
90,-1.060771128107401,-3.661731778750779,-2.291255575109389,-0.3344029857957813,0.3727030777846728,0.13087757212660617,-1.1668388181317964,-1.0114857253065443,-4.84191611836187,-7.132681696011846,-1.6387515520709135,-3.8224053581010318,-2.307205630053474,-2.425569748244862
91,1.760524926325612,1.293749119622021,2.276971366746896,3.9593914850485494,2.6075301520130965,0.6317267319668323,0.18829230047000162,0.4298990750000156,5.167778801682445,-0.9487426160183371,3.314273101361508,3.432172685582415,1.5179352681762515,0.29524119369071167
92,5.122092845293635,5.430127335703509,6.762340569230582,5.212737570226679,2.3345379727192532,0.8107217768204158,0.032018335614801656,1.4403439606281816,9.092529829132825,6.4618120415198295,5.491427034188682,8.854395998081927,3.746998176329877,3.859167467987226
93,3.95486349365397,2.4689862590895872,4.01500741586381,2.0442487354244765,-0.5765328343022158,0.24054642517723704,-1.2864534280189412,1.079715221091631,1.6142053588504772,5.288283104395355,1.245917349926637,4.793271431754069,0.6344009480834423,3.000799958188487
94,-0.41302491611292097,-2.24839039059082,-2.4679351286264457,-1.3786433851683912,-2.4112685075467013,-0.14356215965361618,-0.493576552595017,0.10200117109029141,-6.314217852837183,-1.5797779879999043,-3.7304626041135704,-3.170127310099252,-2.679695291815486,-0.006142148611877965
95,-2.875908920887493,-1.689342722875414,-4.437404131520413,-2.1050161396114633,-1.2633942843764752,-0.32569061015030587,2.253830637217825,-0.35951804885590993,-4.021803667185256,-4.434290516197877,-3.040951218322665,-5.449362817054841,-0.8543414848452544,-0.9917815416806105
96,-3.1259435900548027,0.6201798165272018,-2.3069628095201273,-2.407681364291565,0.14159210939871772,-1.5077313749796573,2.3730757004735428,-0.27161705446448725,3.1118473719539694,-1.5880653796852608,0.3624808278521745,-2.859444197930059,1.9666481901857433,-1.880629329805745
97,-4.202798281612169,-2.0378862084671283,-2.2156111902972007,-3.96918627310341,-0.4781831255097419,-2.7106759522627413,-1.4816313964438346,-0.27981731762871864,3.5022040310908165,0.5583428604569287,-0.20834389730274464,-2.1920727999085265,-0.6833848489172657,-5.398371551126618
98,-4.519033329280776,-5.942519006197773,-3.3817471627668954,-3.3674250556798238,-0.8510122650251526,-0.7051947900928797,-3.938238709597408,-0.5817973664368954,-2.1687148332533064,-0.3500886497090725,-3.190716443258466,-2.875656663037935,-5.098564011807838,-6.751119540973684
99,0.057573303928958666,-2.4282443578748705,0.06848765066358066,1.7516356916312465,1.3664125526818731,4.005836472298003,-1.0259518296962495,-0.7437100450466687,-3.9915888972072953,-0.22728937832038232,-1.4039922469955415,0.6601967850793935,-2.5682474660576924,-0.04786632899776894
100,6.910268380128021,6.258886978754305,6.491480689211182,6.557464242134385,3.4287947313741673,5.2701294693171254,3.0213443595909615,-0.30984528133455674,-0.0898403813719709,2.017278113771301,4.841322293498209,6.546437815312191,5.160386931788998,9.761452515749893
101,8.321897809038706,8.930177846557791,7.523542463113981,5.220893653662406,1.5430226903299682,-0.1473712150265835,2.489045760569141,0.6087946322027481,1.9803588459180712,2.2168574084783326,7.003616759003654,6.950853563240959,7.255461940529216,11.240196056406763
102,2.9012192048280667,2.5734104080820432,1.5460248177583849,-0.0982968527638713,-2.3408302171703603,-5.781539742518545,-0.44495905817841075,1.2808792980230275,-0.07408277942641188,-0.4979955052735154,1.5660548230698086,1.0056124914776774,0.8518091892248667,2.251666578925694
103,-2.737332723399977,-4.00564081154878,-3.9604631859480937,-2.8373966896530485,-3.0360392543236925,-3.6127725873211904,-0.023760766358070833,1.0359661677900285,0.0011579889791734077,-1.6360423218650721,-4.81454620102145,-3.964124608138332,-4.80716365873355,-7.280839991753756
104,-4.406174553202388,-4.523802869444625,-4.384763977133811,-2.0233883362556617,-0.20801142366109598,3.310196365340289,2.261777827048276,0.051081425200277135,3.7808902846727035,0.00043389329056238435,-5.653650442453767,-4.084233114875308,-3.444079965082901,-8.878539619946778
105,-4.542073503243452,-2.635566846788994,-3.040779724808369,-1.9352131613869827,1.31927161141299,4.325080636627473,-0.29868595731725867,-0.8316814807698245,3.6901787097284093,-0.06887143589255912,-2.539829153821683,-2.752667308052635,-0.1092933823717986,-4.204249730825173
106,-4.765939880589186,-2.6241496604039862,-2.7869376566933384,-3.3726203060923727,-0.5441578672190892,-2.5697879009581324,-6.910056618903977,-1.0648394275860806,-3.3386890428027116,-2.7986400233819424,0.2007411885990325,-2.3491631715699883,-0.48310233502087424,0.7693682440800683
107,-2.2280380535531616,-2.024220960397245,-1.187568005959001,-2.3472920822589076,-1.8944358350570034,-6.581764322505265,-7.555247796607432,-0.7589629697838397,-7.9879353507873265,-2.3033701776659834,2.112467610046747,-0.5340569723091123,-1.4981443509707972,3.4218503099465716
108,3.683507169566864,2.060988579072403,3.0821053630030444,2.206678768493207,0.7100752674169107,-0.07414905534273436,2.312007558920694,-0.16633859236852394,-2.059170201608223,3.7255226718246086,4.061510008986829,3.3774975901610076,1.4098222261822746,4.051395468006216
109,7.56892251327475,6.056395075592377,5.956895092940679,5.588749684647279,4.2839784753215655,8.917559215758132,12.451288376699164,0.5424064261006731,7.445648495011485,7.720510249049162,4.180765852730876,5.281432221758243,5.078345786139771,2.910176022670062
110,5.061851839289227,4.825143356794286,3.908156169974184,4.032271067857704,3.309117949174732,7.436622243944991,9.89234406994361,0.9398691016394708,7.267904252104271,2.668654843521351,0.7860583007129094,2.4210054798435334,3.629332344813204,0.6041318435054588
111,-0.7687961981236925,-0.2825344116612383,-0.6544262852039445,-0.20493875109923185,-2.0448018973943527,-3.575089613514938,-3.333839824821948,0.5837690578883216,-2.8099269710918904,-6.537168078808197,-3.669922991988891,-2.0904742755167818,-1.911394968300647,-1.288273665320671
112,-3.9566741313295384,-3.483354112961572,-3.3589001758351924,-2.7174570350918033,-5.544819167659688,-10.335399433304547,-12.183619656633333,-0.16617926228205265,-9.535834155318788,-9.230047833067363,-5.258473282905867,-3.682282937539886,-5.426707035933329,-1.980030009536521
113,-3.302548110818283,-2.7960055162401316,-3.498232558507883,-2.6219195121032297,-3.1738741305888585,-5.374974319397309,-7.843238064697719,-0.38807171125189627,-4.8186832673614655,-3.2388278442112557,-3.272287939310317,-1.9866223240234755,-4.237976607318959,-2.1584753244626405
114,-1.6790347791691085,-1.320642781049802,-2.4846610271248757,-1.7620998567460513,1.8162106729401557,3.4865736316386844,2.4662142068527686,0.029249844766214617,4.362641183819512,3.890014186794942,0.3243592896047832,0.30057968115945016,-0.5196536632531389,-1.962854703792819
115,-0.3485105647008471,-0.9324557337163986,-0.1810403084182313,-0.7392975094161689,3.9327354702758495,5.83426934180208,6.958623488417066,0.14676503736197216,7.43598698879643,6.267626956382935,3.894994636742494,1.611214527447842,3.2945256433107355,-0.2747063395950474
116,1.4768667307860794,0.14254164637908168,3.278539117948704,1.0055085983369043,2.4026626299891567,2.3103076739950525,3.823498125920071,-0.45129821449759144,3.9834340586592356,5.257343000164822,5.909377018208509,2.0374778258770196,5.6180353142554935,2.737247808676322
117,2.65098394378742,2.342811939018158,4.530750104992395,2.3022579151463844,0.2103000834337706,0.16813807453752722,-0.2652156751605565,-0.8384726415582653,0.5618721943168252,3.3984085981496808,4.061004931480072,1.2975309123905967,4.288470986024225,4.151198015251693
118,0.5405092399171649,2.2255576309703007,0.4771241686991755,0.9149792372395386,-1.346251884116197,0.8221515711541922,-1.4211613300766648,-0.20937235736421975,-0.9653091442454308,-0.49122655725685477,-1.9156125581217527,-1.2372629939678608,-1.2438349678027938,1.3087068600358582
119,-3.717849197852254,-1.8615995760323611,-5.813639716323558,-2.3844808113904836,-3.031725263053242,-0.5323433427834913,-1.7723664231715768,0.7444864997908472,-4.073916764757745,-6.806025351981244,-7.572677462122074,-4.366088077009981,-7.028476551372351,-4.069684704853499
120,-4.372506377892929,-4.823553661741284,-6.6884773244294315,-3.180651346532298,-3.6052822159706204,-4.5707016858800955,-2.6595630203363205,0.8554287103125832,-7.926990619661435,-10.16261985964882,-7.081676903181124,-4.443973640351287,-7.285666809583631,-6.268773629802503
121,1.8079292499573356,-0.4790294980620637,1.099172613660057,1.1605324786365878,-0.23432670496151692,-5.027267397500634,-1.302189009781737,0.1962806914004261,-5.730540110693132,-4.5078556475826534,0.16382529992820824,1.1553899815045072,-0.5191774526579154,-1.3555595614206275
122,9.364825042989727,8.205819673615373,10.692210295555117,6.687304514181685,5.651046052824344,1.2061219992043661,3.264747175661728,-0.24283516598873467,3.967012419641033,6.994452473301673,7.751375365696205,8.895944302737291,7.810918111945772,6.980469298710076
123,8.666811937774284,9.923955655050493,10.816967340818184,6.197054714976786,7.192815314588095,7.144967997456,5.802743097378325,-0.14976258430312125,11.196446675533837,12.409437548702757,8.119475627845127,9.773564321961763,9.325777604281457,9.255884538799114
124,-2.4054274956384667,-0.8356707940828934,-1.4467914418342271,-1.908505770948053,0.42849777244786735,4.440261952229343,1.3288335468003625,-0.10846181536554372,6.429041862675986,4.742727910805539,0.47137502547890126,-0.5940415703087618,1.1918591612110985,0.8005251936003247
125,-13.803475608528153,-14.136236856626335,-14.913096820248857,-10.198304643407754,-8.520580873733246,-3.931460280159648,-6.212718199799484,-0.3765980133323086,-5.072361821644126,-7.803346801967884,-7.683251857735289,-13.328959108180596,-8.986866037631868,-10.433528154111473
126,-13.142308837219872,-14.483516401825446,-14.802796354393443,-9.639325111788542,-9.215360396078028,-6.672171230314743,-7.421867059215502,-0.44900833476275853,-8.719194507455885,-10.40627194370174,-7.891608552557841,-13.835349130082875,-9.90465620605502,-11.309689308399385
127,0.17793753159361045,0.17009713774432111,0.1872724934594014,0.12524084494797055,0.0696583533713954,-0.0094525446541905,-0.005247080444048376,-0.02302808154619017,-0.2033601030229399,-0.010482098748081745,0.19777975717646454,0.17167236808044523,0.10657966232571131,0.32770998252421457
