,AF3,F7,F3,FC5,T7,P7,O1,O2,P8,T8,FC6,F4,F8,AF4
0,0.11927319396131734,0.11851711349533961,0.05183644805473311,0.04610710522637963,0.06273531050275769,-0.010601823905110642,0.03441335631270891,0.01587122705261355,0.023170452867676553,0.07226767898840097,0.03577589944787744,0.05199488003749046,0.06986788571513726,0.09953484264544192
1,-0.2975163589578431,0.8503370806574079,1.1886620163307962,2.281446274416526,-2.792959160844492,1.7313178343368523,5.133482196005632,0.47013163643006534,1.9044107172354987,-4.150018699999917,6.549447568740144,1.812997579024483,2.2161468043110037,-0.0809439389129663
2,-0.7003077773961197,1.1504089922207414,0.8783358104921467,1.0517575846667615,-2.5398581585032085,1.9218184712693902,3.1835860905062168,0.4028816529856711,1.201690367053063,-5.169022409103562,5.011350649391404,1.8313623000801782,0.49320421052800434,0.8062297343933328
3,-0.5923840958817321,1.2075728230725757,-0.37065371453263507,-1.8987119858729677,0.4168843165961982,0.9056050934602353,-2.7686917100305672,0.22712060549444918,-0.30518115222123016,-1.7066265262221432,-1.1298195088183194,0.5355422482357659,-2.714309356238643,2.028921121463718
4,0.20258375862617842,0.8534059936395099,-1.0026018332109516,-2.312494336214436,2.5840023890685986,0.10629155726599708,-4.316290873279413,0.38633382907712926,0.19174817294077898,3.444817453663514,-2.9480001982626267,-0.5387973612845427,-2.5094549849763834,1.8662452472662778
5,0.8052437216382274,-0.6488914876243035,-0.5586879709688941,0.2846958680228726,1.4886869332411747,-0.21140632824173325,-0.021944303910134154,0.2370582513075973,1.3687117285961288,5.085306562734284,0.11817415318619406,-1.0403648325403518,0.7460765318038235,-0.31105832821856777
6,0.20336537609119276,-2.762718606639014,0.03578778326617912,2.115398988928914,-1.3752020736244595,-0.9849804405151994,3.1335806388419147,-0.8946212267888909,-0.1133753182817606,1.3758607054088197,0.49531947617527405,-1.6328972102794026,2.037551853712299,-3.2949585677016895
7,-1.0535034476705039,-3.0163198901194614,0.10472946661430718,0.811991317246315,-2.449753288134584,-2.0796030933388434,0.885433997042056,-1.906967294177625,-3.5483555404729152,-3.6033542703234036,-3.8933641435689963,-1.9984064100109862,-0.2041008112763649,-4.659053826658973
8,-1.0547569325183999,0.013030691302833405,0.13415329090091735,-1.3570207806695551,-0.5253803456084839,-1.803388530313006,-2.2195057393288127,-0.933176230103894,-4.304208705430283,-4.686681623088724,-5.2626633486735175,-0.761604826011798,-1.57226368931012,-2.2596386631549157
9,0.9648536324792515,3.8557435895252836,0.766028756386544,-1.0273240782372852,2.012276911579729,0.42656834613145916,-0.7929146449163589,1.544693926719549,-0.25876822419977086,-1.3033265644079468,1.320476145297151,2.133118913524024,1.072498351660454,3.319506023653838
10,2.9355077137849315,4.298427464840002,1.4836345103336386,1.3965391062454362,2.4475433028347418,2.571609667439915,2.789095911381461,2.5992927789886586,5.032731606883096,3.151061789334945,8.660705283870225,4.314736502372196,4.168674860621007,7.6233397928463145
11,1.902269279745175,0.4538908033967906,0.9320251209501832,2.304734165919343,0.7578838634256374,2.4280387370592043,2.613824141683568,0.9032957514216637,6.516660188805103,5.466349938218188,7.14598071311447,3.286677184267925,2.598463153245788,5.7269488500764885
12,-2.014089579912662,-3.8004092955031794,-1.2145068131202554,-0.05494638636158109,-1.237630330835563,0.4499936024930492,-1.3722008915754977,-1.133453563118419,2.9614537825804708,4.229876276685467,-1.4442887382304195,-0.6104326245586008,-2.5190948454999122,-1.8953904213830792
13,-4.716446351937176,-4.053415872502586,-3.0734287670219027,-2.9110585980131236,-2.199573531724378,-1.1608179655839699,-3.719086743110477,-0.940600965990878,-2.5849677752812683,-0.3980600778216198,-7.028723107748606,-4.228014002563789,-5.270116080299918,-8.388801501561213
14,-2.648265521784528,-0.345387822825146,-2.2421304760969316,-2.5235331384107917,-1.7510597156424716,-1.3682453964412902,-1.9094335801652325,0.33198922092767963,-6.127840129709899,-5.876577122896255,-5.263837597432924,-4.632892838465242,-3.1655388698809714,-7.414199507428229
15,2.215859911945529,2.8787920546072834,0.922166685501209,0.6216233960568368,-0.18075758260543998,-1.0243564609633304,0.7532870369407458,-0.16616533341135162,-5.880912954549564,-7.929480275368445,-1.1903481263236166,-1.9806763366129727,0.20868185080309995,-0.44840194066694417
16,4.198259674838072,2.028404346772915,3.002456943333356,2.3885374695496853,1.1983308858331096,-1.05451582431751,1.0620973850851128,-2.2669003729195385,-2.9313357582072967,-4.512696338317745,0.3793709107930169,0.8812958956776475,1.347622540289234,5.082868788217711
17,1.3315355970365643,-1.1987232508224357,1.7610451333133363,0.905479877324408,1.0095179697318013,-1.044051575786446,0.30928294484106883,-2.712447210726804,0.7815434684082767,1.94904129783324,1.0283700157856268,2.0077680626344563,1.6543094735541732,4.904410846602152
18,-1.8292060459348527,-1.9836431883544978,-0.5554352018052353,-0.8357501525872537,0.16199201479776332,0.1395943394134185,1.0820008990021865,0.2720922512039783,4.620902240070313,7.461874706932364,3.5428933022115383,2.6383842388490435,3.583537773964087,2.0645417169207336
19,-0.701381108502775,1.1502098519729214,-0.30029346729099415,0.19422336345454988,1.0182955524551895,2.5700102424803766,2.7654172868780122,4.32405662725731,8.11330457119098,9.447009377616974,5.916188392804441,4.272531444369006,5.013893288767998,0.9787999096335976
20,2.5881129129161637,4.101041808926065,1.8723324841112632,2.1709521132980467,2.9323619838672483,4.2041846953455,2.5677026844746913,5.3733158507266685,8.284459385344674,6.270872536421485,3.975643405058745,4.5576472019144125,1.860932972954659,0.9810824969944691
21,2.216559800817155,2.401366981768691,1.409759678765243,1.151880337686364,1.7877833702412003,2.358961667203495,-0.4508421134325403,1.8238056294425575,1.6921900309567486,-2.082036864259536,-2.3026699529579484,-0.19956787068508905,-4.6385057846056865,-1.152028211496885
22,-2.7746713223430133,-2.9965149289837774,-3.2067751335474797,-2.672636085064157,-3.4881861389346227,-2.7056257439710114,-4.138022178066964,-3.7374973064169557,-9.153421705165218,-10.846332130620851,-7.853685442627854,-7.826068962921949,-8.050414346511115,-4.85660895205877
23,-6.574573518354008,-6.669380444914895,-6.831971911187817,-4.7134588072615164,-7.257807642047895,-6.469322656953718,-5.4322020078685584,-6.502283616742148,-14.847360973579393,-12.30640090882727,-7.649782340978354,-10.134982244760726,-5.006383728068346,-5.993788801861895
24,-3.9798333065019227,-4.694059389551408,-3.645195993188357,-2.0701136277185115,-3.9938613215709045,-4.52424619636645,-2.946567875013704,-3.7642162495456266,-8.484110476533944,-4.211925884170108,-1.729218989911731,-2.9983602125870665,0.8452476555060394,-2.584182466267367
25,2.8801873708178967,1.4700459302791211,4.495090329948467,2.739439142901338,3.5293327419779454,1.7308210505560733,1.91924048768874,1.937736107014914,5.21794847308205,6.470865399949317,5.014767384071762,6.900352247847865,4.611844739601775,2.919189574120556
26,7.029213893124855,6.6399428640175255,9.08143900063568,5.016910964424267,7.36673755386158,6.027670295783402,5.7305753337579395,4.940658418343722,13.875790046124846,10.978340313148028,7.6558525877662085,9.591352909335688,5.664440717150961,6.716470741313832
27,4.833694477838719,6.6492600373322945,5.06564253245301,3.0736417535777325,4.548192118311699,4.448700982320603,5.502018704868046,2.706413391673214,10.565860983714924,7.474661615751961,5.210680750113779,3.9034409060233815,5.074722178836996,6.501190032866841
28,-0.35646126000408657,1.8472142845968467,-2.8962065104597703,-0.775259569599916,-0.3489273844378574,-0.38445855705345217,1.3689825400742128,-1.2854658689673089,0.15192550138045394,0.5159539672703736,0.08476284583052124,-2.521723231988693,1.9294301059080128,2.1104315880467728
29,-3.053148146128439,-3.3761792810292484,-6.348967329963819,-3.1339667412331362,-2.518178713241745,-3.2680283907070047,-3.225423280038533,-2.1731923082541806,-7.503283695013211,-4.934774370989083,-4.517366802503454,-3.8888052671878333,-3.7689546804212415,-3.8268632127807787
30,-2.2248194966228585,-4.872649127451351,-3.29161796614153,-2.576784813588563,-2.4087010374913707,-2.5163903581415927,-4.612038217753454,0.25628145684534304,-7.54264225541375,-6.438169312554209,-5.90296590822899,-1.9010756749407451,-7.6691815220911215,-6.706518913673297
31,-1.3009255542221811,-2.913739949905451,0.5635741122159392,-0.5475182879110049,-2.703618145353667,-0.499788710904433,-2.360365735024244,2.1260998366032258,-2.583835180821725,-3.92413872743834,-3.1212393975137265,-0.8276934955415371,-5.449571156821996,-4.330208768036312
32,-2.2889279524266293,-1.0875504827149303,0.442997649941974,0.43164356640612483,-3.327934095130399,0.446095375784268,0.6265021793056181,1.0011505522914415,1.939651706564032,0.3059547999554568,1.3602726276400008,-1.5069724271753095,0.7583221885903514,0.19833185674075476
33,-2.5789074715004716,-0.756954670593306,-1.2261665650915137,-0.11600078539593942,-1.9228650739113813,0.45719020988186015,1.5143163563742,-1.4878904822176384,3.035786011354827,2.827216119819976,3.3512865938085805,-1.6060433331835848,4.689969937166389,2.4713360476890247
34,0.7800724757501117,0.6762662518224108,0.5808697061916236,-0.041355008748071416,2.1356383753389903,0.6691252710966378,0.5070251727904147,-2.487750921129901,1.7380565413664653,2.345395579737283,1.9754721521476615,0.666849464043139,3.9804185926392948,2.3417523251599435
35,5.456801935926105,4.200398044876199,4.971833129789864,1.8430765911392706,6.095604924675783,1.0855339831871809,-0.03659926248520088,-1.4320634135096135,0.5824692627173164,0.7027149253684093,0.596779488956168,4.059653675909991,1.8206572897106492,2.475422019975652
36,5.724349718690892,5.536344591115418,5.431625572581957,3.0953731613333897,6.1147752350542905,0.7224028671159848,0.9650492367710466,0.027324774530981664,0.07487144667671733,-0.13260300365342115,1.0942694464922191,4.812217456773066,0.8094004232597237,2.7920501675402294
37,0.12391361720603218,1.1784037276877724,-0.7716643268624598,0.9223038130509298,0.9975872237951607,-0.7262772295680247,1.8678696341070042,0.5339840554400981,-1.198324206965546,-0.3048223842498546,0.6410837717391448,0.6509606104906829,-0.5330917106109225,0.47335431976394204
38,-5.79714435573239,-4.738009347632319,-7.4318338270599416,-2.936587805803729,-5.678202032300996,-2.016284773472795,0.7624151856843226,0.5252453070313329,-2.897760006274707,-0.4909215952947077,-2.778030396109514,-5.190452333266958,-3.5820038537092764,-4.286209423403873
39,-5.855364548669239,-5.126126454012745,-6.681078637543553,-3.8059821002984235,-7.742928069603629,-1.330862007291946,-1.5851046295702813,1.282389581032393,-1.9005336852755592,-0.17016968739475588,-5.07470014695207,-6.322135860648168,-5.303600725011835,-6.362718505354809
40,-0.33653609938982076,-0.12381657974022406,0.7729235318260093,-0.5606009316755571,-2.6206448829520985,1.5231251660854352,-2.5333945658135937,2.794087841103426,3.014447140237784,1.0492332891503866,-1.2904532711049863,-0.9598095175295721,-1.641239232091159,-1.8020549884244264
41,4.886459245437772,3.2306131126813797,6.513958312149017,2.6880134365885353,4.748623971031339,3.7968134886696063,-1.0884440145087564,2.9649047268741677,7.1379906766209675,1.7638426412379886,5.625610925303913,5.2620966432485075,5.433664747808133,5.866079887910547
42,5.045108180589616,1.3310662484461044,4.9795529474188065,2.2904907599319246,6.5691566966661314,1.9782473159533218,0.8619425664158312,-0.09610779571437542,3.9917496903871177,0.21822839570509103,7.113307266782233,6.076641537146098,8.071465488234972,8.334213295969757
43,0.7299584343597229,-1.7595959090065032,-0.6028497300331918,-0.3933020218843101,1.283893792199801,-3.381934962343364,1.3090376360117693,-4.67742204320821,-5.636390803730127,-2.8173670198220786,0.5075850467550241,1.674820743895932,1.915311094530664,2.152969869477139
44,-3.7363456653497837,-1.5247681282473302,-3.60876943895107,-1.7286387040361386,-4.583829111003363,-6.476807710209452,0.6599173864302951,-6.042198941865777,-11.842440032946325,-4.092735760684352,-6.926678046137966,-3.0135764961785236,-7.089553998033561,-6.498191083227635
45,-4.615747099030143,0.8224664935541669,-2.085691117038958,-0.7770938270401614,-4.6440394965127805,-2.582652235960865,0.40344048680371974,-1.9751238015484036,-6.077726577466647,-1.5763618479111112,-7.225634243076043,-4.6360163884674295,-8.874644246422623,-8.55409167009864
46,-1.6352705682656083,1.7472531710779142,0.5458467877558983,0.5911548289346578,0.16052380321270765,5.070387729069738,0.4980511342560295,3.667786050724973,7.296602488368865,2.669748262109945,-0.9586854517504769,-3.468953603433621,-1.5739841605550693,-2.440492126874644
47,2.1863572835653855,0.890631273221016,0.9100577814533736,0.9988888148831327,4.193304526393578,8.111842268354902,-0.18133677750246863,5.207861719638825,14.021298544867848,4.535455222679891,5.010474454340957,-0.9933772778299241,6.3065415493472115,4.698411200426544
48,3.394117643092236,0.11319512464323846,-0.6020833912959959,0.6542583726394662,4.094941431532063,3.1019768082414614,-1.4510645614092657,2.0100800342103042,6.251398561624551,2.5734373213757307,5.858704566271609,1.7268301961313992,6.797175745034097,5.953029609816634
49,1.5047298782036456,-0.23294133772403122,-1.2677510210926213,-0.046541741342860425,0.7619893962741634,-4.424038955402007,-1.7495215453927735,-1.4057378483067493,-7.553525579702391,-0.6652882094732757,2.354912561116315,3.6732342165067697,1.4867172395452717,2.106110387173875
50,-0.5351776334755995,-0.9317650347140597,0.331055673135643,-0.852230230508769,-3.143035193401459,-7.0927741993321085,-0.418465708576239,-1.6264406983762287,-12.502374261633992,-2.0972720912594003,-1.7225949133121625,3.8771055775019643,-2.5831156215182434,-1.0631483133915736
51,-0.12081099997192107,-1.3664565677565719,2.6254644367216557,-0.9794570508490208,-4.798855315888634,-3.833476441222622,1.434325501502937,0.05784763262052495,-4.693016975648109,-1.4134681895819499,-3.1671317041658793,2.24035328300703,-2.3993228023860507,-0.7664222404937282
52,1.2331483923124278,-0.3810553977717675,2.7233322210794735,-0.027624025591793732,-2.3336481093563126,1.0516651502215288,2.4055400921213486,0.6932783675786791,5.93561476413854,-0.3735897632350811,-1.5415886814140096,-0.3225053331975701,-0.7150577125632422,0.12028528581254178
53,-0.22281077082050446,0.9583324435862819,-0.33058958899798047,0.7493708389036676,2.5513246180991396,4.104622202413395,1.8982388313022238,-0.2874240709794111,9.034563977764508,-0.24934278490330458,0.42801066676840765,-2.804653589981567,-0.5620820489286222,-1.7671126214725226
54,-4.416657064853961,0.40305544177285185,-3.998885239638393,0.02552036695607261,4.652782902857294,4.701050094579527,-0.09737351270879381,-1.4144273611404248,4.274138600977933,-0.9904306755327119,-0.2535451863248463,-4.714669446308017,-1.8444723542407468,-4.821608395201633
55,-5.900804355875837,-1.4796956693807883,-4.41511931307491,-1.077751994488769,1.2939333200642908,2.672221338985347,-2.80723797601476,-1.798219812330222,-2.354724153617688,-1.7183875242618118,-2.54075145060541,-5.222917859220104,-2.5096133422612565,-4.102704927790673
56,-0.5886171727137299,-1.267432112049949,-0.46237188959471276,-0.2935379539469456,-3.0950251528518637,-1.648078905224338,-4.105074815979267,-1.5144268362016773,-6.383404918784473,-0.8828292344038252,-1.9701369607780161,-2.4703493243414236,-0.5256779650597866,1.861275843800681
57,7.623749588327902,2.1610399540579843,4.639089877932611,2.0245519145398867,-2.3159341129113025,-5.077493191093938,-1.8817260577558932,-0.2548717495361458,-6.104743364451149,2.5501284943768443,2.8127200866866175,4.02208167675348,4.162820197668348,7.9699220311963765
58,10.076355413521908,4.940744769289158,6.209705046913819,2.8342575708817153,2.535421436784011,-3.690486513036182,2.9548365251456135,2.301832356413048,-1.2809525385669693,6.27129114015133,6.677512181421496,9.88166401961366,7.760699525004045,7.769547878918275
59,3.1631097183419974,2.7623606312989044,2.436366853842348,0.5269949913910424,4.028364659470047,1.4079868900724153,5.9610154011783445,4.653772535574798,5.095130475941396,4.9964767584638095,4.132874443849301,8.319171791168527,4.9381087203899074,0.8595906826634472
60,-7.273924919097188,-3.307447059460022,-4.002789168587145,-2.911304484043337,-0.9511770818393354,4.201682759710379,3.371186038104197,3.9320752873332907,7.241239629285211,-2.8582994318453943,-2.8811929896086954,-1.3625178159539966,-4.168280039528914,-6.710843449807875
61,-11.790192662981294,-7.513920396598536,-7.903029610036253,-4.348474507392696,-6.18658059863074,1.6093046483509663,-3.0129727866678366,-0.6283801978665466,2.894503189919203,-10.163079972639022,-7.000700379049849,-10.535637591396503,-11.36280205005992,-8.961425750648408
62,-6.468601768400004,-5.503159870302401,-5.502563555432944,-2.53680218267232,-4.394036705348429,-2.25431194205656,-6.701611212426058,-5.6152721144365945,-3.1497028017651485,-7.826692649733595,-4.6703674014958745,-10.234359502201764,-8.615907330516574,-5.011267979864335
63,3.7337852628455614,1.2966317183629523,1.8741503469173184,1.358172010286343,2.76764552205421,-2.227401516264199,-3.4995381713971114,-6.310859927962397,-5.0105736637463085,2.797218338587749,0.37661484115793525,-1.624841663811213,1.9132169077891255,1.7811089735497188
64,9.940282060873256,7.0686197016469245,7.9748145088219395,4.626487518893387,6.865591008630513,0.7207373968672547,3.2469199141909812,-1.805168758984366,-2.7694916572519697,9.819095158610438,3.194004753724115,6.175642129369144,9.783946257778911,7.015916052552231
65,7.66830636850731,7.030668924350665,7.245441418664553,4.585708994406043,3.683421170872126,1.9716852742228772,6.140039338937525,3.703640625655249,-0.36693671624692215,5.777819255923957,3.305915668946024,7.266278777161206,8.313498792929225,7.450142015614229
66,0.4567894255565159,1.9081016006422986,0.8332582408471204,1.1099658809392057,-2.1234102601424656,0.4739933791114879,2.371595797174595,5.30552434465702,0.8201148127987523,-2.6433343977524943,2.7129342772812435,3.830520428863929,1.2517983908274397,2.9021758963598074
67,-4.684078394100154,-3.046999453696292,-4.666965729628147,-2.5395071493042947,-4.095053334130212,-0.7918787810469264,-3.17296678841482,2.5075130445780727,2.1371820999326143,-4.484137561764738,1.6721034506033496,0.5267189348036497,-3.432411140467779,-2.772010671094946
68,-4.608723271362075,-3.9722626399705456,-4.862992520751689,-3.2088530845917305,-1.904172554964236,-0.37136928631107213,-4.27665429792005,-0.9125976307490644,3.225361964052898,0.4054642567847796,-0.6176224210188553,-1.4718054245105194,-3.128476687561443,-4.723866822894516
69,-2.0655471470637488,-2.5270658611306076,-1.9961900586150803,-1.8139957016337256,0.18801163744491925,0.06228937042706394,-0.8162518646956992,-1.8382518113738846,2.0717743807791513,2.770716993434294,-3.2347104010747967,-3.52544111681175,-1.7643482698738873,-2.6624373008274156
70,-1.1328140701181861,-2.588125280322588,-0.7474341880121996,-1.5357271042907417,0.10282701396650026,-0.40352735465569156,2.166597535907127,-1.0689204672142718,-0.9354680686671126,-1.7747153294315028,-4.380196268465871,-5.524633547081462,-3.1628622951814234,-1.3774056392080338
71,-1.9722417404417474,-3.6521502994811317,-1.5173870195124426,-2.310021725077652,-0.3290281838613528,-0.5341777008313877,1.5339536544264996,-0.9924236602084262,-2.9014869496704074,-6.978836024272705,-3.587082883646541,-5.04590268503071,-5.56658977651926,-3.496167057374811
72,-0.8934970043370021,-1.013097942965814,-0.3292576757553071,-0.45047970518951735,0.5863985457705937,0.026935517714119016,-0.6243634113050133,-1.5588198368132475,-2.4518620759976386,-4.9917213248042955,-0.8217496894348439,-0.2965477566696274,-3.391268480287301,-4.0781582110719485
73,4.052059404664144,6.1441823688109825,4.497436023530461,4.904713005621168,1.9429485934024553,0.05310799585127114,-0.9162274218698944,-0.645064148940628,-0.859892062152626,3.826683590036845,4.242508425373225,6.6507252182950545,5.341554374588957,2.80146299648365
74,8.584357588121891,10.718913008454482,8.197379151954252,8.25870439528821,2.1367600022958206,-0.3711910713694112,0.6812227818819205,1.8554550465974027,0.5303423590795044,11.319253025404025,9.020675022644173,10.124299183084693,13.831959594789511,12.706427262926843
75,6.0683315650428105,5.86015988666557,4.789776963713121,4.060405359473596,0.9494496508866264,0.2465859372337731,1.60776101752544,2.9314936277993797,1.2433654301708073,9.39837236711885,7.339096525096841,5.759997424359328,11.690633949686783,12.936477244952572
76,-3.265444394559964,-4.95143786008178,-4.2292450757591,-4.950929483506827,-0.8770853415927009,1.613645785541851,0.7370303270459904,0.7686816463603601,0.8190516222825754,-1.8606274872881974,-2.7421227745110905,-4.080699624146347,-2.4179051342813063,-0.8377554938026702
77,-10.50376900090438,-11.082928481181053,-10.124404039103823,-9.76879255079994,-2.5558276812545646,1.727842322255096,-0.5468473477232342,-1.9824374359464303,-0.13499185072964442,-12.472990661337171,-12.542615946712026,-11.1467535950182,-16.147933753853405,-15.952886356164527
78,-8.260134222985023,-7.628173831625828,-7.197305670787368,-5.854070309119439,-3.1421759450159197,0.25807144560396655,-1.114662795329922,-1.6769841939298749,0.670222740482356,-11.510751293835508,-10.924764406724824,-9.13390132755224,-15.901718684849111,-16.618159478405857
79,0.27493988771670524,-0.05521398696247557,0.5892000313253085,1.8075442445233814,-1.786642948715455,-1.2911679808721201,-1.619007508509741,0.8636233250510404,3.429367809986393,0.1836112450533817,1.1315380927341374,-0.20529027935954888,-2.5399786852584887,-2.9179675880990112
80,6.142244123311731,4.52526275440012,5.611904219558863,5.721467145363189,1.0883716290692325,-2.336895652383918,-2.255413612234874,1.4007415442824307,3.5810159109231066,9.874889216318175,10.639512685816902,7.474106984028024,10.2026955560599,10.437439486871817
81,5.754703492556068,5.229454333622005,5.7212466366216645,4.458670605987132,3.561926825047267,-2.92615069906502,-1.24954526020031,-1.311367056012265,-2.3796596727659667,8.025381546013524,8.66774612706275,8.12111191038802,12.181191380190066,12.407460588092771
82,2.6123920941602727,4.433067746049825,3.7277348511778077,1.7356333090601181,3.7689269335514557,-1.6784030890566757,2.1840983700091243,-3.2443230016910736,-9.365508485820493,-0.7787026676249788,0.15721387528139102,3.042405184939862,5.916549948426005,5.693452116055535
83,0.03161753114518284,2.277209421106188,1.0255055856172235,-0.0707676431294024,1.4498542558798169,2.166003777088299,5.0009584880300615,-0.6289966440178572,-7.956819739321714,-5.365835216812659,-4.758414371661571,-2.2718786426113446,-0.8257806450483451,-1.2709116127050786
84,-2.0477344764486918,-1.6190039587672675,-2.8295836709435407,-1.6113064967820534,-1.920229254473787,5.435725209212112,3.5043849166467043,4.259387570183816,2.506120742824839,-2.24101906667573,-3.3905723318181638,-3.914302987081533,-4.557301547052363,-4.8006708650290095
85,-3.385043749791249,-4.438510520949717,-5.714622900345251,-2.9873556611521077,-3.996083578431696,4.042685956827696,-1.2230035043216931,5.291895769285046,10.955964782979335,2.395914987833044,-0.39932114093971266,-2.2748110652474507,-5.6537870749226435,-5.555846663824281
86,-2.2692855733564996,-3.1555954866740303,-4.066560377996252,-2.5341576293803363,-3.0595397435268503,-0.8297532313388305,-4.197507553785421,0.30617650520868733,8.305035681168196,2.5136799250459605,0.5329298805699237,-0.3544099517394871,-4.263509947177816,-3.749878022598007
87,0.6754149423282345,0.23786940273401908,1.1265670795957379,0.02600177268561346,0.19521939182498055,-3.851631493926367,-3.0786672400982917,-5.573233149283054,-0.7756098319276705,-0.8608171770018558,-0.12609348971937634,-0.1513152752161755,-0.835438384207233,0.1446257968406391
88,1.9557452697057993,1.0454943912214107,4.363364382530098,2.0487131634660067,2.695983511503336,-3.131509150672766,-0.7668727080859262,-5.8804692141928445,-5.31457372403648,-2.957864042202085,-0.8721380175859079,-0.7883513200443422,2.243871230684789,3.0205659393239443
89,0.2914651348917085,-1.040068025216909,2.845624740276236,1.311637202095145,2.1742033092466997,-1.9870695893767387,-0.31463635544486934,-0.5955765127721514,-3.4223463253841997,-1.9500707579999474,-1.02446678495564,-0.26011995910096775,2.9055113655847924,2.296693762279167
90,-1.2500326428946966,-1.5099142152151983,-0.30113978167771,-0.6905115376443772,0.026001175947998046,-2.0966969238671185,-0.267837170820055,4.352194232914644,-2.108463427009185,-0.010368485614923262,0.0808061730026143,1.5578874620157748,1.9454026856779714,-0.0013514778685917023
91,-0.1115301329622858,1.7021354286836965,-1.340423407934603,-0.7911513544091098,-0.6460786168818302,-0.2834718538734809,2.1529511227963143,4.674311006344111,-3.347580432263725,1.0794064118404432,2.483918321685181,2.7100247471012575,1.339523265035074,-0.20536730644779708
92,1.7935226447645694,4.64993442055888,-0.7795830784295491,1.1967363281411423,0.47568656917018165,4.838281219759878,5.1879886484584485,1.7906090811737552,-0.9913823020630674,2.178117738958575,4.028885544533999,1.8451164138680776,1.136430069141206,1.2867556346751692
93,1.3479213125718756,3.0155953140509797,-0.8737829264946436,2.078764702553364,0.7363356190720824,7.901035320711694,3.976276973564474,-0.9760672854530938,5.832197998113943,3.46870973048331,2.04478160970171,-0.22364401815454568,-0.1698414314945103,1.1585446324698037
94,-0.8740355460789103,-1.694608267699252,-1.2894727208586236,-0.04696396962482116,-0.9465584955593483,3.5402153019640505,-1.9813301090400044,-2.7614612822824456,7.415891160220748,2.112528874904797,-2.6889021999360914,-1.9770482307657926,-2.6113928452442523,-1.0521426266333394
95,-1.7633783057342929,-4.279330855186845,-0.18584882102541533,-2.647846773580874,-2.185714834089387,-4.792503860669712,-6.7633405209081685,-3.837836482343877,-1.2929002549489725,-3.148752597272336,-5.766423973026082,-2.8165211331989615,-3.866530571147968,-2.395484420421785
96,-0.39111369035564797,-2.5982270887031733,1.955459277941481,-1.996364883654378,-1.0416954597282158,-8.42248142293106,-5.294691364110274,-2.9005650983485207,-9.471679914308163,-7.196001496603807,-4.073619692917057,-2.431092733559564,-2.114965988535176,-1.3241372232469957
97,1.168717912159645,0.45761880941318955,2.5626907075330423,1.2787460195804632,0.8277328244009315,-4.752083921783598,0.2579486110540721,0.9782498024505895,-4.801226302310008,-3.840772489032777,0.6785199860216451,-0.14876879462916479,1.299779430629315,0.5144928695838843
98,1.1889819779932034,1.4322255731738438,0.7513283608157265,2.519460132708213,1.0522214957498282,0.5625979696848507,3.967135859107372,5.053235587465415,7.300171512727419,4.4171485322285315,4.44710813094497,3.3123110256048567,3.356814600499035,1.284309383562081
99,0.06858664642819819,0.4397006310776751,-1.4701043561431115,-0.24568115604861324,0.3937757264593413,2.8017102850101234,3.829642284569976,5.171451565183108,10.809181940617123,8.170801535923967,5.205392916115534,4.781682115818596,3.025128908810057,0.9777888269680809
100,-1.0951761238327935,-0.0510792170107586,-2.069304208006779,-2.8658092111292714,0.9291782867949706,3.5943475542658443,2.468096130745433,1.2356300680246448,2.0172292245060475,3.7108153722442254,3.2407363927662085,1.939923942453448,1.7477048635201278,0.3786892334528342
101,-1.6586519324790636,0.8734207452551878,-1.2870577993581889,-1.028293464958529,1.8928003591922522,5.072797430012128,1.3065136188555952,-2.7837432459232123,-7.2800202815011685,-2.6673469867835014,-0.8882052672522679,-2.9114017515702457,0.3372961381519154,-0.07060484113811277
102,-1.1404567762208042,1.5665698918376205,-0.46318278685785536,2.874729359557152,0.6494273442959917,4.393523379539562,-1.3196849426012587,-4.36762406872582,-8.53471512186552,-4.877820355403842,-5.69398147621431,-5.048092871668312,-2.083840576545294,-0.361826764023133
103,0.4809060832898508,0.5693278271727931,0.068910519839217,3.0869288667955286,-2.546787185795571,-1.1698285404065987,-5.149039342303821,-4.402073229433722,-5.36897353994261,-4.3189714231305425,-7.27148632200103,-3.0180203885419727,-4.901831640227099,-0.7590917667459435
104,2.0924252405780392,-1.2135304029999163,0.889576538806103,-0.7310732647189622,-3.9496421718277626,-7.3656750524695624,-5.632436960236257,-3.178129689451191,-2.0560722953845465,-3.5347026030141446,-2.595318992495881,0.4110933546827776,-4.62208573803416,-1.1441050564032549
105,2.313588512774039,-1.8680653333980166,1.8972285066646513,-3.1701692949684475,-1.2986545502991005,-7.130559870716011,-0.12193910478960869,0.9952810241950671,3.784452997565226,-0.26595803018920194,5.192003990924452,2.6305950467413832,0.40675713152291126,-0.5996121342445352
106,0.8900509587392244,-1.0957556186096127,1.906725643177521,-1.5124803898240302,2.760485194676311,-0.5152416723199287,6.36047086457791,6.961333960002206,11.618430896511665,6.242947629296584,8.542837227270907,3.4894055411917275,5.769366377558285,1.1112682138845105
107,-1.3911934479433206,-0.2670016705881723,0.20366453732448436,0.7761620359889889,3.639136396163871,4.896367134360758,6.2183161284036395,8.740259067642073,12.443854145811319,9.325067799421632,4.0960085803150985,3.0579065186662038,5.487552668034548,2.154796494620483
108,-3.1621040720966973,0.06578780725089858,-1.9378248653190682,0.5172372193396657,0.4739920808848054,3.9570227559041773,-0.475343648619796,2.5541464073428193,1.3557027666970767,3.2269410155403113,-3.163322554520863,0.5861914210711826,0.2661387444352326,0.8443829843951057
109,-2.46709857655818,1.1377337493336268,-2.13472025150728,-0.12961695877543677,-2.5111642627531445,-0.12862421019326079,-5.427402479649262,-6.460755150886671,-11.868263522469446,-6.375613517097443,-5.932618105802703,-2.8838574078684607,-3.0983111114737243,-1.2364108857511016
110,1.3731901381448344,3.1892417270710025,0.13541971115159737,1.6495492256137243,-1.193984157533062,-1.3964113245408094,-2.9789576416747066,-9.180742031930233,-13.944234873190226,-8.610047850488659,-2.863249293132304,-3.995007264041502,-1.351413378950152,-1.1931088827146354
111,4.902599454967167,3.269011968188584,2.116398017284512,3.339907751189619,2.569640368359939,0.9123318758405701,2.567230018894964,-3.6271010244462554,-5.202805282381863,-2.4587215059832395,0.9922836196151295,-1.5306372015588146,0.8093911882380185,0.37015925130102284
112,2.9614349913556755,-1.0604399725956188,0.7838282710241877,0.6154804557728861,2.76953480893961,2.560220423951442,3.3481009939767223,3.0380113003610925,3.24430415857554,2.817826591935549,1.1589299767768162,1.1060782408470478,-1.3755745583852916,0.14099424976773958
113,-3.7390079239573906,-6.348790011654456,-2.759569128663601,-4.820785371258959,-2.167000445868453,0.6452300834864171,-1.270944025289807,4.165299130056351,5.8860529953264376,1.9907347520999858,-0.8927770642432855,0.6905627364301796,-4.661744862798762,-1.9589434712055038
114,-7.239303969129011,-5.978880905488713,-3.8549399087705543,-6.15704858789846,-6.0170324315481265,-2.899342508840445,-4.559951802927285,1.242885575046265,6.499148221816309,-0.16222383178536093,-0.5103543175689876,-0.7672732355811268,-2.5656721202083053,-1.9171754093156033
115,-2.226785733312826,0.7425199694846446,-0.1262366276297433,-0.7491817054449006,-2.93507762124752,-4.065780749198494,-2.034603087863344,0.005325950218906569,6.997949818689995,1.2097753580199355,3.02456565434323,0.6579263755085637,4.0766605089930525,1.7085988288524188
116,5.950849174133264,6.691989429084454,4.995875758388288,5.8389859349631115,3.9859023695525284,-1.581442911533459,3.178482219855596,2.0183404823338567,3.4932824496815806,3.4706531470577495,4.876795904166507,3.9642412284007755,7.364828521379843,4.480411625116333
117,7.816346148373974,6.033852861441652,6.05795347970905,6.751464781103297,6.662286400469752,1.7736636401871604,5.220390295458595,3.220409420991382,-4.424502851692002,2.4114245546286446,1.3580609897718474,4.014374999722409,3.337447764632122,2.3082223849666255
118,1.9686757906545886,0.9864443052845459,1.8068167925045664,1.7570599203871131,2.716573308590886,2.583337868911764,2.360012817738519,0.04642029226378155,-9.688730213631118,-0.9040149715793411,-4.344431458709054,-0.8123338089220072,-2.911985552572838,-2.3440020015701926
119,-4.330894827365036,-2.8767861422581764,-3.803344798282129,-3.698867835708338,-2.528413575374058,0.8311096286011818,-2.2859878104877107,-5.37767284463902,-7.132595524506129,-3.2188912287052656,-5.985801160400215,-5.693423739886265,-4.920441169919444,-4.0399553927816685
120,-5.42756455391524,-3.863035204433781,-6.146542854176284,-5.204685284377783,-4.051712653645442,-0.46549091553416827,-4.612687552169637,-7.052718210701214,-0.28874338482378464,-3.8384541949582474,-2.2091638997607737,-5.3864798978849695,-2.7517024983824965,-1.7568235563352246
121,-2.784463617507698,-3.433357087088181,-4.101111215053953,-2.933688540075113,-2.424186256826325,0.48644236880979785,-2.926494191031251,-1.861439343980704,4.724191596902615,-2.8473224518477283,2.622662035182785,-0.45433815234194763,-0.34538151022116104,1.0586203976143984
122,-0.22406481674023743,-1.9070273875022916,-0.019907279363358052,0.32074542803981376,-0.5950237806877021,1.9076255299545566,0.9957408713731561,5.982869585867195,6.227262672552556,0.4860835456265867,4.432404119342658,4.058726297552753,0.8169044088239706,2.009538523231393
123,1.3047332754762866,0.9753280464761821,3.0486931115716596,2.309185051204219,0.5249092204553477,1.1083264579026917,3.369061061227746,8.338518102054064,4.7006434544927265,4.2319050513288845,2.8208059355302284,4.366206421507077,1.5661343791523399,1.490069613599149
124,2.597379169909928,3.472789721248603,3.6947019992629606,2.4583237682288743,1.5679769031022324,-1.7718012790244777,1.9892872147127791,2.036619451362708,-0.1788551760059835,3.8684693736338662,-0.55006285348792,1.0428325192324341,1.6609168803255314,0.23656938441814962
125,3.3037333656996415,3.584604985984193,2.543464685411774,1.4761599398365068,2.3331827123664217,-3.914815042223336,-1.1809519194601124,-6.479270733579346,-5.916733360440198,-0.5995583495161411,-3.366046459286568,-2.352893525016179,0.5976135848139307,-1.191263322303844
126,2.3588422786400893,1.8978683994313523,1.0444782043193375,0.48781620546771565,1.8759927933194736,-3.0794128922374067,-2.124165957660666,-7.6024942011428625,-6.393434003381746,-2.8945708492669593,-3.201623193379574,-2.6858579530942737,-0.2651134909530086,-1.4443163450219711
127,-0.10220118725296777,0.025599119518859757,-0.06493707074255962,0.0024619525999879377,0.1489449566959956,0.26016306946540446,0.2216480803256838,0.17014522212713576,0.14346215427548634,0.20300212516516658,0.1321961309400304,0.04313590026565657,0.21369095319012946,0.04254621656683541
