,AF3,F7,F3,FC5,T7,P7,O1,O2,P8,T8,FC6,F4,F8,AF4
0,-0.012340097203858848,-0.004379515047084998,-0.031785953846745596,-0.02845384272910304,-0.015985282835156895,-0.018224556150422448,-0.061798826925950456,-0.10416948349020086,-0.1621838408140733,-0.13555488575859867,-0.08920242956886312,-0.05735714274295711,-0.05014482655902233,-0.0419485975675634
1,3.6708284878639574,0.6774064542905697,0.7751829713066144,1.6243880238871078,1.8303920028097729,0.245405760685439,-0.48037878898057834,-0.35952180091485086,-1.3819553873522494,-4.096363898074946,1.0761639557499127,2.506834588041669,-0.26513998485835905,1.384474499256039
2,3.7805727682012997,0.9759588188720253,0.6609438238339916,2.1704398177739637,2.8098494761169013,-0.49702921051128746,-1.0661868914052866,-1.2968826919446552,-2.492887771995381,-4.344354804124139,0.5646527055766838,2.4082227121027904,-1.8557013623713183,0.28413440929436046
3,0.3774617078497927,0.21922348160000973,-0.5505307770305565,0.8645825358222223,2.2601424485182657,-0.6438146881314595,-0.4264308400650423,-1.4292083190874423,-0.81696420385326,-1.1112377247394267,-1.2423532942567292,-0.3454838972954862,-3.331720195389341,-2.680748219461743
4,-2.7578182151548027,-1.4978959802467275,-1.5381973068576353,-1.3770823478055807,0.23032006902817076,1.2401571571942351,1.676530113751074,0.8573378233515774,3.9705240073300847,2.0850617898456845,-2.2313134033249136,-2.64842421265925,-2.1659953970474666,-3.985577180663201
5,-2.244777109954188,-2.431932618347093,-0.6023222241537795,-2.2179332219355015,-2.109969465794484,2.8408526359176145,2.497659642026593,3.7547355427101614,6.180311455313421,2.529597355396308,-0.940544168582856,-1.5547578451724366,1.3704162312048178,-0.9795263896130634
6,0.8600317064605588,-0.6895349805336033,1.7949795834958748,-0.635214814739599,-2.945975675390613,0.8716972491713433,0.31950353271306864,3.277977094191664,1.32374153340282,0.9940058864548191,1.8782053317961596,1.904710958484203,4.2041707180182195,4.6214373892384355
7,2.4596025248796223,3.0175121523282282,2.9429997875447698,1.6048471498283172,-1.3062902411133974,-3.1469000513891303,-2.0585424479730254,-1.2104826404767806,-5.782199302301423,0.2461605031679825,4.000960078504257,3.686571060374712,4.1598845419673385,7.464116451801556
8,0.6526609469446782,4.906249804332059,1.1105581384339638,2.0732379560042995,1.5108713800847209,-3.9894989986738616,-1.4266027923128677,-5.231366848224797,-6.698920991494585,1.1994236954092943,3.2840139902833143,1.6019157828222348,1.7529601132530168,3.6786259958915535
9,-2.2938127037459464,1.6809998175195349,-2.307490117729604,0.3123817323427866,2.4990924015632587,-0.3171647383991161,0.42026971274151365,-4.556022440130636,-1.527438369225709,1.2977794652422887,-1.0160726983760893,-2.499987079910369,-1.700838397368081,-4.453803465459629
10,-3.211266118397308,-4.773332092717824,-4.331017431692052,-2.053007698099614,0.17728478845998594,3.069339166806992,-0.24073344084832693,-0.22184139894303728,2.061875676267344,-1.8746548450285172,-6.467655752099309,-5.166925434093478,-5.114768524788627,-9.726552994362526
11,-1.2250186198191257,-7.601466246852611,-3.045411654046338,-2.7873490902725666,-2.757189404443361,2.3467337475252887,-2.240647383105344,3.6042682499254215,1.5607938139820663,-5.601442449846865,-7.4097120565289085,-4.065005412518629,-6.098689504414547,-6.78375480264871
12,2.23517939008478,-2.3652355826433906,1.0422281454079934,-0.7791082998198186,-2.051243852172183,-0.18614907390954405,-1.121077260659036,4.557110847515757,2.3997687794419673,-4.018416747837536,-0.5230881935401953,0.7796677361411446,-2.0170066406579994,2.1574531721003516
13,4.446539113756604,6.131485660797911,4.92075102880562,2.423245324867729,2.100168224306777,-0.7987801714104386,2.9208263425341325,2.88697065795172,5.93289726997776,3.103335270884775,8.658129740673486,5.942100330539057,5.08809102159152,8.863618677128734
14,2.9278497709446474,8.232498501535208,5.0264554607949705,3.52052681464643,4.446150402759095,-0.08466707337878326,4.49583650563859,-0.24258402052033,4.740458557680285,7.774976228749772,9.849731589365769,6.284295635051298,8.200813277070672,7.201719216893417
15,-1.5012535974716104,1.7026916685271458,0.9718705590062516,1.386016629396725,1.8177196436265393,-0.3692544405559319,1.3916832441537168,-2.967571525350315,-4.205200037679286,4.067783164440767,1.1379993592073583,0.9051408923208965,3.6138970841151137,-0.24658850059145676
16,-4.234284918324987,-5.133591941678309,-3.4961839928465888,-1.3368192676896546,-2.3668223077366686,-0.9008062120824957,-2.155330731405671,-3.385470104216236,-10.859415103130434,-3.089776402348498,-7.456991373280336,-4.401156654616153,-3.4859495494493937,-5.157417842340115
17,-2.442305065530724,-5.065292420410928,-4.719610265404965,-2.2203962544373046,-3.507095366880966,0.06329484294177105,-2.5641356220676967,-1.910607763467152,-5.67231305267786,-5.1388072375847775,-7.207328299413113,-4.292600076894921,-5.766343907582792,-3.512841225882931
18,0.6638505130999215,-1.1408400288704115,-2.8425237411977324,-2.1264212094965003,-2.1622308432591746,1.1178178122743645,-1.790150995096017,-0.7227941196707665,4.973494413936331,-2.0481692670009255,-1.5144376714201766,-1.0015806859386482,-3.015581320133626,0.17824736137432212
19,0.9124951819789058,0.44976854864481414,0.013378269958257229,-2.0039667369737963,-1.0962125722660132,0.12902892036195376,-2.087268563614274,0.12141190231616864,7.561797982817938,0.0967161388842057,1.5615016107195494,0.18008325541268572,-0.0419920234608542,0.5200553509837231
20,-0.10614940697027166,0.568667020808585,2.7193041496616437,-0.20594630733341768,0.32053461881213335,-1.365903837676406,-1.2732882502800102,2.457952645610918,1.1369955532170164,0.16949272366186452,1.4244235395486615,-0.5026463227979541,1.359054208996233,-1.0128014284352926
21,1.3104224890472516,2.9409728468619423,4.235827882746091,3.439532793040558,3.456509093565038,-0.625996318313799,2.400187144648667,4.881662880099431,-3.2774293528273835,1.6145331330280865,2.4277523603358175,0.8062520566046606,2.5394978305573246,-0.197836516879418
22,3.253861772595889,4.757087646082087,2.7410744952516315,4.719603959008095,5.171322992752829,1.2222036424106304,5.1954256951133875,3.014649701318438,-0.6220262716217919,3.3553861645284018,4.118763061929201,3.427879297863641,2.805553702030635,1.9630600853967615
23,1.1022256991590755,0.8231368204671161,-1.3387595290629295,0.9094807742070893,1.590795292500558,1.0738171461278225,2.993372109299357,-2.7381343295053937,2.6638939265649384,1.1897751080968024,2.495624211518186,2.9653374202943854,0.5899472319885086,1.6496839917053372
24,-3.40185035333078,-5.534962039055692,-3.9528041547670916,-3.752513901908108,-4.36241193178351,-0.5991557484295534,-1.7814398368198008,-5.4550955356675574,1.380240114869082,-2.6840797290424208,-1.559576370175787,-0.594539502625607,-1.8679127064501484,-0.189996837650955
25,-3.8113055945378402,-5.597057922079987,-2.3075889826932907,-3.6156056941325128,-5.588182568742936,-0.6612352088034444,-3.608080669343364,-1.5831194353308906,-1.1526226016669177,-1.856500563795177,-3.2657330649229634,-2.508268186488147,-1.3365144602527088,0.10964158282681424
26,0.39190568622765,1.0709246904005696,0.9839536476255957,0.10161418397023844,-0.8693059515423652,0.9864531669106908,-1.8850073731289712,2.968854417272254,-1.2623727828625297,2.4529842769303554,-2.253565933194949,-1.294438438235231,0.3175839097468168,1.1808215547272818
27,2.7774566494023647,5.363245587868927,1.757507401748622,1.8801309733076321,3.452584854472719,1.1371285805012017,-0.40447528076249073,1.6886962742239833,-1.2269749254652527,2.167153273318175,-2.3300366824884224,-0.5951821803306627,-0.7726319694280928,-1.0746471411939222
28,0.6189928335705197,2.3385031354324695,0.1798235764914122,0.4787877102378491,2.7153161528184215,-1.1165865808404611,-0.5177202138954199,-2.568471677141146,-3.1936865139935082,-3.720389455355121,-3.30503384707751,-1.8761995570281071,-2.8219824895371137,-4.461935437199085
29,-1.363102154079125,-2.374762762779168,-0.6633519377442023,-0.6305245287736301,-0.42843607929326444,-2.560661591054962,0.008520968625879068,-2.7080589833026076,-3.777164793389749,-6.3508219899285825,-0.7325695037324665,-1.661188305241771,-1.0357843559407065,-2.6816259902804487
30,0.004440661758646904,-2.531858093898545,-0.11139551951899948,0.05640964978499144,-1.4680362700507426,-0.8037630104844887,1.8512681474609598,1.3679326685452895,0.3389713746477272,-1.0106737615537729,5.207817531593145,1.642088157323757,3.204416110893913,3.2100643519745047
31,1.3897381723932156,0.06368335643026057,0.14991657435950198,0.5550035206575622,-0.4129645486662157,2.08279252466861,2.58445217812095,3.689715937949942,6.030228204546547,5.623232380741277,7.895982551484397,4.060379567632694,3.8126662930943773,5.013047537307577
32,0.10846376098446459,0.8670980355290231,0.1517530429991898,0.0635272533653339,0.22243087058154593,2.6021658325778643,0.9378460852075587,2.0961394565751474,7.448970112801951,6.286755611126546,3.7123208338566562,2.4667852711477396,0.37425486099030714,0.6975325302289481
33,-0.9895073228153727,0.23321297616333297,1.2147844851820837,0.08588537620380679,0.15884617007148866,0.4008627435884403,-1.0371615639856753,0.08998513362089784,3.3359011693500342,2.6949703533757576,-2.7582952346289344,-0.39045023497091436,-1.3719338288834797,-2.2288623011154094
34,0.39887298950567635,0.8082883174478701,2.090749841984933,0.803319990228668,0.5988277822620319,-1.941336110278304,-1.2683996117633918,-0.34757045773116335,-2.5233307039074218,-0.356070968975882,-5.611667157009942,-0.9145224848219399,0.11992948596462358,0.29030857385591996
35,1.4154497651660292,1.7658403403352994,0.15416512968241247,0.6353596779661483,1.0674696402702755,-2.26666108241426,-0.5043263627280252,-1.1231421181570818,-6.017953302651632,-2.7793100092807803,-4.5217416653085145,-0.3587496549997072,0.12634562233660335,2.2180829339148342
36,-0.43657387564871025,0.595140920724939,-3.3910501705966736,-0.4991552771960512,0.1871578096952983,-0.5376001817762456,-0.4728294613235053,-2.796892517584377,-5.721562805781346,-5.593124134388084,-2.1623640510432187,-1.6027018130270998,-2.712050486441428,-1.48896566389291
37,-2.4984569627436595,-2.027195958155845,-4.017791352203377,-1.1812023149174606,-1.5827986578618745,1.6953898568685013,-1.0370205527153313,-2.834859509853718,-2.8978403939040724,-5.860106939904951,0.3932023268635074,-3.6288146641286705,-3.4742173609344933,-5.829665821406621
38,-1.6107165599967934,-3.1435433886739066,-0.4703182739682532,-1.3691412686978353,-2.2002756866099014,2.433130850602869,-0.7386181582055972,-0.4120923472045309,0.053743362666569996,-1.2609643046694903,2.596078833616949,-3.1229356575944944,-0.13112729485583186,-3.8864793584258153
39,0.7307180042271669,-1.7260150585028329,3.143672477380581,-1.7136703473696493,-0.5755405025514827,0.861644359829744,0.7089081110145998,1.7643981895774736,2.0127937672867153,4.500126360323273,2.7722310117272086,0.3762883595695636,2.5714287555585296,2.4627668021107483
40,1.4365570998485306,0.7214091000297391,3.1423360030233627,-0.8749689144597977,2.034849970539554,-1.4610888792519074,1.8421861980339025,1.945258552654535,3.755582044110636,6.072004008913112,0.9043041913235664,3.975099194823453,1.5967360377462438,6.035301797567966
41,0.761459547134141,2.538398702375319,0.8318078614305494,2.421197986048948,2.937113488602544,-2.103616020610569,1.3768046506564324,1.617323678654848,5.201861644628014,3.3912833740733195,0.052880425477955614,5.078843517469613,0.5337784095972198,4.271164154435393
42,0.9353212900818209,3.0089332540858895,-0.34240579651679254,5.322960588092629,0.7295589515804084,-0.7119205465959746,-0.07302569400049377,1.8059237601797253,4.10432192845433,0.26917519585711625,1.8185234376682566,3.5118528778108016,2.2386253178343125,0.5280695439629155
43,1.8793430635697408,1.9903013915167405,0.16940133065692817,3.3550267792003754,-2.4584920640286527,0.7601541886007439,-0.7758639711563112,1.0247360804749108,-0.1328647773386865,-1.4126816131101252,2.8789201376906064,0.4832792574831898,3.1536784789246846,-1.8842684248965662
44,1.1356695465043443,-0.1966537247395926,-0.11835188075975203,-2.722820918460465,-2.8671533464353516,0.7996851519472682,-0.26601934091825113,-1.1851470298169022,-3.8783069335441005,-2.4006101502177803,-0.45499432985250093,-2.9167875206877234,-0.4103145714510945,-2.7191801164405156
45,-2.1740332820810395,-2.61421593904286,-2.4426145014163914,-6.644106689988087,0.013700590816067237,-0.03227143473661549,-0.00456698673543789,-2.392819502875247,-4.0314115295903585,-2.8674870561964934,-5.855312416777956,-5.583598973986697,-5.304406086991482,-2.840717080651675
46,-4.965377232985654,-3.7857018284240502,-4.079694232264598,-4.287178781405273,2.5212052177351443,-0.3309092786917839,-0.9813011941733935,-1.3493303178637814,-2.8007407455954922,-2.0804588580808474,-6.946034075353755,-5.64548000771191,-5.71043731163336,-2.233041800179712
47,-3.1151209030401157,-2.3377716282304153,-1.4245570067235063,1.520769659434678,1.8551275901193929,0.31383995930405145,-1.7628043363076795,-0.5134786715401207,-3.387913952890376,-0.4277628285228538,-1.4963355218165162,-1.734892983928582,-1.2140054183266944,-0.43187189838519674
48,2.7519885444691314,1.3590690346300378,4.181279108056804,4.970483621693187,-0.4257146788071785,0.9162530738123271,-0.567416569523635,-1.6329718272202147,-3.4797510825083364,0.8768898570406325,5.425212062922181,4.147866527333329,3.4041699414220297,2.0629468395489723
49,6.23880947543467,4.166136864965609,6.299679847921667,3.6114701138892733,-1.4705581210694703,0.34492827189243264,1.5944768032619971,-1.9389642597400485,1.240905367168935,1.5307972927646385,7.216385054873987,6.973499200171132,4.535212828563669,3.4599648407673462
50,2.5823758356932847,2.7617316349009897,1.4206775682022887,-0.2823176374131722,-1.132643391813453,-0.8704774286845709,2.2409354838826467,1.4938969342195774,8.466333332913871,1.8033166360907444,2.7905391399830446,4.009102480490955,2.5864824477053467,2.2836949150905026
51,-4.132140998133517,-1.7797755796510732,-5.111521654481503,-2.811549587841718,-0.7443529904358233,-0.7283897774841425,1.2828747896813295,5.811222323109299,10.431528186614099,1.4910897094586073,-2.889523667708429,-1.4232161582095268,-0.21671266193043384,-0.5517809905285004
52,-5.316052626984704,-4.082338396672235,-5.277425118759035,-2.013814700701892,-0.0846911210258576,1.1598532098764278,0.5483974138582118,5.256822157969403,4.130371207638404,0.7043868354439399,-4.381749743472733,-3.8437048225562838,-1.9937348441368983,-2.1934719055734133
53,0.5368065146580275,-1.0108066489842322,0.6864532367374548,0.584590782532719,1.6152559285405135,1.904537927674665,-0.14573261853293318,-0.622733639766242,-4.952023063034911,0.2518128852564325,-1.2983381513256116,-2.2431596885389173,-1.8217258024182745,-1.1815527553114131
54,5.503069856268564,3.64750570171898,4.624377432864753,1.6947163651071069,2.83586226955595,-0.9221764521160898,-2.4754543562398474,-5.807771340575291,-10.125805364926663,-0.12494974801480267,1.802647164941707,-0.21226223564504101,-0.38527960388155186,0.5414738674516107
55,3.1660804580694,3.817182912344896,1.9861228623702898,0.16204944990328646,1.0863433360843582,-4.703205493386963,-4.804687243869333,-5.43091829128472,-9.502959865509036,-1.8368367239969483,1.1779736928022289,-0.19087031092400378,0.38827725468986196,0.3476226378482048
56,-2.807003923277152,-0.572360901381476,-2.4227945212287985,-1.5563951512339929,-2.7415267739558304,-4.071885864872896,-2.6626758586769297,-1.1034232238535744,-3.949014386642263,-4.0781279530650085,-1.4384706504658462,-0.6709523974229509,-0.18738745946832633,-1.08771468811666
57,-4.547758677013,-3.6325063426804403,-2.3256950409886348,-0.8631214378302826,-4.212598212113768,1.8606169796926144,3.9444872302773857,2.5071275932502783,4.795514199452595,-3.1309448410770426,-1.6414727363125226,0.4096808100723813,-0.44408459813469753,-0.8590219041084534
58,-0.9863983176727451,-2.122938899212612,1.0932800408510936,1.174541957324743,-1.0401978055505696,7.368325136606207,8.038003958392604,3.279897309281275,11.475783445627787,2.0629765630549035,1.0117161273972726,2.099782067239147,0.6855282568303567,1.1674317072417795
59,2.0185203729447823,0.3983625070691905,2.0793617304420557,1.4665174248319293,3.2324817778207815,6.462062076079968,4.048096228695611,2.0588377316744078,9.21985802939219,6.249222631033027,2.4619776031585485,1.9252043399508965,1.3191032211841944,1.728682519128895
60,1.1378845751671707,0.07749506220570136,-0.6008175721923464,-0.3514358267574574,3.606577230601623,-0.28463322927770446,-4.16900108915068,0.08461985254801967,-1.260057480942268,3.9512041758474723,0.5792715078165215,-0.25790507378727956,-0.25770071131677397,-0.3021400312862008
61,-0.4929388435410061,-1.0788457503093885,-2.3582384746523086,-1.4631321462373612,0.2389597275082426,-6.519373829393292,-7.76216223265728,-1.6328981163685117,-9.370258748049741,-2.439172400299359,-1.7851856887092208,-1.8760909409201776,-1.9765878842696922,-1.5792399158179444
62,0.28847269980584345,0.5503417894381119,-0.3751627088812847,-0.3725097180707355,-2.254327819796831,-6.87550588401206,-3.8080528824797395,-1.8712610691670455,-6.8449167571417044,-5.375792224158426,-1.6345964983212107,-1.2233547758533723,-0.9392697935219194,0.05750520938446931
63,1.589292661340636,3.4307923645851783,2.1676854742614275,0.9985243836229529,-1.3981604482006664,-1.9388941429809872,2.2760266869787356,-0.28382147881782444,1.659604667529419,-2.2136763015554526,0.08988765655129678,0.2836610543878171,1.605181894759943,1.5186515590407392
64,0.621984429339073,3.309069275265698,1.4232691258250079,0.7938754011061101,0.5057127332382659,3.1807485970534666,4.639499376940232,1.5657685515507191,5.487624644428726,2.2861810926008572,1.2106280753836995,0.46579544752934987,2.198220784671744,-0.22622458518942196
65,-1.2133121760978116,0.07144476357800403,-1.1744286256052514,-0.0007010856129200452,0.6012445090319973,4.29606710865282,3.042269931597162,1.6235140875756418,1.9817041288451174,3.3849490418119377,1.4923293554745676,-0.34346791738658683,0.6443538983520695,-2.4023351695051987
66,-1.1412831605475755,-2.668198825748602,-1.5879734570492576,-0.057111980072177444,-0.647856135884104,1.804948024377652,0.37693175983697497,-0.2734323675576038,-2.4429846285092505,1.404971910111652,1.0698011275996488,-0.1697150134374788,-0.6622398453663748,-0.839061052838771
67,0.11243316221787056,-3.1605631747824647,0.491010224398819,-0.25376842874058214,-0.9765717920586348,-0.739619495685386,-1.6894785789055022,-2.0800016335559675,-2.8440339834642874,-1.1373795063535912,-0.6900919081816608,1.1847726388550088,-1.2486245099099018,2.6960755782525903
68,0.20270660683724354,-2.3075305525815373,1.7772537456488122,-1.2497733015858876,0.24431820891190492,-0.9572253310173632,-2.5284819378961485,-1.7256871156059672,-0.8134201863498585,-2.717265085750089,-2.5826674396673948,1.7747884953908242,-1.8444694129058468,3.1367677978129658
69,-0.39520545625056835,-0.4875302265301996,0.7362776809389227,-1.1583144563518737,1.5106705472390867,0.26744343971944945,-1.2626125411493836,0.4519012494933517,0.7007176367135224,-2.197229446310799,-1.6067271358308628,0.502699175568021,-1.122243827396341,0.24070896722244556
70,0.11186044590472001,2.0540597946580696,-0.8963591430330156,1.0875630556822729,1.3360978697661297,0.898566417205079,1.3906494836702359,1.8267570375573936,1.729839691185641,0.6739808511354543,1.8301274092592372,-1.5027902319884663,1.7039374977333717,-1.809633988509422
71,0.7447924486511436,3.0994529253380474,-1.5839820750315263,2.4925705815228385,-0.09616888147201869,0.4425856464743462,2.177392354682013,0.7344693252915486,2.8593352361336266,3.1814482673536113,2.7488521640398713,-2.5911942910787182,3.1358882914862174,-1.8408455995451463
72,-0.511692503687495,1.0626610529283758,-1.6105220942370058,0.2653143582989168,-1.347250793887179,-0.5174278043713234,-0.5684323206155948,-0.9463320057316573,2.603121953703934,1.9414205956584523,-1.023072182235476,-2.056574396888053,0.008938984334018296,-2.436305125739999
73,-2.1423703725918224,-1.515516303530657,-1.1341717308847659,-2.7038904749748793,-1.3496305725512077,-1.993936938505339,-3.4061186957341674,-0.2983472375644853,-0.37902482829789286,-1.9415894623752588,-4.302338115767231,-0.14527847623239412,-4.076441524560762,-3.381947674020426
74,-0.7817250121439543,-1.153826830493006,0.4265043862672168,-1.6135882710144986,-0.389846161811725,-3.646265027360693,-1.8930942009976177,1.813201094979356,-4.316413520138068,-3.6042301883014223,-1.7231655991167885,1.9740607227635538,-3.0621708667049212,-0.9487651305045984
75,2.9757452754073235,1.1539183268061268,2.6228546772295993,2.3114238672840552,0.5473112605890557,-3.108315217204538,2.807432165571348,1.5611964970810075,-5.323479193743868,-0.8876357586341564,4.0180182203649535,2.850874625904173,2.3176677415402165,4.894034855774468
76,4.617175147770555,1.686251237155111,3.72920116592597,3.205917605372659,0.9904129687595137,1.5477155793370578,5.123118568075371,-1.495614640062306,-1.2880975546903974,3.1800737565522295,6.060002106364506,2.356553345041598,5.57135616965972,8.303303627699972
77,1.7633849503848225,-0.21248846180753833,2.5089254129329643,-0.4216307509240926,1.007427603065144,7.3093839057242045,2.440286207938158,-2.9782053447542016,5.015841318180679,4.65996402434359,2.6565234579911015,1.383310069925345,3.549116931842143,4.9374734017751605
78,-3.047898252843405,-2.03732816557075,-0.8706675403355806,-3.6046917854465654,0.4309947089224078,7.692506801398048,-2.197575071798055,-0.6769287718313574,7.071994373352837,2.481889488722275,-2.4393138436023194,-0.39652557977681174,-0.9971769566224521,-2.567243023420712
79,-5.696061684350166,-2.4393136240425966,-4.780945314857753,-2.5268029471447178,-0.8329047390265483,0.7295069783839588,-4.6320447481684734,1.5135545266528052,1.2569940579915526,-2.025287040643878,-6.0283161896225765,-3.7026273291766376,-4.6596216252908595,-8.252371566600301
80,-4.237589859383966,-1.834522302593484,-6.153379841901824,0.7169231815169345,-1.7629883675242701,-7.224672308625924,-3.7678240355223163,0.14316878843837494,-7.150698737440413,-6.307034006916482,-6.688610057515962,-6.069528171068334,-5.890458906945596,-8.637459067490587
81,0.13659698752011892,-0.09700296707837607,-2.69619779096036,2.3395514546461444,-0.9635287873712342,-8.517725074772265,-1.0769114760443856,-1.6817302934218232,-8.286312046886476,-7.02127245754863,-2.8830202569239223,-3.3686307879476414,-3.5620365199220627,-3.8681700918546738
82,4.066593762176286,2.7391408334977547,3.503818517679542,1.8802067888720444,1.081185273598449,-3.11444771472683,1.6622392833829582,0.40110300607045796,0.17168764984514864,-2.209248352156091,4.39206562020426,3.4077382321278074,1.8920291303331034,3.3973641435494826
83,4.841051576853814,4.65488525559503,6.977098870329081,1.1396753407811842,2.0396976622473435,2.6740405307410917,3.5211428710521693,4.130188262793,9.18934055790033,5.76765247371703,9.304517447627974,7.469680634116773,6.714211024252857,8.789351910978178
84,3.103831055914542,3.5386974337778794,4.960342640873001,0.6760224595318974,0.8452358740716326,4.696653656168737,4.189825926428284,3.762767282676283,9.270428264672848,10.838970559444693,6.886995733513021,4.819874523233321,7.062964426047448,8.582209204545046
85,1.0404294028915855,-0.11987604584848648,0.0948582901302984,-0.6111174944985183,-0.8059163496025404,4.095651975074672,2.9970022412920887,-1.043578287444294,1.122357366199204,7.973871180740053,-0.6105284933401296,-0.8202396264690882,2.8963664761642796,2.85380102943937
86,-1.6219040449684001,-4.201789143094266,-3.8387343115391706,-3.05223969652323,-1.1291515750696617,2.683731496579661,-0.7730551817770438,-5.046623051330273,-7.374162162751077,-1.9621307012801277,-6.868571709399278,-4.114632624002299,-3.364934176978383,-4.519967199457792
87,-5.7828772589914665,-6.730713865849346,-5.537569215893616,-4.55057242699192,-0.6868450937242458,0.08945180295702745,-5.427807530329118,-4.955964508828153,-10.376632190464113,-11.483834858243359,-8.34982780039576,-4.397455494900174,-8.780705240355504,-8.859858864301504
88,-7.610772293531566,-5.532178309500354,-4.4544478169628965,-2.2928384143215212,-0.6646363756019248,-3.2927744544499262,-6.511770847170117,-2.0914713323430107,-6.7791338541569015,-11.916007834970467,-4.8625837575856385,-3.0266865396412888,-8.920713846156575,-7.257468741643802
89,-1.7612235006963595,0.5607781516400508,0.1466406103384506,3.2753368946669275,-0.46653020618432584,-4.6247836337243085,-1.775832888485091,1.7088195476848311,1.6906273167570816,-2.0268211293066534,2.466865176529809,0.3377006622202801,-0.7659447756500909,-0.2984644405124952
90,8.269350356903045,8.096569111951808,5.839108474438299,7.277518179999889,0.8648375617447522,-2.306050169176763,4.567893601205931,5.576132287164687,10.23546682228859,9.216148784850667,9.353001833241272,4.683899268510507,10.162274570523925,6.984168766413144
91,10.77624872231895,10.053169429595348,6.7985303630268135,5.186740567447593,2.1310424778948738,1.2272413111317073,5.990854686761069,6.870905898256837,11.98695207571094,11.366438988908758,8.774565128348396,5.385158501539258,12.11593614293318,8.124006165371329
92,1.3904586304356297,3.57516870072558,0.8649520579056326,-1.4542866734338418,1.367199352361277,2.62933789499537,1.7866143108148689,2.510987698821113,4.430149834440108,3.796079348444669,-0.6758326632370086,0.17767282494895448,1.7106674582404062,1.9438188737876145
93,-8.995657654000494,-5.6703667261030954,-5.878880839309518,-6.254750641403301,-0.8567425465169246,1.785182080873076,-2.341711567587051,-5.105240228580772,-6.2238166098729115,-4.699787986654954,-9.6243203150127,-5.573323602125675,-9.551805005126111,-5.130598877459157
94,-8.23507343303205,-9.60645963357494,-5.9041498534218455,-5.276919236740659,-1.9437843195282676,0.8107958077023558,-2.2065612578565545,-8.396329634885362,-10.961974065461842,-7.055924869928036,-7.880229660896448,-4.927722589815855,-9.449331396795747,-6.036591396851926
95,0.9411975401691787,-6.255472176527114,0.07704320320525909,-0.9982814863188407,-0.9558350545580359,0.41833332444518995,-0.09400745096815416,-3.896336794005817,-7.635744736253714,-4.445975688526496,1.6872284536182016,1.030366776449215,-0.6809996669126084,-1.136066013326765
96,6.440936280931728,0.18025782564014067,4.616156290308182,1.8916039449281532,0.4298991864966724,-0.35507761929956977,-0.07592237447313287,2.7147662723356323,-1.4145987717274047,-1.1261776782730664,6.621077942339669,4.856802997371217,4.845975777766047,3.2826705729275516
97,3.856700377883973,5.230523072157616,3.589186944781951,2.2976404956415477,0.7277930793104861,-1.497976827232505,-1.4907160272138182,4.40687700953944,3.351434675568155,1.9768693811740612,2.351166684865788,3.079352648399881,3.1838163166633113,3.2826741062326557
98,-0.8716501489917017,6.815392775835338,-0.08798378178568027,2.132590052236208,0.22715080675086757,-1.6134656601940136,-0.6935950426965285,1.8864270797757388,6.78736117084893,5.244873730759146,-2.440695763110147,-0.5516758283606036,0.7785295325651241,0.6731399104584439
99,-2.9320388851446064,4.099676650183367,-2.437212662859911,1.8276367246288758,-0.4460867947840038,-0.4487597295770323,2.0938702269048006,0.5119311041574071,8.442038692448836,5.928084852973102,-0.5251334294303248,-2.134848497525469,1.5323718376404623,-1.348976016714882
100,-3.148515328503281,-1.6854234082738757,-2.8440895152406616,0.17107021355611962,-1.066859439002334,0.37652149549593394,2.4312069166985477,1.3847839660385723,4.8539479282981155,1.2000736171165796,3.100927488965118,-2.218320678895173,1.4445769920573899,-2.0028595266480322
101,-1.8429994106465377,-5.7239887070229,-1.734203625816363,-1.8208380848295664,-0.7204786085671704,0.11044545819093467,-0.9342800134975418,1.0311533896185825,-3.8366354280160664,-5.518709845609588,1.0817967915518458,-1.9724811539773908,-2.1348690363167044,-1.56413511141546
102,2.315327307857528,-3.600929840944267,1.1221916425138372,-1.2860765102547924,1.4929677495925915,0.28913107474940164,-3.07485564679949,-1.6000691423555187,-9.891109166504231,-6.9060021481426235,-3.642890395097701,-0.19290582315118296,-4.6435144879434045,0.20703499405638576
103,6.276865435018847,2.2993469841607297,4.149183022090723,1.2594354217236357,3.8460230041625594,1.8228412008035921,-0.27599603736904627,-3.299641801757373,-6.672188997475956,-1.3738367625873569,-3.406278772851487,3.101294592243282,-1.7955612596696682,2.5252879965323283
104,3.9852562247529337,4.474011590310555,3.8503782990851376,1.459108963183506,2.7429636589186264,2.56489765584453,3.5513466025727065,-2.020999011635787,1.6389668216987734,4.398711779767354,1.1843801775002296,4.26995163437705,3.1258512813144956,3.02236868902172
105,-3.888799337051948,-0.0723126465191472,-0.588700784441032,-2.1444443980823906,-2.3064004544164187,0.27855037090909324,2.380237844473241,0.10064308099070449,5.332627685470232,4.344906440101955,2.6768612651053663,0.7264411242423402,3.8771922413580997,0.4878050962955813
106,-8.646196558577381,-5.4979284174526,-5.167166173809801,-4.894368976978129,-6.576478544591404,-3.1803865083888807,-2.5855751570186936,0.46509886279116003,2.2136301805432574,0.12339893855266709,-1.0251572802622757,-4.415593820225861,-0.38733174327376063,-3.2577116809638893
107,-4.7497843691588075,-4.646295000587462,-5.324987181279792,-2.3107205056255316,-5.0953296750414285,-3.6881515296736276,-4.491884218687977,-0.1490563718730922,-1.2426908158920493,-2.9133943766712687,-3.6848001887950868,-5.4834642424881785,-4.57447874027823,-4.997771882248923
108,3.213509066948367,1.8808192546333236,-0.9177368100224597,3.419636958264533,1.2692258833930345,-0.6649951969981112,-0.9823728275377864,0.6012547560434037,-0.7361861626015729,-2.7497447961805666,-0.3630693731884544,-1.0765492408206794,-3.587729737408133,-2.7476748379779643
109,7.292056013232753,6.9571806827193425,3.9972431727699744,6.25222282129475,6.5011543744963145,2.0170576436738865,2.831663068782167,2.6104558459164178,1.0915552260545707,-0.6596615836025099,5.519893292580163,4.422349529726732,2.466541910488688,2.628823781039462
110,5.35962824749659,5.753237120443071,5.488950643678568,3.799621035561819,5.981947843557438,1.700710408356398,2.637912029301464,3.422667594028553,1.5057163399605014,2.377830551151964,6.836642542517982,5.961574001881732,7.740815547266892,7.17060788412662
111,0.9397359166901204,0.4158937892417891,3.2358929024281387,-0.6996222560783084,0.9790234967932854,0.4986627745855643,0.7882373279344573,1.7900258202987178,1.99768588830206,5.280486489019353,1.5585312340078878,2.859780079102809,5.928901551164235,6.462770808195311
112,-2.6613460486134843,-3.953657813722481,-0.21903480739206488,-3.2537614280738705,-3.584863313780917,1.1836619015219008,0.808724639578812,-1.1098575339412162,2.7478045329162297,4.8822703354272745,-5.513608334977646,-1.7017654290670778,-2.3928320717450857,0.224298214995364
113,-4.796956662385963,-5.18185277405439,-2.9515631517409227,-3.4580827923289013,-4.516433745377618,2.1518963934613686,0.7886357596778715,-3.844966308409368,-0.46321022655338057,-1.2477806317494209,-8.600863019281972,-4.772087792498388,-9.391455122119819,-6.698867409208596
114,-5.382831780264857,-4.328526611852952,-4.773463133901468,-3.1126628222599275,-2.5048825059415125,0.061935146684403475,-2.4350876717740197,-5.5527624979394306,-8.17303668623396,-9.560873295026537,-6.026947249022735,-5.474827957883742,-8.60735098222276,-8.920063453511325
115,-3.325773962453186,-2.1080733263353277,-4.7948071502778715,-2.2804374834208665,0.1366362801144419,-3.809471781344316,-5.681771537119625,-4.522494257505145,-11.355202350209575,-11.527847490412887,0.13473288798445648,-3.4538998799463023,-1.573812416341273,-5.037569819738857
116,1.7274627762425259,1.8704218461131181,-1.1488099717751308,0.6631871472980685,1.959505815628379,-4.386351985749705,-2.9762654396615713,0.6092195779003649,-1.9423083785518875,-2.5709391797383563,6.380515917847235,1.4525735785733744,5.64569524366859,2.2367906805283764
117,6.937496580246183,6.1783342462308575,4.797993422863553,4.887954444255632,2.4541389182827134,-0.38471124801027506,4.178220629973875,7.047444707244697,12.920797389177753,10.89079522261325,8.987911412571508,6.805821492595291,9.02559819329247,8.21570109631152
118,7.605855841840115,6.919186979276929,7.371111724158738,6.154103315885628,1.501364798651057,3.381008714535544,7.252401212516731,8.716775685502556,16.540337042569345,16.26425117081373,5.995070982565861,7.745778208292492,7.584718676506094,8.66015082708696
119,2.2441711190705846,2.0602271310363296,3.269524995880683,2.1280568816727743,-0.2186826439661324,2.9134062927010924,2.5345250315507952,3.265177471009646,3.9119810844642124,7.796075417398923,-0.40855877106832583,2.257240747169664,1.7606845208770996,2.9919830947773223
120,-4.834591649503767,-4.864153922904341,-3.239487988182246,-3.6389971852645004,-1.3268210849816315,0.24189322642999678,-3.811525342198854,-4.391387570098268,-11.205511344211429,-7.009294237378322,-5.646168384108592,-5.234969439227637,-5.812872419394149,-4.357695960229125
121,-7.699814816598955,-7.603841385130614,-5.514643142604696,-5.761127018143449,-1.158657486019376,-0.6694612273757932,-4.743491505780498,-7.724292746672591,-13.81027215143518,-15.256276712114888,-7.591868997143404,-8.06187278798121,-10.234851512020564,-7.839592045732459
122,-4.840008482325659,-3.9151098259141106,-2.7157718354754663,-3.3379208445839095,-0.4119688051291222,0.2362838407449384,-1.0546864557584783,-5.428599561519885,-4.775429925967524,-11.334844388401146,-6.949568143318029,-4.428394496570306,-8.09357204557872,-5.930375431745793
123,0.45360327735525063,2.0427306952357505,0.8177179350453927,0.3819888970581512,0.09162236821651384,0.373653995478726,1.8442773397458438,-0.6573936342083168,4.28409330775168,-0.3657787331840925,-3.216873436095118,1.4924202061822283,-0.7555226433706846,-1.0360551573616104
124,4.42865465715548,4.676442525858214,2.1474648815193946,2.802367147474829,0.40639022117342805,-0.8531056203613249,1.6660574604814966,3.6430627453252744,6.659768763262408,8.845202521012277,4.566849555050613,4.8379407497656315,6.939718629247597,3.9581252969176393
125,5.4937124890983,3.086446770487112,1.826996323630087,3.4974863527611793,0.724188293811125,-1.7636284359815029,0.299158397848644,5.833676064847088,4.6165890344617315,11.350437123065499,12.047941964443165,4.471522332090947,10.32127708147934,6.717913078852568
126,3.6557236972525753,0.7719069691641471,0.9834957148745487,2.4940934470938387,0.6472749471643418,-1.3484857580062204,-0.30146299446548364,4.5783918525472656,2.1155880332065684,7.424561621162108,10.98959132463844,2.263974840696899,7.4443157209627815,5.245530077033321
127,-0.0830255381107744,0.011508509885692589,-0.10361579986111996,0.08626979425943153,-0.056391094430552,-0.09984243506684183,-0.07981211685911394,0.18408458225678037,0.17759989943582397,-0.007762429619243533,0.07387494705051133,-0.11385787399021678,0.019315378155725454,-0.06830884635537945
