,AF3,F7,F3,FC5,T7,P7,O1,O2,P8,T8,FC6,F4,F8,AF4
0,-0.015449048087232735,0.009924641802781187,-0.02207114621233859,0.011686150707042209,0.0022825902207157488,0.024199278563166685,0.020136334705185832,0.08545388821063117,0.16093913027767248,0.060780038249897125,0.023706960745945665,-0.04551445840836044,0.02732541041739675,-0.015024126021010012
1,4.3778416104148326,2.9612209817887245,1.9159769537793896,1.297425899744026,-0.04812235001746873,-1.7344342703602404,1.9082992793059463,-2.7951351602182566,-3.520811314479324,5.387428419344208,1.8679257340204487,3.6131206506234164,3.57478168557923,3.9543101694368503
2,5.474379613897159,4.511474978353107,4.027128773842149,4.360749090019567,0.9920207123505395,-4.2009199797411325,1.8844842209075352,-2.1571646114476564,-4.119547060974148,5.473084450059925,3.2000566766408545,4.694218771069438,3.585514990394294,7.328708428828005
3,2.7162172609606094,3.6556263907024498,4.295204076596673,5.752627315253709,1.411421615294516,-5.565003379006714,-0.21902758979558482,0.8615429439598955,-0.9882584808046655,0.6951134965548407,2.3594265129613174,2.6155198755603446,0.4329702967701942,6.537711666224862
4,-1.6527650810779861,0.3049244370761941,0.7245593894997278,1.2074609195071244,-0.3690933491557163,-3.2351754396572847,-2.2841298651436257,1.9549180845271255,3.108404592490025,-3.926273414988714,-0.6902438712476582,-0.8716996674653383,-2.1686844671844114,0.04025547808304371
5,-4.58718879652212,-3.7823031036196917,-4.55989630145373,-6.271186740984496,-2.247833827962111,2.372179104403747,-1.9007116709980014,-0.3318589765968978,4.488416754370165,-4.374067381031772,-2.7575911599618754,-3.2051707582005244,-1.6721801119653914,-6.941627232168839
6,-4.212584977416048,-5.269647374555155,-6.156167122930311,-8.085194153536083,-1.2477114818906454,7.282249448272028,0.6913991540641725,-2.294569925198567,2.463251389572359,-1.0709787214104616,-1.5265770120744926,-3.0136648518149958,0.26214125764189083,-7.808232393813517
7,-0.9757106156321772,-2.4954047781925945,-1.9293174159380138,-1.376921394421593,1.388749094450425,7.438526985736006,2.638621695503874,-0.3399820214491851,-0.6152177719274411,2.4601766123389437,0.549991082298934,-1.0845923028350712,0.314447220478156,-2.9287613174236578
8,2.472969698213479,1.7435885543952967,3.4618388812439496,5.957513338541936,1.7315519851232952,2.243215212549548,1.79299852317108,3.2788495934725392,-3.039859437871383,3.0358622546562715,-0.28023987635159286,0.5493094583063984,-1.6420132545174282,1.837926267363704
9,3.4471338789390598,3.2333814369465625,4.251113797175549,5.408085724435933,-0.5265353468413081,-4.822117258784001,-0.8695241514054187,3.1969665551871205,-4.769203386057552,0.4307581848742494,-2.771666442673742,0.909920295082506,-2.2969266201286658,3.4918026248229883
10,1.9064986725150996,1.9235383778596618,1.0424415031050314,-0.5963796712177112,-1.4374616048468252,-8.478060548210461,-2.478409302327228,-1.1343633622284104,-4.615592582185245,-2.438229875333977,-1.6948145366506013,1.0744359239257473,0.24017934675661762,3.9701186463135656
11,0.10347120600635762,1.04699257665453,-0.9971020981703954,-3.0007795026564823,0.6611850525626025,-5.7123847550491345,-1.4634720291716794,-4.2375613804742285,-0.4357975716199261,-2.3573637458385837,4.079255228879673,1.8966447693136732,3.5983362349247563,4.383447970179589
12,-0.6428447192738129,1.0722695728533935,-0.1507458805241088,0.20811306758805193,2.192421997674934,1.0338725835429412,0.7382410536521996,-2.339399965794923,6.132429306290215,0.6634312353040429,8.038917035661825,1.8042452880634579,4.356149918156988,2.4656732061174873
13,-1.18610287764166,-0.5318464151310934,0.34336162189178376,2.1325345752100784,0.18997324483397338,5.655309719076995,1.4055531628765447,1.5439979940865225,8.916742991497689,3.3669353834120064,3.6749761449090115,-0.722435768927317,2.138874812228716,-2.535470603820829
14,-2.062738381425143,-3.1957894443485437,-1.235130794725898,-1.0096025237551056,-2.6234299569408077,4.813892782695949,0.05208905437175415,2.4951330186789042,4.220169063929968,2.951128293470272,-5.942364787955245,-3.355595570534863,-1.1647244803846304,-6.578167874140195
15,-1.9527457339922418,-2.9181008049819286,-2.2102469640466738,-3.9683733146414184,-2.0554351505167214,1.4274304748561355,-0.7635514972149056,0.4722465936438466,-3.8174026580190437,-0.1286071063344465,-10.448525619801842,-2.254078313613054,-4.295827228940194,-5.473161748147299
16,-0.016598609449219155,0.5054655417556595,-0.6354714055608987,-1.5731507959886053,0.9894377714807654,-0.043802588976944806,0.8391610633311377,-0.9253214459412307,-7.901329886966093,-3.2432640310758174,-4.748665637508615,1.724514511374625,-6.24079694449633,-0.5037325811757188
17,2.047956863484512,2.0958884469801493,1.150052172563641,2.899084743172651,2.207914003341616,-0.019782509807157775,2.6492370932611253,-0.35862653096544106,-6.079298998779303,-4.351010258856704,4.589172711772638,3.2105265734574777,-4.750621307097019,3.41442508878555
18,2.1263713252094587,-0.09476333707303083,0.6928840743470541,3.2457874998569554,0.540530327554943,-2.0708836565814397,0.9339482175707571,0.20701466238660124,-2.3656599671538068,-3.06244066698238,7.7149527115072285,-0.03618438247658047,1.1190936714227773,3.7647800289002795
19,0.7236982628029701,-1.3678272252461503,-0.25430276118907547,-0.19575504005712657,-0.9986914620462544,-5.596967634006861,-3.602997064880485,-0.2605299366751947,0.369342004089893,0.13420349602343917,3.2182294618338774,-3.4189288647781235,7.598977517911379,2.173902004172582
20,-0.0019962428715087424,1.6791010162662567,1.0995894897165592,-1.8943347098160301,-0.5240964683429119,-5.088031056666855,-5.261052154105642,-0.09842805668731908,3.859449122739915,4.253596349935944,-1.7943586454774767,-1.8486250824946866,8.96023950085409,1.106467412886958
21,0.2999443723208844,4.851221420835774,3.1889784047913388,0.1804891189022073,0.5144535108538695,1.5773115535618847,-0.6324830826784188,1.5688314719553247,8.905090897095256,7.083258328744036,-1.7457580369882795,2.8802636157153687,3.9264935967418397,0.9640853142008313
22,-0.32996060571636465,2.3951433032755896,1.6817512459872475,2.0932194460042046,0.5456142693903587,8.21545806442054,5.586757350910004,2.2747016209847453,10.276714088367113,5.599366992751293,1.0237494454423166,4.305868909699078,-3.316956113727208,0.15594127046336903
23,-2.7056540399475577,-4.120679304124463,-3.6265824218386706,0.252760425521516,0.018246719432372834,7.262718369299183,5.6139493756608925,-0.4871762909904588,2.349696144637779,-0.9872121177334123,0.6993173700723107,0.021656742691963424,-8.025723957961398,-2.771639613002918
24,-4.118699575871634,-7.408166811388008,-6.799589643919902,-3.308271189933325,-0.3652710246892512,-0.5250977425154711,-0.8512874542933647,-4.562833675719506,-10.824045091339823,-8.614968272269904,-3.5305330874025365,-4.858878988828435,-8.01054940238943,-6.198341948218753
25,-1.181863083254044,-3.536088537266478,-2.658964226330652,-3.621629249804543,-0.802755688159052,-6.929719779667715,-5.446088959259149,-4.7117523831423345,-16.828144604342757,-10.571450544195299,-5.901530525796567,-3.927113783931829,-3.1399945119028483,-5.194845813055677
26,4.906943997062536,3.7197328104485945,5.597252581447526,0.5627074725754488,-0.962843537849595,-6.127021462139844,-2.4796514297554224,0.46814262038763055,-8.80134054261262,-3.8132680437242694,-1.5637531296971445,2.3607911414492486,4.175571225363956,2.523358450176574
27,7.8486607400796435,7.220466912630956,8.641251782664648,4.733832486820939,0.07562539007893015,-0.5234681715475697,2.93604403967543,5.73431899583341,5.776790579950257,6.726855179847623,6.090705452811995,6.561965663190024,8.50243929278449,10.39393152386487
28,2.981692026667064,3.701702714755713,2.139298536931747,3.919532871581698,1.5839373866231483,3.5598400439317346,2.533677864400025,5.31386917667407,13.58347090735849,11.464089944826322,8.353169754015886,2.930871521689445,5.769908386887242,8.256472044402251
29,-5.951956642286408,-2.962758891113603,-6.845810451389528,-1.070807038502807,1.386283939043364,3.3343357654305503,-2.5584321735005293,0.22404279255986095,10.214068047850102,5.750136308753053,1.9477248106804503,-4.9876900834278795,-1.2955919558903084,-3.6789728072444126
30,-9.625883673762786,-5.641815153950355,-7.926222461982374,-4.501303083830085,-0.6546124025429547,1.1050557170521682,-3.6354407641877895,-3.3234366141340135,2.5394686948091088,-4.14360377366327,-6.2169372974272985,-7.880895716901534,-5.5733986658628965,-12.036057687311056
31,-3.9757684666782147,-1.907931700918938,-0.612725413950344,-2.8046858800691425,-1.8058872000035702,-0.16739849875280655,1.820901138295423,-2.3297326180575335,-2.2210248286763745,-7.6020881913847225,-7.379811897873678,-2.1555440167632303,-3.8793068987810315,-6.631965287722877
32,4.560232970807449,3.0207731666669932,5.504160179797052,1.3617894339846022,-0.42653083706482214,-0.48336064741542173,5.811564009912955,-0.34113636613073156,-4.423008266195265,-2.587795063247385,-1.466281055607927,5.369877571571065,0.16181866962546645,5.388380639991378
33,7.266889767159574,3.1579459417877485,4.260616198652615,3.1686943017123097,1.4732133699980365,-1.3771845553850257,1.908915754485163,-1.1311486708129537,-7.210926659911188,2.466895527618421,4.255807451552046,6.476137912532241,1.9824977328075346,9.194323749926589
34,3.857477178375722,-0.3466977113913783,0.339481343255968,1.605558666440726,1.262329087712347,-2.5034246352322156,-4.837713966800561,-2.5263665309574383,-8.579963783205061,1.3361068277872157,5.1275061177040815,1.9426182995108283,1.4806187450677366,2.5437144905011837
35,0.5216694687385852,-1.734075715829865,0.06858540151497158,-0.5570246703531347,-0.5066864063050757,-1.6673128884937838,-5.2360357950958765,-0.1490517250318743,-3.77552894392597,-1.5398471606464348,2.865713245825737,-1.267799467821178,1.026655171950297,-3.2284926742060804
36,-0.599241324223085,0.31606087801082783,1.1606591456598474,-1.2964131251932682,-1.2796102310228863,1.540621931696796,0.8982035171859339,4.551916772362333,5.408050122792704,0.13693292690406178,-0.0126107879450095,-0.9278537179200133,0.8205010251562975,-1.7231944165289363
37,-3.1479062772105357,1.15684598752997,-1.9874988278033394,-1.181387369323792,-0.4016231466410367,4.032205798882448,5.139006728295407,5.15526390250449,10.145174022688478,3.3217082342392636,-3.6749513425525278,-1.5268309466342749,-0.7506674562644727,0.2734754424831459
38,-7.261226848262583,-1.7151638439330068,-6.926022486289444,-1.0505529391135593,0.3426336183359805,2.740836542653972,2.60493987259223,-0.2076399406719242,5.942408720649365,1.1411787432933533,-7.007324856299454,-4.969681335635659,-3.042412603890482,-3.358476764781735
39,-6.403486180505768,-4.014994927400996,-5.473611595656343,-0.45429273044305607,-0.11287907786817504,-1.1248846120277793,-2.3814149318551165,-5.226253165131039,-0.8203773279337108,-4.270551708853001,-5.49708940936353,-5.891847500883335,-2.9246906364413476,-6.473990629766415
40,2.219807710094711,-1.054810377957008,3.1059594141438223,0.8291970124646497,-0.5648906358246789,-3.4384173586456717,-3.740453590865445,-3.9157904998629633,-2.1686956799104444,-4.225771119611296,2.4666981141451063,-0.04926725995919107,0.37630847585846045,-0.9507095278212597
41,10.282389016468919,4.566536238258938,9.227990530473527,1.6132179791352927,0.17586614611715498,-2.4471863220496792,-1.4391001756909871,1.3212618919298018,0.14703506214811973,2.1884250389707787,10.141244184743043,7.443896512920554,3.2524913012136967,8.38461026895174
42,8.136993442637586,5.881492705673077,5.822505974154577,0.9332180086943647,1.2244800331235157,-0.347641207016721,0.9365987445491732,3.7967324037656,-1.06489630417334,6.199187434533492,8.807534275923409,8.129990447071869,2.755266449070577,9.415971853027422
43,-1.4112717455219792,1.065951875557387,-2.0981927360816752,-0.22856117041437757,1.1260427512809303,0.6254577370934619,2.230450563784282,1.692548289911335,-5.954607715259391,3.0984772313066213,-0.6868939325747386,2.0440893898616825,1.0039894368967404,0.732695333592677
44,-6.617241824493445,-4.164431522271376,-4.97773470748284,-0.24985056967170763,0.16336099914753135,0.9969827048577989,3.169331561778544,-1.158485601391492,-7.254024855324023,-1.5839122992947263,-8.022284855924475,-2.959394211006328,1.190199841270104,-6.29281504079071
45,-3.0405681797196698,-4.321624054635724,-1.6377984449596343,0.5747057829497216,-0.4309049433499026,1.8437297358318532,2.5404258717571877,-1.8403609372835734,-1.7405647629494285,-2.617537639696032,-6.479426352982488,-3.0540930913061253,1.4302497880009202,-4.3654048131969905
46,1.5075006724587265,-0.7260442366208308,0.8637498730868879,0.2932979247237416,-0.6925337642542667,2.2440061849444777,-1.0961174589816605,-1.215750884217543,5.294466871288775,-2.6518194584056345,-0.7346738629734061,-2.5262097394309144,-2.3566992368789514,0.16124755769301385
47,-0.16954852914677576,1.5750495316264501,-1.419158674274052,-1.601207108908981,-1.3866356069410075,0.881617099500069,-5.044205010290673,-0.6773572303629171,7.970215139283271,-4.477120556203408,1.4645246257400688,-4.559884743850358,-8.014625664451536,-1.1748314745596742
48,-4.206300024567593,0.7962555451790247,-4.0739414207098035,-2.7870933710928325,-1.720216404317614,-1.3766934619689057,-4.763504808232064,-0.018536960776868158,6.036572029294097,-3.9941379997767674,0.17748969565712722,-5.013596170955232,-7.565958190416813,-5.217796738682087
49,-2.7023797144837896,-0.46976286328832284,-1.6699191542623384,-1.0582912446142039,-0.1032223696232003,-2.5407693067814034,-0.4527917100231318,0.9676768167337788,1.9025278670228822,2.33803996982572,0.5823976938466057,0.4352070413885458,1.7449719420882943,-2.4265709315350756
50,3.862629109613643,0.13822948489167747,4.204388038264909,2.2357234448460277,2.5247868513671565,-2.1690032056845103,3.1395769661546034,1.6615829791104242,-2.9064153079325825,9.132212278865227,3.381456163396708,7.934462281568317,11.507601570823528,7.363861934437854
51,7.477322356087476,1.7533564175711867,7.152623617489295,3.4594451343748225,2.8901739223813157,-1.1839063366037157,3.6177378627283123,1.8034946029347556,-6.412608645602638,8.411043458195316,4.364373801055354,9.506856615746276,11.170720583610562,12.666970625460596
52,3.8914310780639574,1.8928357368468125,3.88324336344124,1.2438096591149082,0.0206907233356525,0.09385734628762932,2.9249607529153647,1.4233666186403264,-6.079527950973602,0.5645339471433011,1.6601405688006767,3.1494742545460084,0.7357162748958885,5.369617834541077
53,-2.652070743423273,-0.45640670181462456,-2.6412227765987657,-1.9231808935175112,-2.8097765443499556,1.7881769371504899,1.9897940940997811,-0.08527801970805479,-2.3765682134581376,-6.996964566840533,-2.2837416151547987,-5.249177174521375,-9.356388348333324,-7.968423320238185
54,-5.864709371466447,-3.288467119386299,-6.73569929859285,-2.8129287995859955,-2.3106849123553443,3.000138829276832,-0.9948550645835821,-2.68122772169856,1.0982749871107136,-9.025683330016124,-4.83953063083636,-8.804440880536147,-10.224993405113745,-13.757014684257587
55,-4.014265661830964,-2.83023194311513,-5.018000267859741,-0.7192547751647153,0.6659473764289311,2.5319886943249483,-5.060274581841114,-4.124495307294222,2.7673046549932026,-5.344744171981947,-4.732387519296962,-5.472630677066887,-3.0270330135897416,-7.1112116086662285
56,0.40877373515176196,2.0060082067416922,0.8566596928456823,2.3616576294464067,2.6784963742989003,0.742477377632844,-5.047530082080352,-2.2035408225133817,4.552734978135273,1.7631077923379508,-1.2149973842778685,1.5221165074631005,4.549295228806807,4.154971967779745
57,3.7385625607881825,6.124429676883996,5.231427240611359,3.3931497611766273,1.809683999824388,-1.1057409113014571,0.5194091998466508,1.7062376315589127,6.315786306893796,7.725266503441538,3.7489753786791677,6.213173602448795,6.712176342505049,9.626574634726365
58,3.1385451406175546,2.895293194998661,3.697642166140837,0.6412493488825247,-0.9106242508274566,-2.7617622259782566,5.06454529529271,3.669833143035274,3.6805394888800835,6.865426482575953,4.982606482710108,4.353408573547199,3.3643158151544044,6.413907483083623
59,-1.012625138402643,-5.839357548440288,-1.6279049629025895,-3.868132666855148,-2.9086161539616766,-4.2112406744017425,2.5882070475908736,2.1034887418675807,-4.492470260290447,-0.5105162922098225,0.8691836869424848,-1.7036648799262593,-1.4415054269467868,-0.4350865416998157
60,-4.114895177593015,-9.368934217419673,-4.098282472916002,-5.196165549078769,-2.2346894387668987,-3.7657592533094033,-2.999258072568663,-0.32492966569561565,-10.726398296587076,-5.514241446983454,-2.5274384918201465,-4.373244009562722,-3.159365165517942,-4.301525357256417
61,-1.9785451331338704,-1.9121077682175072,-0.9983195579435142,-1.1915496754915549,0.6050600794908767,0.22797288724500883,-3.236313482990302,-0.527196714575914,-7.137168888486718,-1.832094938227247,-0.11250481904788026,-0.2707308523038084,-0.9502628775763162,-3.000893504309917
62,3.2021505134282786,8.124838041940688,2.9198341915815758,3.9228932206244314,2.8295708449750387,5.69842577749887,2.3335015289471106,0.9009442451907371,3.2302781603609363,4.002261726982327,3.2810263828044164,4.429262669094461,1.1431854295910293,0.057005859184055284
63,5.048848183537768,8.893494024152018,2.508475541835451,4.724179137783003,2.3021139514981983,7.6291957934166055,5.606892052976846,0.9212095644411934,9.540833582064508,1.7616066623323634,0.2791796356635361,2.564898557350136,-0.4571413085070461,0.3671577234172096
64,1.4915064442235382,0.9893454470681543,-0.6173842150046333,1.7614141707600965,-0.05420520235778206,3.528289331395209,1.8363198201937085,-1.4482995121615836,6.670720890248436,-5.959694318464562,-6.0688420467534465,-3.1700333508303693,-3.0291626249457724,-1.9328523161183573
65,-2.914962585313829,-5.049213758012649,-1.661737835201513,-0.44072982398745086,-1.653467892853692,-3.4536332459750105,-4.141783864513622,-3.7183995783096,-0.2561599563731623,-6.78059515706002,-6.017366740990973,-4.42000993978222,-1.1533388924118722,-2.2619254813717373
66,-3.8646348425642856,-4.239555987981844,-0.37827795290977817,-0.8879902588748247,-1.4053144951361225,-7.594818682185113,-5.432077257550355,-3.1404424061169762,-4.409205626600162,2.2772131893131404,1.6674779425677615,-0.11846499097395069,4.16857549084589,1.697387194049602
67,-2.2023632816282257,-1.4137593874419878,-0.2073757950884095,-2.268619679332217,-0.37177767274781237,-5.951809514223408,-1.88507349650448,0.10382153946579459,-4.51513656655613,9.561940137704255,7.575872619292722,2.587823149701522,5.53578729164634,5.701502519258012
68,-0.45087983191003184,-0.7870545837482892,-1.3936812987166631,-4.2180145433316705,0.19234479347217195,-0.53762720153063,1.6599232575820635,3.4065793199625043,-2.7737633041999414,5.697623901524613,5.285452913591407,0.3015820655827505,-0.12363241749668738,3.9942446519864627
69,1.3241824217633245,-0.1382836459067962,-0.6226943247559881,-2.6156001603248544,0.22827517799271024,4.024512132547013,2.529361524832707,4.361131341847776,-0.5743732213877167,-3.566359397293383,-0.9322429670290898,-1.7409498205882885,-6.090069911798711,-2.30237026685127
70,3.431928465426675,2.5830464844444045,2.393351070225391,2.8709907098188006,0.32605486678021744,4.821174250043357,1.9562744158487166,2.4207444324985783,1.4768085267082751,-6.788534025145064,-3.976008525473035,0.8727503313916208,-4.697250536132162,-5.7157132661050545
71,3.6434966264191746,3.9966960422016076,3.280865543140944,5.980264795790845,0.6344502582853716,2.828884947354374,1.3779628196184752,-0.9936255536627357,2.3276128944069563,-2.525519966525366,-3.044975154788457,4.1548965117767915,1.883036679145671,-2.5797010168567094
72,0.12246084304749225,0.7812040240073909,-0.28243916393667745,2.1287536253656913,0.6465588988248677,0.7480435129437575,0.5515159445359057,-3.3547289494977934,1.670512835251779,1.291334300114448,-1.66661448337504,2.0964097189349205,4.662598103873976,1.6341955749244317
73,-4.3091369218111755,-3.8115956544514504,-4.259354455186139,-4.024138176735593,-0.0525360310809093,-0.601984292238314,-0.7441044116877811,-2.881300395778765,0.9992325422955224,0.40410748391112544,-0.94666192290377,-3.625443166518489,0.6154168291427682,0.8612216962231477
74,-4.594249413935776,-3.6639924254050626,-3.4113636231856845,-4.122020681946329,-0.9598362017176302,-2.2774359879833415,-1.6835080904964677,-0.3286619968730275,1.6834114558540556,-0.724843598936443,0.8643308079557875,-5.659879652140967,-3.2212534598469924,-1.802387910685249
75,-0.042753324379279395,1.5114792992477868,1.6224007210178504,1.9825691202997062,-0.9728315135668406,-3.965219270932901,-1.6420358987543355,1.6228663422308514,2.5100463020401658,2.3685012206333202,3.6187108587737913,-1.249578571430827,-0.47814497196753336,0.5582407721305099
76,4.495402761551992,5.355236277755716,5.225643429320594,5.482842871464237,0.09752928821553132,-3.3406051373238106,-0.969006195695867,1.298057156037727,0.6340159604084076,6.1960962890080244,4.255942411690417,4.244075348395192,4.804298900227968,6.105770692151199
77,4.532746299919852,2.9965576660843465,3.6768701808066893,1.111843516679914,0.9104712055126193,0.23394690413430438,-0.10629713202034685,-0.26889867734356926,-4.5260106813979855,3.9400541324993714,1.185432640722231,4.609750139213215,4.089346298276081,5.695991701900382
78,0.6060701795666583,-3.081310953049343,-1.232178300775261,-5.259322995354245,0.39727947864067237,3.698064295399231,0.9264789555044046,-0.9864127470089723,-8.951568231908874,-4.313171327281227,-3.1363166538280733,0.17656276138156168,-2.9745412824646955,-2.5969995980798948
79,-3.488918048588448,-6.394842529977213,-4.964499750595033,-5.310685865555993,-0.4155237826470157,3.9332777063449234,1.7915184457329587,-0.2392864636936179,-6.906735958823272,-10.2613899820228,-5.071554637622095,-3.597227007532851,-7.930608860271088,-9.117357811714138
80,-4.858150654555783,-3.8372066781607432,-4.72546473733108,0.08707343799824717,0.0573680028803249,1.6876568338179556,1.554389213800745,0.8843730190441347,2.445358854827177,-6.998399638233143,-3.423474943862833,-3.019630155143421,-5.050949515476717,-6.136395611379032
81,-3.0728531015537195,1.5258731130174845,-1.2675524473613486,3.498431112299553,0.9993557713607717,-0.30580645240592097,-0.16247718787210932,1.1989771486506033,11.78580867476237,2.774789510667339,0.2921021840607845,0.2223626558718061,2.0908888095364038,1.5837432008241894
82,0.5789995519884518,4.539569251368256,2.4956649101955115,2.312315103132993,0.1626509425976942,-1.4819696396397284,-2.0605023690725566,0.5291327474151061,11.820611224533751,9.867112440996474,3.577385001996119,2.1191069183401874,6.536256710931636,4.939813370551234
83,4.113063026866719,3.8047430624757306,4.341909605757044,0.9696626430571793,-1.9300914793927377,-2.836722097772263,-1.9281616005807245,-0.39008871967161685,2.0021093809675166,8.518247055982588,4.614912044438041,1.4758368092778527,5.809299249994027,3.371039397436649
84,5.634123956467079,2.1249387137836346,4.1320939851225225,2.1839013960187055,-1.8722861152423453,-3.373215906222762,0.7861831411226509,-0.7129270346914912,-7.854858758263413,1.2554357315696276,3.159267629187519,0.48252347510925303,2.013532536705488,2.536331135564926
85,3.942656533145085,1.2005931495965776,2.3414674183659328,2.3160533142717927,1.1486384021210645,-0.9486423887034043,3.3023685711008066,-0.41456057956844583,-8.999308357084267,-5.371183495390055,0.06409341771655622,0.5248648465399935,-2.2121986896251946,2.9457944395967304
86,-0.7282724122859601,-0.8842546999407087,-1.1338263093282615,-1.9093303938724862,3.116260436602156,3.1893787576024817,1.954752270720057,-0.2633425018571274,-3.5700166935057083,-7.296213378851503,-3.459755446325448,0.12583678887903338,-4.992919737372459,-0.1946419208348897
87,-5.84386709677223,-4.8355491409525415,-5.18600837403731,-6.666473129416191,0.9878809063934358,4.5076419119069016,-2.7116844860855256,-0.5502874682637341,0.46583631582397944,-4.771894764277681,-5.4401576478721365,-1.730158925114607,-4.733198282320363,-6.315704973376339
88,-7.4279173196359345,-6.623300241490345,-6.490832897091715,-5.630888625050814,-2.352482616936812,1.2048786381579661,-5.197700824834457,-0.6033002825904913,0.6422804682835931,-0.31971942530017045,-3.821998524655987,-3.013774764370303,-1.4287433235137037,-7.7398831644722845
89,-3.5862092111717185,-2.812974335071759,-2.9601998268000753,0.7532336366631122,-2.357826266109106,-2.883185629379687,-1.7111373574530884,-0.1168237969832846,0.8754475499710093,3.409330087358342,0.6123922654211068,-1.5757143515404117,2.3135704362461733,-1.2476767664560557
90,2.9982845548357258,3.4843890010579797,2.9761258716798578,5.732417141501796,0.48209216818246337,-3.2081333037576725,4.0582601626147765,0.30445353249924917,3.272760031875867,4.967571992882313,4.1597480852121045,1.5282023408446164,3.755010524381861,6.1011881823335905
91,7.280597493235893,6.391111636575358,6.65437241225878,5.492532374138562,2.057143818033454,-0.1027331286400855,5.244482882906796,0.6614954047761318,5.1180895110652465,4.546725818248781,4.82853604952751,3.60672583159225,2.8352736008825414,6.724745708232903
92,6.254566632674964,4.690116608497416,5.621586462968756,2.5844375370506736,0.9450283392686244,2.3662208614333404,0.9466432872694753,1.712144402949024,3.7054622235726864,2.594367751041816,3.890439242638239,3.2802112216998296,0.9197292827095658,2.037488080489324
93,0.8973076008299534,1.40249354184862,0.8493903660988708,-0.24489958059267986,-0.5858279213232195,1.6385841106074555,-3.0601485831341,2.562555595895634,-0.42275156992515994,-1.4167918822577716,1.4381778280704238,0.6582116887844547,-1.5680746585821976,-2.0513301095574894
94,-4.76122486694402,-1.6182468723919612,-4.268249618307375,-3.4124321190246927,-0.8529065768696557,-0.845245052258438,-2.688151105594802,0.764745010726953,-4.931793851036978,-6.759359454020582,-4.083204722737044,-2.9569572838467426,-3.7852054219555926,-3.566582288676273
95,-6.172384603554022,-4.197123400806974,-5.506807780086991,-5.901375269717327,-0.5179891460145672,-1.8803992153022346,-0.1655683938939571,-3.328900140310559,-7.056633936827346,-8.920436791031293,-9.36486018536977,-4.645498030314018,-2.8894334661108454,-3.523729943495633
96,-2.169836453063092,-4.845726423620881,-1.6218999157821965,-3.9340648078280607,-0.3648972370964152,-0.4205276915194041,0.7339264925456921,-5.200637258908123,-4.460237922570817,-3.51610081313869,-6.66323935307077,-2.183175983603006,2.0072654495067,-1.535758715267077
97,2.894509576730475,-2.070053059095904,2.7514839747147044,2.16758310187547,-0.08725929707171422,1.1928645282136554,0.0031669483681477373,-1.9094636591695853,1.936619088682195,6.424436821405342,4.120826746436636,2.186725318369516,5.709423016419185,2.0899440691276094
98,3.3929216778972044,1.970568493417036,1.9683574770951502,5.695396196872813,0.5240255935373588,0.6035637549422103,-0.1586891166593583,3.1983370136037608,6.930337837788964,11.51805562670728,11.15045959261761,3.5453270723445915,2.3084850477558865,3.68587445416493
99,-0.41103125501564747,3.3061918196891082,-2.2281169265193004,2.6741797288382383,0.9642830147424755,-0.8211958910169417,0.64304336756313,4.617010354503624,6.024443704130934,6.689474261750244,5.7862360919439055,0.9781366011220679,-5.253713909178302,1.133943475032588
100,-2.5075740657297594,1.6522519486697633,-2.4221942016057163,-1.8613376476123658,0.7724074534040029,-0.1236008375855372,0.9776717148385377,1.722728625483235,0.7603387367291066,-2.674371225319979,-4.242330427349579,-1.131481797383709,-7.171809422345293,-1.6422945552080699
101,0.3111998760159956,0.4410596786755199,2.923759996260869,-1.6941795522576861,-0.012745641843623132,1.759894507081045,0.16275131178421043,-1.4078362820206047,-3.5224993807115177,-7.708226212311939,-5.714570166581673,0.020844924937838023,-0.08091737759277595,-0.4140715099056012
102,3.793031016806527,1.1677345541119333,6.092395829486665,1.280858620695078,-0.9509340030036131,0.7480260090391933,-0.9985146633582512,-1.9158444197096816,-4.140141451409228,-6.1054273164925945,0.8031336458352462,1.5047294728028868,7.588311324050224,2.0273932916378294
103,2.6341379080106617,1.3354176447454136,1.702662625066978,1.3887985750226135,-1.2740710811658917,-3.0942733797686737,-1.3899688442402338,-0.7699221837905466,-2.5129866309892814,-2.228313693208873,3.131216948090313,-0.04584551548398558,6.773554293220359,0.3119500607245059
104,-1.8767239802943867,-1.0128216068673945,-4.701261514422931,-1.3327817537307394,-0.48591855551757923,-3.858643460947867,-0.41611160712647727,0.015101779422978315,-0.38931665803114307,0.26010771324061177,-2.9544785949821257,-2.6842954227217546,-0.7438731125806542,-3.8864914710464937
105,-4.244261369559319,-3.8785097020873884,-5.053319419163181,-2.5301652343224825,0.7144915825961741,1.4706412881064548,1.5570185484314552,-0.013597090996744554,1.8315327197044473,1.8892984318571069,-7.509214066617546,-2.4193393175780256,-6.173167394445525,-3.7540122319723053
106,-2.513974357182637,-4.027722362305138,-0.5576667316359872,-1.4279704009106038,0.9831650701511873,6.822972647857204,2.7879868203193037,-0.20893700715596222,3.1687011362066153,3.9225275586326274,-2.0621630380309637,0.37530622267040603,-5.199070037773401,1.4767690399610707
107,0.30889565670384245,-1.0039187321493257,1.6672883673568877,-0.5812341737598692,0.21250854420876258,4.604415495714783,1.3863358465571984,-0.07321435790671904,1.9853082912957254,4.945706688250873,7.59118030726541,1.9532637149071046,-0.9628711298664612,4.665970855100809
108,1.5395155500956297,2.9207789592179463,0.19112458718943054,0.21368656949820886,-0.24967006509952047,-3.1731549662305527,-1.9826410551839662,0.40738621734164454,-1.0966660971668765,2.7220648805474297,9.599567662546725,1.1143988153841666,2.0921038302733135,1.809253372351686
109,1.700422645314151,5.095753519584854,-0.09397612709182226,2.8712126211041804,0.17664780481388082,-7.3975390719593985,-3.997460193269877,0.796244114135771,-2.811961620181476,-1.861839851109139,1.899023993679447,0.12324650324375153,2.722781196783619,-2.06192603190712
110,1.8794356544453574,3.8136670119730893,2.4111538311515726,4.981420281432853,0.28332330846654485,-4.4482044162320475,-2.5714331446617003,0.5418659520646703,-1.1986825129499843,-4.818028967196711,-6.178898621346671,0.32478733949387334,1.9915350324066463,-1.490256047466463
111,1.409709864289019,-0.639676757596522,3.359641285166846,1.9834724783825957,-0.6436507713259546,0.514512157042515,0.6217098008241595,-0.24186750398205795,1.8146966007961882,-3.5494353171763255,-6.535765337935603,0.5039112847711178,1.36545346137357,1.1625596796970956
112,-0.3702997198991584,-4.849743588493478,0.37194388557827784,-4.291762729385351,-1.0786074757469548,3.1161088640663515,2.7577030412611725,-0.7098103455094928,2.842408283460873,-0.04629031616479086,-1.2396756517672076,-0.205182282149115,1.5132912180050575,1.055111558882068
113,-2.052819285882137,-4.471071814315409,-2.838454437698306,-6.223112869941114,0.293132273078348,4.757967802723144,3.1102815889613233,-0.4158067307686378,0.658438673486845,1.6007201144224024,2.3341466642264397,-0.7985429193449551,1.0502995072759185,-0.7992256515373192
114,-1.7783081318861382,0.3103465837806132,-2.644157230949242,-1.3688106499693318,1.6702012332743064,5.838399940564154,2.2299112955721703,0.08003713898530926,-3.0354356315748685,0.27972595331371153,1.4369728279929648,-0.5267466055782472,-2.126843189947509,-0.7146013391369893
115,-0.09360357979620494,3.7765484564072453,-0.7938770766867638,3.530636146531231,0.47743131458413196,2.4467920849482585,0.15141797040800187,0.17327218596302682,-4.813719120348955,-1.0434858899165829,-0.2750678826018278,-0.2702195897288533,-6.388126040553732,0.16732302487778616
116,0.5943954397937156,1.8905161419513024,-0.4357670204518407,2.610539219827141,-2.0057309404715657,-5.378546905926658,-2.5015443856099764,0.07420764150185326,-1.8253735204516632,0.4845877290192495,0.5096710903359033,-0.7594562159145634,-6.058401085844894,-1.3849920012362826
117,-0.558168798752869,-1.9202014782010999,-0.7092950723709737,-0.8179949642373215,-1.8526928621627625,-9.547853357869219,-3.5933187234535002,0.1517215042935328,4.486414817969072,3.5299579694923198,2.0768314980841547,-1.050111978742752,1.0186835818929798,-3.119950778317144
118,-1.4206431416169254,-1.901359603192052,0.942461654251388,-0.6392900492072406,1.2975673143406512,-4.525011649124281,-1.9566680673474148,0.14680590260197068,7.537755199888144,3.8091808254115938,0.998039221318731,0.006274274756752695,8.252406564906293,-0.2457572567564213
119,0.254329418165062,1.406369226654476,3.46735085448955,2.0774885199969555,3.030866772540362,3.7173157860200017,0.6225498133981355,-0.22416741854809,2.482433550616338,-0.43600826210006893,-2.2490512253157977,1.77882987981916,7.4337348627118836,5.070472522217389
120,3.249120781467885,2.5765123272418076,3.224250452704613,1.6940371718752736,0.694356636533511,6.1219733508957495,1.8292025188195071,-0.4718925092156303,-5.987338907782866,-5.258290686353673,-3.4476157094711,2.475752352514787,-0.30239503287482816,5.30255575937079
121,3.656121146214016,0.018014351298585127,-0.37941644666946406,-2.0245218544353483,-2.4138215133681302,3.100240171067751,1.8089541262457178,0.0011231000927112568,-7.738032110486842,-4.981637332115286,-0.26982616391454306,1.2496085833237764,-5.765221038241,-0.576920268238512
122,-0.03869318996691175,-2.181227573864804,-3.6208371760145415,-3.51512236430312,-2.0042003603652176,1.2618907308080551,1.8154120332141055,0.7775912640923943,-0.4429669488434845,0.5508320561479787,4.144560719226532,-0.9611325021819281,-3.7785077745904125,-4.859423914405234
123,-4.027601333162991,-1.2459908401997313,-3.249053463448004,-0.659218129199953,0.8510223805515701,1.4438503533349103,1.3389638333338754,0.803427078796108,6.549589407638846,4.993957816498495,4.451793395869904,-2.315501151319026,1.0989954995910822,-2.8704463774950315
124,-3.5130931491086415,0.6060682516315021,-0.18889192938055377,2.175800492504213,1.7716823112418807,-1.1955745882780222,-0.8611454781312559,-0.17390502505016897,4.5162580426446395,3.1978668912977986,-0.5157616787977335,-1.6927923015271913,2.1569393618990764,0.7907556104742413
125,0.5976132297856014,0.7557593449266442,2.253570385953546,1.6452129604344548,-0.11865277641045241,-6.332891865148581,-3.5188985255199046,-1.175909276101675,-3.034520203743378,-2.096602523631412,-5.870944862976741,0.07108939849107611,-0.5993636037125256,1.0288140192205173
126,2.5726366440894592,0.05644774790557011,2.1509626437097142,0.06259642721559855,-1.3394912672610066,-6.806932130399368,-3.4601245806489276,-1.105773067706952,-5.565504958944605,-3.807573054048915,-5.749309962454686,0.9154786422657443,-2.0654067571776884,-0.25392570451081475
127,0.05353166441197853,0.0742617879072685,0.10557076305793402,0.09059364848130223,0.034851162746714626,0.06990723754445764,-0.003211120745066999,0.04304301622481991,0.0902447887587244,0.12708536212407015,0.20911997032554772,0.11775026138616179,-0.042340401426717245,0.16347309949825695
