,AF3,F7,F3,FC5,T7,P7,O1,O2,P8,T8,FC6,F4,F8,AF4
0,-0.0674354792602009,0.052856510738677025,-0.013047902171507296,0.018310921409864032,0.0425048837503641,0.029206473030765567,0.0020884511084643953,0.010589912563053867,0.012875638106407922,0.08590490084288192,0.03349188692735103,0.019791311133734335,0.020900606437678167,-0.012117898651877436
1,8.357277922326238,7.360444523522461,6.305698563513283,2.4881363573565722,6.599598303283674,2.5735951540808713,4.297488723611731,4.110097203897771,4.85007708889827,5.409031697144019,-2.817632392407988,0.38512633093937004,-0.5697190432090464,4.288773669255268
2,8.511396833267296,5.260500696492594,6.531685149345717,2.0179428946897926,5.83949876623715,1.883600663415462,3.3201922889700595,4.337568437391917,5.264094970054108,5.591839314277854,-2.6990208761413017,-0.15722886320195972,-0.15664856892021548,4.785340916320831
3,1.7886911105587953,-2.957861209573716,1.058751076198129,-1.5741358919746538,-0.5757950846269569,-1.2702248611832692,-1.4134357556609174,1.3621936663961418,1.7550569231259074,1.467382310723732,-0.5349653233496087,-1.2321738533720814,-0.041218932589130994,2.2938238029799467
4,-3.759011777459592,-6.412664075428605,-4.160224380234731,-4.497833683258676,-4.704238744511025,-3.065944940133809,-3.7792270671113912,-1.1288851072772372,-1.3262361995316851,-1.9647686602176468,1.1611839301755862,-1.4450376423259967,-1.0443489324796418,-0.07550115788174486
5,-4.160371706743814,-1.6311083640927748,-4.694996471649752,-2.5666859497259633,-2.71647232930486,-1.5068026698020744,-1.300842044336001,-1.590278519171156,-1.570132776952569,-2.145703642461595,1.7033959215807775,-0.3438530678157315,-1.0960522437223572,-2.0158792665563032
6,-2.6826524312257605,3.909731060536587,-1.9388886166677022,2.825428737673104,1.0995998010749857,1.1671723588604725,1.9337387312512109,-1.808660272095998,-1.1492184090951476,-1.112825855402751,1.222624344460443,0.6314778852632372,1.2333561568442653,-4.921221232048309
7,-2.4655505697242357,3.2568706259497233,0.3456334653569727,5.271852157453905,1.4738077307774424,1.937815647349334,1.7534919913727216,-2.703945662856574,-2.4085353972326633,-1.086895654102856,-0.514880592512068,0.3450966712383836,3.1303811087335918,-6.475968530765016
8,-1.459980800047905,-1.1365085609207222,1.3434225988698307,1.8337611813198371,-0.633797976964007,1.1056788209763084,-0.2022189786659748,-2.0975071639511085,-3.412308529280743,-1.282002815926537,-2.0367422388579075,0.16474493942859186,1.1584806566601424,-1.9436613347949037
9,2.6069379269647417,-2.6724180761514242,2.6034433383593067,-2.577434845026353,-0.9169458867502209,0.7556251579759322,-0.19732797553734308,1.3240322477486322,-1.0166842252422579,-0.4589497591204963,-0.6360519431813477,1.7882368403647713,-2.9119538360964863,7.252885001516473
10,6.504217212694166,-0.19174853293084143,3.747781746181244,-2.3794902528110167,1.0395356908970854,0.6681536978063439,0.9548577150522631,4.496907505316549,3.355198892969695,0.583172995234362,2.6232555956013237,3.4991250969709826,-3.713680840434769,11.701031722262508
11,5.157619573755571,1.965399170961574,2.2897162942251894,0.6490114341780205,1.76987773537599,-0.8909672466273018,-0.21638351376935439,3.665725701311559,5.020148199228614,1.1043841385185043,2.6656797616902668,1.7193008052984862,0.30661060617257285,5.066451563796448
12,-0.9643518745904043,1.1012863821472387,-2.0428407913044375,0.9095548165447889,0.05290172454253473,-2.9335903298688573,-2.885521792881358,-0.06161521049216075,2.5842656845515766,1.970372039970769,-1.7667998165021535,-3.2739167987189632,4.283900643018834,-6.618653430640661
13,-6.144738207986889,-1.035601135491907,-5.666488444919818,-2.059418988986102,-1.438682736466118,-2.3041283200668556,-2.5486642052930515,-2.42865068420898,-0.6865359996487383,2.9061548970106434,-4.704271025917776,-6.4580951758867196,2.997118679691033,-11.684582059161338
14,-6.297755435093196,-1.9219460235529247,-5.039990680872346,-3.355716721862293,-0.8475174334553484,0.979935837962717,1.338473710231349,-2.2350432616854814,-2.1439177275820547,1.4243849239594077,-1.483276159704487,-4.2989137368701975,-2.35359870014407,-6.6642642368486475
15,-2.4108309954643468,-1.1373430169613343,-0.6123222419864658,-0.460378621122648,0.35065979111275775,2.9120899267422637,3.8903015051166645,-1.8021831462353783,-2.557334501301972,-2.8214818998366176,3.6581928113628526,0.9428939704463775,-5.406753816089857,1.557166897935966
16,2.2871877813913,0.5272289673968688,4.065824792501715,3.553074256407337,0.4499911911487767,1.4275685329332708,2.231348131613472,-1.755470231006855,-2.7997607583541764,-5.59013720897945,3.714776412707803,4.813542485221759,-2.3368136793079763,5.985083257831625
17,5.467529353163201,2.0941256334067653,5.888285214663149,4.782752731406322,0.0028879998514416347,-0.619428139928552,-0.6095841849981205,-0.05544424667526851,-1.596334114638964,-3.1715324539071204,-0.7007774436157878,5.704173128139926,3.586849211195224,6.231759521869338
18,5.699106238164593,2.227660437964743,3.9942058159477365,2.718122446286205,-0.004835963612688747,-0.46033041388754153,-1.2783731169304906,3.0816226005365186,1.3499748673373742,2.1100321865243945,-3.0594740400783818,4.08968776707256,5.90895430166882,4.648808132080138
19,2.1872069379066525,0.22951773204221418,-0.4635176634991816,-0.910551802159079,0.046241571836795115,0.2625743639593964,-1.0024406969363246,3.9783974119929186,3.220506880282664,4.751418136197823,-1.1087543022767177,-0.0731610162551333,2.220580643965938,1.379004355122798
20,-3.5264768652366314,-2.270469049888503,-4.698562221597521,-4.266363979560621,-0.21642741241419464,-0.8307143759868593,-1.9458976549056728,1.0498314278424719,2.025650993206201,3.1834833430502725,0.997113863535124,-5.47114386268034,-3.543288275122964,-3.678443144592988
21,-6.908827769780123,-2.3603827927362278,-5.402992626684948,-5.312569426687708,-0.013309663481472694,-1.9838964670416877,-2.4316811703374714,-2.2910284254503295,0.1402956505605788,0.6514055629020018,0.6426486652268404,-7.356073447225955,-5.446246450787346,-7.2297919842737945
22,-4.245152045420613,0.44009108405498654,-1.7039194350925098,-2.509582866587417,0.8576252699700766,-0.19067698776732409,0.13430584934949383,-2.5253762776858166,0.3927329032471703,-0.5958342725150216,0.4425559879171869,-2.4053861290648113,-1.6523932987004095,-5.187273648820245
23,2.282577732276831,2.654777062668277,2.9329023536304177,2.491073000403806,0.8269864502334594,2.862742645638298,3.754647290658675,-0.7258939834069844,0.9466206673343893,-1.9893728994405495,2.0340454918079383,4.940077947206787,3.5577981543098365,1.222434676363837
24,5.7798010283175385,0.7623806527955616,3.8019228077043876,5.05127069458932,-1.0355546120829575,2.429974659293693,3.7410521805570767,0.04485106933308626,-1.403887453990062,-4.250284604688147,1.9517165581594116,6.272939379450972,4.289369442723604,5.440772179413507
25,2.6496192624469446,-3.42611729159549,0.5637812130066621,2.7759275227340656,-2.620361400517344,-1.8128545427916174,-0.28796601453638904,-0.4430056236282047,-4.5873113055586305,-4.292245926720614,-2.2713967774354056,0.2777628495482071,-0.0803922338447499,3.3740271948406257
26,-2.6469410306121546,-3.8228102760781097,-2.1788637014145404,-1.0788119633234055,-1.1620059196059032,-4.352726586051357,-3.3651992489077327,-0.11984390708803068,-3.4623319199383578,0.22888607846861028,-6.129102665891109,-4.99933455804952,-4.021212230788444,-1.2918778661198569
27,-3.389344203505775,1.722997759262332,-0.9411941570618841,-1.9057206770772288,2.367439431994845,-1.355472719629342,-1.9675019185735632,1.4212916169759147,1.766487472801552,5.792020664474016,-3.6171099303370067,-3.001793024417602,-2.9087355527255085,-2.215369149548492
28,0.5627034834489854,6.8973525270367135,2.049752399594421,0.03869625307661063,3.8092422054069015,3.772559697855829,1.430862636715157,2.1937430833962464,5.007958066592545,6.425723861548916,3.4438026176333882,2.8545428808987143,1.2128599393348924,1.0154245705441456
29,3.257812909574737,4.496900482744159,2.276835459420046,0.7896410832263578,1.250914287393982,4.689096798510667,2.2026418598892112,0.910149303284591,2.962142995414134,1.4179635691574317,7.012803520954989,4.833968005543112,3.091068124779754,2.9737130082755856
30,1.2893241981111057,-3.1512570738908035,-0.6296550965988484,-0.950548302249992,-2.379246921017125,0.22887933478484151,-0.33650426159446134,-1.1259149255506775,-0.7279606851934032,-3.8201605017571243,3.537750519223455,1.3090474071287614,1.5601761148054991,0.4440886389343953
31,-2.1378860754954503,-6.771083169923061,-2.7665643546301113,-2.2802774926218525,-3.243159797835205,-4.2384807822286765,-2.6951435585615515,-1.8166653800649806,-1.6465951412254727,-4.587574091174111,-1.7906444078183636,-2.7059931904802488,0.09041705689359952,-3.3667315404900244
32,-2.6594124195413418,-2.9866476128445747,-1.85298606257488,-1.0955163970924475,-1.2700540616136533,-3.6282659992416106,-2.050218013375486,-0.9423062541435996,-0.5960798256312447,-1.736417263400172,-2.9073961469029594,-3.3369378127402447,0.5647645292519453,-3.6703250989265404
33,-0.5787916889749388,1.7346610948834629,0.006193183900712145,0.9354951826582167,0.6700080961696785,0.5638977675125707,0.5786908303159328,-0.1068309427543075,-0.7883823650423031,0.8070689954362606,-0.9738125669481914,-1.7232489105743072,0.3049797433279633,-0.3958475324147595
34,0.9918100459525763,1.7540182602641117,0.40688574780103254,1.5619214299917625,1.0225177303979371,2.7049156569274495,2.306360230800353,-0.19158427759648003,-2.067563998553434,0.9818891198885852,-1.1648430628597288,-0.38908769984758823,-2.8645517908579223,2.4179306632457522
35,1.1365881920947087,0.2171966151531273,0.4086926315588711,1.1746203032049067,0.9169835759712919,1.0340877328030322,2.187132198435784,-0.05413165800148159,-1.4013863115754488,-0.05514115859161198,-3.5620255925489985,0.502629220071897,-5.5208586763722325,2.2704891389408024
36,1.2098316154659035,1.9914612151349995,1.8246362046017182,1.0909895199966508,1.4523954494357454,-0.4357999836685318,1.5274235985003553,1.3408672424985222,1.7820813178936101,-0.12218078103254074,-2.609959962573267,1.9154008466527659,-2.5534584034506085,0.7574034211875756
37,1.3052632037640155,4.291550183027069,2.9994974579048863,0.8707707269861477,1.6391678445151978,0.8159232560303132,0.813555178405187,2.517005262056643,3.937351917028378,1.4570687991274807,3.2747161452478912,3.129741360075479,4.600946819216832,0.17005896510083973
38,0.02824478456678923,1.2096367392347709,0.8739409675410629,-0.5512761708976878,0.062005716107542005,1.3871692935569055,-1.1727659688584149,1.1431450475472316,1.977954001739216,2.952437627738406,7.176323906084392,2.2373671903615397,8.130887835115502,-0.04846804323942654
39,-2.1966396745348193,-5.316378317209217,-3.3893501079701913,-2.405328758793893,-2.4992871611139256,-1.64171573910029,-4.128165073312088,-2.107300566090388,-2.3923483853275465,1.7591859469495164,3.149704487393022,-0.8686796587997209,3.589672525569795,-1.4281722580823655
40,-2.6040958754529675,-6.774120051057034,-4.6725625656287075,-2.6923738546579012,-3.4415868610079374,-4.315335792972828,-4.718241175793629,-3.6068670571684267,-4.428017989773131,-2.2160854156087324,-3.965559936893797,-3.5484627991686857,-4.082600532266777,-2.586279128825091
41,-0.03649723179343872,-0.4547269564882076,-0.7802110659910946,-0.7316167591934479,-1.303955457312574,-1.4192951425435845,-0.7386093371386926,-1.3917661247320912,-1.7725723072484354,-5.071205368762052,-4.759528627842529,-3.16120704314499,-6.598355744286585,-0.6438325617808082
42,2.715787324051329,6.157107612278244,4.022688861687302,2.0061000815759207,2.2913348395462503,4.379151326872373,4.781048892851767,2.09264296295438,2.942823018312135,-2.8713794939736106,0.8420027704712402,-0.10862114801459585,-2.194899369029828,3.2947631314066586
43,2.2805130286671633,5.4792876948257145,4.231788634093034,3.2424028691516527,3.9490580317219472,5.378004941821801,6.343888657324852,3.0457132884337486,4.855387697591678,2.6932178496816306,3.624942634738481,2.5694562955765496,3.0845651740608666,3.9504317562016333
44,-0.7571818351303753,-0.7142806411464656,-0.12221043707235268,1.7795533216373056,1.9116196954042473,-0.08096997016499462,2.4004578099013854,0.942571119630589,1.8650553006350106,5.362221696282159,-0.7084374421254718,2.3962601873125724,3.239797639437124,-0.8018348343362593
45,-2.622314458139722,-4.902286506293625,-3.963761298173724,-1.2041871724999433,-1.8040372537703564,-5.234945749070401,-3.0358576552775034,-1.293952768422676,-3.0722619864937837,2.1186107372868492,-5.359015168165077,-0.17023474161733843,-0.9185826458194919,-5.684546931989998
46,-1.3500847277151053,-3.476515159897145,-3.4346473472187795,-2.853316570797041,-3.28626808056502,-4.246896149993498,-5.128338144214786,-1.3727138057775166,-4.949536511397866,-2.977730564580977,-3.263702697387815,-2.3433460606869363,-3.724158595189073,-4.421447798741372
47,0.9662521143983376,0.5351001373723241,0.20047154945365356,-1.663069867148753,-1.2081127282653954,0.7530546745339346,-3.004421837167003,-0.3428885012763403,-2.240386115437692,-4.486805232585253,2.8005827162449677,-1.7804155135919342,-1.8499732948865897,1.7710298066562318
48,1.5649986540861158,2.7585673260492367,2.9161822714729375,0.6775905419645853,1.5152068610590825,3.707725902879124,0.5283240150945037,-0.3864300936660117,1.6378627152935046,-1.962675120069866,5.583835605656706,1.0124240235686883,2.5285204566645154,5.952048066315981
49,0.7950299341817627,2.2930279698374396,2.7980258273877845,1.6959377391424582,1.6036715187218928,2.4462243993731043,2.684699745248966,-1.04263169248599,3.073359742935321,1.6669121615065265,3.6514629995952776,3.1154340132646503,5.278371259772403,4.569597034444089
50,0.6765808905296994,0.9780611537071628,1.375110117554528,1.2513948916282425,-0.2356599956309649,-0.11088070013020826,2.825275915735355,0.1267531749192896,2.477955065738562,4.471961016595568,0.7908593554803505,2.331837424528909,4.333003814788778,0.6256855322120757
51,0.9185419558648051,0.02928973779924559,0.34333347925551205,0.5041124747148003,-0.8291905570607272,-1.0162162068444078,1.4744756628229534,2.907927840758185,1.9098254167981517,4.969093585896414,-1.3136221148786897,-0.4850316994318101,-0.0023205057399597086,-2.1913965195452065
52,-0.5891598954189532,-0.9577796601402262,-1.0190043631367505,-0.5465182514037566,0.46695914356819784,-0.6720110645702049,-0.7426919437151428,3.4159581562997987,0.8417133504976,1.0744043997861088,-3.7502879248560865,-2.710018311024813,-5.530721364322793,-3.92054524477705
53,-3.2202471548775775,-2.1886406731097225,-3.5695796075581567,-1.9711490432113137,1.1056893156063854,-0.8124882006940534,-2.5859375031221923,-0.37649467400199726,-2.2580263366044058,-5.751335211172599,-5.425246759192436,-2.922008716491638,-8.091225228081047,-5.149203128790148
54,-3.236878920367305,-2.614187179979017,-5.0468692060801885,-2.085354107632197,-0.2956288339509363,-1.3685645476738248,-2.4657030595585994,-4.654242462117194,-5.52204324502415,-8.705087311115866,-3.401919362014556,-1.7187263751904556,-4.471906788180295,-3.7478324581511147
55,0.37037108524066686,-1.3360137473993998,-2.1843706789654935,0.2166389377013867,-1.8216984283492523,-0.893827687749709,-0.3742686949373504,-4.3613507434785985,-4.890116246567904,-3.465852318289261,1.6427717140458116,-0.09413664733605451,3.022748399729228,1.4765879998705507
56,3.299358873944534,0.9796386154752216,3.9114429528881014,2.6796528205729375,-1.342214769165228,0.867339489297709,1.7390012708639988,-0.03587990094721201,0.291877481864124,4.8279069503874465,5.136653592620563,1.608752157523206,7.82008702187831,6.651775668764647
57,2.1311595554764757,2.833336981671784,7.525136746316717,2.3124173747219365,0.5690109929126715,2.3809857077259595,2.3116934250670647,3.4275185680276965,5.966790972813526,7.902165514104643,4.648525638036286,2.9680919847639693,6.331933537663728,6.787806054021792
58,-0.22951098151864396,3.363167259114915,4.802069399702506,-0.22681898277538048,1.9545406096667657,2.167511979210439,1.578422917856641,3.596458509187018,7.752505491843929,4.980211618873195,2.257887051963888,3.043964974300541,1.3817393487651168,2.3711917436206544
59,0.5670507042527816,2.508261774587378,-1.5142464327762124,-1.6282785020814934,1.9912059047940964,0.30986086892829234,0.2574707911960363,2.122509423031078,4.335236670994883,1.1872451353295934,0.09589516652931387,1.4638023222325136,-2.5054475529487563,-2.04679960071446
60,2.7069189852537376,0.3700535727272865,-5.40418245660134,-0.6360934195636879,0.9573729406545027,-1.846830495783149,-1.3907658650881911,0.24348119742538352,-2.6789647181089324,-1.8016139318184992,-2.3106141431122103,-0.8471719456856909,-4.1061431337577,-4.353572027188532
61,0.8615990764963166,-2.671971786414694,-4.3646834436137745,0.600968465992892,-0.926626472822067,-2.8229813296066135,-2.60099596405773,-2.5479289202116013,-9.174145805177668,-5.921513208036614,-4.68717912512298,-2.692213587434761,-4.329702234809153,-5.469301970183387
62,-4.626708983802093,-5.182232070272151,-1.1043336567608786,-0.13528262305930894,-3.016032601843464,-1.8904770515315643,-2.0646247134649256,-4.711339686076757,-9.498715216297862,-8.810364291747936,-4.234330104527166,-3.5602432312908734,-3.0561550608471912,-4.769948249867159
63,-6.971521669923227,-4.90992580302789,0.8501451640321374,-1.9992629746155954,-3.4400503673877068,0.386524322037166,0.1364448987486124,-2.722385680255354,-1.4311818153187266,-4.546322908570996,-0.15432259186705313,-3.0727930003651576,0.2486332734006923,-0.4193341484308334
64,-2.444657343961891,-0.9419138133099907,1.0104662873135972,-2.055522976023786,-0.8459136504483098,2.287875851038966,1.9591937673665198,2.6831183254823507,8.836759582134507,5.698692579925505,3.3266800863567867,-0.8277804743743221,3.988258673223929,5.497766972580407
65,4.15917606690161,4.298714184792818,0.9666961448808373,0.7523213438270572,2.9868974351731956,2.351988237901588,1.850383270589563,5.128621254272516,11.073146925244131,11.47433690224484,2.3323313260879757,2.310878352259873,4.880419354966626,7.332417310409368
66,6.155629541921833,6.577713742039595,1.555201269124166,3.6512266427096396,4.343243124249454,0.9627277818934913,0.7490518134014936,1.2724740020894556,2.927594713426733,6.092666760997898,-0.43875563354915137,4.225864358392118,1.6076362526676653,3.037228249558944
67,3.4744981409087132,4.233118243144859,2.2263199415584927,3.3260896638208304,2.113117353578516,-0.2726432013945746,0.431448948053972,-3.344648326766661,-6.257363857405305,-3.737293150346239,0.44494664260406336,3.8642607521074184,-2.760085169921551,-2.661604041869981
68,0.7813446566658643,-0.1196724587484014,2.024188616504421,0.29570878267289125,-0.8122030460554686,-0.8456040940356865,0.6149357210309231,-2.1659681735583765,-6.990138197958212,-6.990910948908351,3.9994372219620247,2.0363024707260733,-3.389947726655688,-4.186571439696226
69,-0.4510421564649975,-3.1779740437459103,0.18037107673861283,-2.202513842864027,-1.754308688313499,-1.5860900049704914,-0.5039958248645131,2.2316066764109705,-1.3403876044521434,-2.8973038211158606,3.330576539651401,-0.6694933921923477,0.4038969901623092,-1.777399272742818
70,-2.7538421644932,-4.509807182305575,-3.053219127747561,-2.8688083297801947,-1.6588879333004434,-2.2778972915230704,-2.783719408624552,2.323949185220791,1.7794605130146683,0.44923467564488256,-3.4014204732526596,-4.266420444374848,3.286593306435549,-0.17178676190264663
71,-5.880770870859274,-4.769224856622056,-5.286673786700985,-2.7012141076467326,-2.3923614247439424,-1.30072210227879,-3.3535970564599067,-2.1629347453535326,-0.05290211397456898,-0.49884331859575604,-8.531424612043313,-6.7088438879223276,0.39921259827418576,-1.6648877560080395
72,-5.117488814730434,-2.579700895883784,-3.4441289338447456,-1.4183830625884564,-2.7320565806565624,1.3207637878937097,-0.5098993380095055,-3.7499343617554657,-0.9993920840861121,-0.9350694905946155,-5.121111253882357,-4.302432417562597,-5.015349127203029,-2.7279326696166932
73,1.2010983200692031,2.975670218413853,2.058346879651786,2.0152693706595572,-0.22594521799876963,2.967972384542945,3.258920250268303,0.7832865223863736,2.21423434488984,2.3719265788611374,3.164539499289548,2.796556480177907,-4.60687185668884,0.9941999264366834
74,7.130577771314133,7.710179119450449,6.141530527772229,5.065298677594895,3.826580102479853,2.020039565013702,3.975877701299544,4.994929589831829,4.949503326635132,5.197343566631294,7.298529671232333,8.373741453556129,3.1956875210498947,7.149079301811633
75,6.087138546675489,5.502817229801284,4.433089431767017,3.1504587320746165,4.945270718153976,0.0793754569263058,1.0872564132307954,2.348678571486372,2.3603317957652177,2.9117822803022655,4.582117594298495,6.699281553297017,9.044151079496048,7.7359450950004
76,-0.28961361029056243,-2.487507828886,-0.990150655161464,-2.7381616427718747,1.6754450984011209,-0.8699169422831932,-2.0525728771489278,-3.9191966411188974,-2.9900613350139436,-2.3151017990474463,-0.11065048064295092,-0.4056636402013904,4.421077739789215,-0.26274875148213234
77,-4.453021620281944,-7.146599231462125,-3.9424642616226495,-5.28582896374822,-2.095091136747303,-1.148632801761662,-2.394643599490832,-5.269809536228272,-5.013847774008904,-5.1454749370929385,-2.507288248227912,-5.9936616993675464,-6.06227088563074,-9.076514302267269
78,-2.908225991258532,-3.246661461575029,-2.1173329347902916,-0.9592796124660296,-2.623307421035518,-1.637844935087857,-0.44620163518067346,0.051732530290826764,-2.448774854560598,-3.994583201619912,-2.9072206424171325,-6.114465258010884,-9.923319546605795,-9.193837038216573
79,0.39815267350500905,3.0217974369672436,0.4784113418970869,4.086551234635481,-1.1456472918187643,-1.6435119561551044,1.0548664318101808,4.802548581707345,0.7426901579435783,-0.8298824233510743,-2.588753673758899,-2.472404139967783,-2.836047400319556,-1.3442686318242316
80,0.8793119061794672,3.222921146532023,0.09860975431546677,2.8121984688387696,-0.8607239390202402,-0.35807980125378447,0.6480658606320214,3.173737148321039,1.738060103305164,2.675301697337688,-1.2384400686075585,1.7131990585252113,6.545158729249248,5.483112901299989
81,-0.657541747294001,-1.129514450149463,-1.310352293206755,-2.2681984291541397,-1.6553883115862593,1.306329990373522,-0.6494684935030347,-1.6290926502592367,1.4512592411244882,5.060406037459237,0.9309785828399795,4.521965375824674,7.9892893322019125,5.780078796176529
82,-0.8076825770783184,-2.2059094553554215,-0.03640749338671251,-3.455497922136701,-0.9870383061306462,2.0453723018649628,-1.2138666561697444,-3.056606370331452,1.1101215913628406,3.856004335553494,2.0864508795106547,4.402065075383826,1.096124849451932,2.2471077925408784
83,0.7647354413324919,1.3597488861588385,2.874479470075279,0.27892356173931726,1.531552229987631,1.8788685291115157,-0.5981714012672364,-0.441144142949795,0.39783221398980156,-1.209300366825982,1.5247934695022822,0.8867262394859399,-5.809250374890067,0.07139084813838263
84,1.6810512576628147,3.1931061137894137,3.1185536869228634,2.742053561023726,3.504659582540636,1.1362305909791761,0.6795382940954483,1.7340920382400915,-0.23757438490930355,-5.346737304621151,1.019482297731599,-2.9982881737597356,-5.326399712364611,0.6583269092569694
85,1.1223188915552258,0.0921367645594951,-0.11198292108907676,0.7911668300804547,3.104164989588339,-0.5904201203738805,1.8374056701411277,1.2461936880656472,0.6959498184157652,-3.4917711010885437,1.6111234780048873,-3.121462130308771,1.4028596093443189,0.983686367668053
86,0.3039562747500606,-3.3063156574000243,-3.033982116440506,-1.6737143040759384,0.8186652252122004,-2.795091118090267,1.9133307476084722,-0.03621694723666079,2.182054103513868,2.4654184633448257,1.1925014239119125,-0.11846453861992863,6.085158619810406,-2.2974156820322085
87,-0.5120634083673795,-2.4319311866489657,-2.869508164872906,-0.8782297214449274,-1.7937658379357009,-3.171510957772403,0.3773393785177419,-0.7364624508456425,0.5360847078109989,5.169313276136243,-2.193064319213996,1.071824114109235,2.8659470885238023,-7.482624745290307
88,-1.9915348661737509,0.6867625878942236,-0.8974292320947395,1.3327123916848982,-3.464757250846451,-0.6666429985060752,-1.7873295622264833,-1.6783723073411534,-4.736399789792583,0.9176698926800299,-5.899397184623555,-1.2043775290414838,-4.22639994398464,-7.723396778508635
89,-2.850844590085795,1.8065452360335934,0.6923844340743224,1.382343444371599,-3.419938880590304,2.1098590571001816,-2.6520456090688853,-2.5921196056770572,-7.975432524348846,-5.689711453198022,-4.750416114721748,-2.4582767758237023,-6.271017245022887,0.5964692867917272
90,-0.68754231220404,0.9858753440590754,1.7484819046518845,-0.5502058515221742,-1.4280904856260572,2.1949653452095457,-1.4743730505102575,-1.181202738911012,-3.696537938074215,-6.969674933189187,1.8583191832626094,0.8538964094609228,-1.2658762932426821,10.7158440739372
91,3.454612962583712,0.901413935390974,2.5800461895551448,-1.5729595823906843,1.782845099375718,0.6724870917481796,0.6020350997531141,2.8543313160010824,5.643708019068077,-0.3991913870509969,7.685455275621018,5.136677549381404,3.8558958885186825,11.7372018506071
92,4.815777311326923,1.4357398783297624,2.0539146521038036,-0.5017799735904679,4.289442703949581,0.5857476341657015,2.122084078126238,5.71664098624015,11.44997068832948,8.528425187077271,6.531952958545594,4.294249465277683,3.822488230765269,2.218419497646946
93,1.0820555846084254,0.18646375734443768,-0.5200776796643884,1.0144408035671237,3.822274943164309,1.435853614057632,2.427947262444838,3.723818087247142,8.244223149434662,10.993954838775528,-0.20486631032877892,-1.4236121563119521,1.6835432163916324,-7.610658999012389
94,-3.8452348862520163,-2.6577571445505743,-3.0764657250014924,1.01697056329214,-0.012074549992189425,-0.13320521522153045,1.1546680281112869,-1.7727433797301995,-1.076877823387698,3.3759526546072833,-5.472100675692575,-5.420362491828111,1.6371063269845438,-8.681152572868097
95,-4.606489181611189,-3.803041574107933,-2.83165913302419,-0.4667450219573032,-4.110162808840206,-3.8780780385566893,-1.5258224251059276,-5.716106712994626,-8.935124234412053,-8.117421567640275,-5.165543983762043,-3.592875350965962,1.0668435796299143,-3.199824324898643
96,-1.1381485678396075,-1.5044254348991386,-0.24161956099964432,-1.5908278181629705,-4.137803190657732,-4.723931596379886,-3.570875629747977,-5.061746380569756,-10.058664318718106,-12.89472847953796,-1.6971522285118854,0.6535705742961903,-3.8983315489675907,0.9065114502072937
97,1.9264723308312652,2.0561400021383345,1.3942646607919271,-0.8352545274281087,0.16947583062913504,-0.1382370074913949,-2.279751792427514,-1.4596849002014218,-4.798327993013194,-7.027178238662235,0.8768024806711067,1.897259507658349,-8.69741183893059,1.1314891978081922
98,1.795928235346193,3.7056564078758965,0.6092058798153952,1.0812037674390493,3.6427748447989314,5.109203543801457,1.7293922352047473,1.7475222570641074,2.5125517661917307,3.0931624995889573,1.7342653846212768,0.19670831224333882,-4.982802237965331,1.1282997954767549
99,0.5847301534791075,2.629838134438433,-0.27384163316260207,1.922315129178542,2.0855226672841534,5.048629710605904,4.017204807123086,3.3122666509339522,7.207641481901819,8.951977893557535,2.1215941861510523,-0.11381465008989233,5.392628315062867,2.9303813665462233
100,1.0810531197900197,0.213937553120755,0.9442836882248646,0.7494495941042119,-1.6531290831097931,0.6046663849504395,1.8447537568892016,3.764958980993772,6.949076315934329,8.46038611048385,2.2362824495036726,2.2687990997812646,10.40431182419603,4.141417691943764
101,2.0537143665546336,-1.8313149814879586,2.639188640883279,-0.8865047414883628,-1.8604328993780754,-2.5882164018628373,-1.8585617712027922,2.926173639405238,2.489357115980241,4.351294208300777,1.379367100601408,3.5563994092822946,4.663180936081051,2.7011260068591243
102,0.4877663172209136,-2.4275038849449473,1.8126323989587572,-1.103597581821788,1.1532975235300715,-2.5208280252282527,-2.5368349863590973,0.18512898820104956,-2.9543469599092917,-1.5346403029508058,-0.21914391329309452,0.8975742328728966,-2.904886581628035,-0.28200594425890085
103,-2.7353409468900205,-1.387660167251105,-1.19388699437791,-0.08774704395537902,1.8000579885496835,-2.0146733125853094,-0.2616696936300287,-3.0718533716920327,-5.498100574198999,-7.6276584978687225,-1.526240248145701,-3.102232969925597,-3.44350962707323,-3.200510531363277
104,-3.340245080364445,0.3281981574639065,-3.198138285446801,0.5212993233284625,-1.3025756354168059,-2.3046700174692565,1.050829900393931,-4.010742134783657,-3.3824741570672074,-9.428741569322264,-2.142700504129084,-4.243201225175773,-1.2069898897558877,-5.52277906567851
105,-0.40165826137793126,1.130948836363271,-2.7503308119660117,-0.057938067203369505,-2.9776980150022494,-0.845781765945558,-0.25803739253869035,-2.0276277586153717,1.193991929407597,-3.4762734350877365,-2.357127226798276,-2.4997127059357114,-3.7288674014107186,-5.736254540278524
106,1.6787758189419983,0.4027294497074014,-1.3346432775595265,-0.9987498840885304,-0.19423643007993252,3.2128104355269484,-1.474390133184178,0.3501790201184323,3.823872922217811,5.793738144892615,-1.8979106695668964,-0.6641910047566894,-6.697473205368694,-1.6458405287279887
107,0.12554751210094686,-0.5849987361439358,-0.04442135814801859,-1.0668938139571384,3.05312047296342,5.902778967843259,0.04389808002937358,1.1156341510793701,2.3030145211052346,9.044904593310237,0.11034121220288282,0.9002362002716339,-0.8304867694953707,5.298207453647295
108,-1.4113091054456341,-0.15891861522076184,1.884340395616115,0.13191323036731648,2.4787795916212083,3.4945004671399555,2.7796347518130617,1.1626019449972707,-1.23263522982387,3.354169500717289,3.2612918352389713,3.7765898552063892,9.913828980820163,9.134705185836275
109,1.1207560947156454,1.348149065413154,4.243664580198352,1.7859271818377869,-0.24463302674264442,-2.0477061570884296,2.9739738013196853,1.8241554397061843,-3.1704007181582554,-3.9447884537782323,4.930803261430051,6.263430341607947,10.840492884643986,5.606129896815006
110,4.692553911507805,1.7635456470624655,4.309117823105258,2.3273021109452188,-1.555205997805822,-5.489152997731007,-0.3819663820005905,2.1419836679501056,-2.3974021262571314,-4.774401219876898,2.791894264245701,3.769929078603979,-1.2847619407736635,-2.3536234299704395
111,3.1618208093649933,0.0766148206027722,0.3544124430176806,0.8289703220613073,-1.6440978686804828,-4.63158817241059,-4.0412008280395675,0.5303995167092797,-0.25843904592029504,-0.03410834731337192,-1.8467208903312953,-3.7518496214527275,-11.137265119245567,-7.540292506517191
112,-2.929199541557247,-1.9565543819135023,-4.750690976545948,-1.6280853634879484,-1.9396524112010696,-1.4996289376058616,-4.100977964315951,-2.0764042131714615,2.1455955971181817,3.0637292473854765,-4.839386696684905,-9.11262223945871,-5.910169321593297,-6.106851179681632
113,-6.5203138543786565,-2.156436413467059,-6.113184475652644,-2.7958816753074385,-1.060299413969387,1.622326118194933,-0.29504652244318974,-2.9251794565182956,4.186671439841139,0.8804622961760775,-3.8465190914902676,-6.1956662635876425,6.090015490927956,-0.8090416018618265
114,-3.945171474051488,-0.7271217799329921,-2.729852453630971,-1.8836982585193174,2.00920153781603,4.024454763268812,3.7090811754580626,-1.146337238296548,3.893454658182208,-3.0810801166690487,-0.8150606758466112,1.7280938154566332,7.365039887528853,2.903301340075774
115,1.1203932793655196,0.6408792596583874,1.724653449224706,-0.17655319466995695,3.990039187868113,4.659722441033173,4.177150608167873,1.0532953385464525,-0.47719494096132664,-3.7903929795940927,1.084101473915015,6.244083113449189,-3.415874391607054,2.866642605500036
116,4.347991320967896,1.4061540552697376,4.143979478244363,1.3181771612170332,1.6292977868390637,2.102692760661014,1.1406793194681528,1.4106688413500923,-6.0979628852044785,-0.49166398767308245,1.6828241715438697,4.77729003448031,-9.640341118242878,1.7136957829552146
117,5.356725652769784,1.9884300470911247,4.771201231808602,2.8149901815974916,-2.416919015355445,-2.39733179176043,-2.0327330400479497,0.4037103059763776,-6.639443518988882,3.7030672687571795,2.965648833980367,2.1233686257920903,-1.210486533485422,2.2837071769659776
118,4.029510945853934,1.7533513956028357,3.8531677617162154,3.5267016882070337,-3.002722600292873,-4.7559743364089035,-2.6174471782262323,0.07420746143694633,-0.2999189906841263,5.464075590260703,4.465734370740757,1.2429850067245807,10.4131503572666,2.8463261660790566
119,-1.1477110036711415,-0.2770637348851523,-0.13181017188934963,1.3753844165828886,-0.11854682357085389,-2.721707600194404,-1.070640329745088,0.9515036964817845,6.336827623564272,3.4148180741162495,2.7257043756805333,-0.8884625363477359,8.626842358300763,-0.3882659054580498
120,-7.6629538214671165,-2.8448797709803726,-6.049030388935138,-3.179647394609407,1.6701642527916394,1.124087275220115,0.41687508338275,1.3050748088345476,5.981911664325156,-1.4267546035783405,-3.0911365197285487,-5.681411468493055,-4.412032281095073,-6.026444440124852
121,-8.11384157139524,-3.1979193072340704,-8.055071299234099,-5.838736822339169,0.3716838695514945,2.5702079928138124,0.5711557980631401,-0.4944869292564794,-0.09037455139365791,-5.969231324869051,-7.9762915473045135,-7.628313974477114,-11.164652416976827,-7.1699281250108315
122,-0.03557887930182475,-0.8149751387450576,-2.6376151663442977,-3.521381036323716,-1.3223087652939036,0.7980998270276859,-0.18432696695239875,-3.320747809837677,-4.376579942911818,-6.767963437967384,-6.482477868671517,-2.1158956893409524,-3.628320758451498,-0.8527518676351163
123,8.032391423571136,1.7834439379423555,4.964363193938937,1.4381747403527703,-0.8984343351327385,-1.2077642055805864,-0.5580594492782665,-3.6852720448066756,-3.142478171249877,-2.7132065997474486,0.29722678695209137,5.75953662876192,6.73146611342647,6.245769899238255
124,6.5491774544162755,2.3761400167001883,6.587952338460915,4.412387368253102,0.7566564297802795,-0.7959965531641113,0.2937218546142273,0.21148568106159257,0.30941668847201065,3.6905052007824044,6.1475602227595205,7.014973419244629,6.5165486393489775,5.938431375626824
125,-1.7295130408120256,1.3692386619709882,2.0281431752548915,3.9168481239809125,1.578540256756719,1.1544979552865535,1.6414297473063828,5.107647371135573,1.8128293592649194,7.847537550066139,7.053649256506672,1.519622716300424,-1.720928106854317,-0.22320517648374294
126,-5.239165572481424,0.39567059057302467,-1.3488358769949693,1.8884789315619934,1.0940322836300758,1.75889523002669,1.7150320425646661,5.433970745562301,1.2037914533723326,6.46713617153123,4.169534127668116,-2.1426194890526116,-5.291557262309902,-3.2602561068030194
127,0.1668155584160042,0.07163705771112516,0.15594418865445706,0.03759402876436446,0.04983293687773786,0.1280060806886393,0.02915145902381515,0.18851019897197646,0.12533134703240942,0.392831040002105,0.15040018147984272,0.20632615189844467,0.17330426572715188,0.32988531309267255
