,AF3,F7,F3,FC5,T7,P7,O1,O2,P8,T8,FC6,F4,F8,AF4
0,0.017419185236313656,0.029444117413239674,0.03282420410640213,-0.005991965758611703,0.008380854706755609,-0.00400254835003741,0.05595360362519963,0.029349738321797006,0.058692136892007224,0.005363673345160698,0.023881893887432705,0.025927939650494784,-0.010307959315987297,-0.01779708617001035
1,6.407886583065194,3.277090867364033,3.7209144030903114,-0.8256441249779357,-1.6346353308381265,-12.217040500860602,-9.520373786862539,-3.4624003997789727,-2.603030654214696,3.055546536879928,5.58270584937854,5.805650451252604,3.766156504759262,10.317779796757813
2,5.478030444040784,2.389076070536418,2.294497504624419,-1.3799207111721596,-2.376221847839999,-14.039303243783422,-9.596577375494155,-3.973512484507797,-0.5146483464561118,3.733944452877971,6.402662314667755,5.274089791978718,3.9560801673710277,8.307554374270875
3,-1.7014236217096956,-1.7117146091298685,-2.6922258514839013,-1.7632766930120487,-1.5103683524319274,-6.0140495607784565,-2.4466198382424023,-2.3485338958305078,2.662583610697612,0.35717629978424725,1.0526140245141722,-0.8252732209261721,0.013937625286047549,-2.648604933822223
4,-7.093183221999673,-4.193950711985021,-5.215984723450346,-1.792883854968441,0.4857898492591928,2.9055657743108947,2.4867315696139713,-1.2669450615013094,0.7101141157866201,-5.097508161983057,-6.452670816164101,-6.007642469062244,-4.87874107890781,-9.095644489696797
5,-5.094875518843336,-2.2492969918943535,-2.4410524337904786,-0.6422851849454908,1.8775755352915116,6.520543233622746,1.8950192337758696,-1.0443385080519507,-4.478566069342135,-7.0600690977759415,-9.10034734363561,-5.54192137967481,-6.247424184023228,-5.412275162834222
6,1.4382310947279449,1.6645950557837004,2.3399194158321053,1.8649662069704431,1.6092738852653483,6.142857625513612,1.1599505606190028,0.2821345535737015,-5.065757052990022,-2.466281975554688,-3.693142253405901,-0.8695859317496404,-2.2942332596365693,1.4440318307620068
7,5.422253038537732,3.245351210247229,4.336298205013657,3.891800672016156,0.5926707303651298,5.000032591634183,3.983872150413276,3.356703032540198,0.8946880578028436,4.8441185645290465,5.246442452775803,3.410023374553732,3.976706599168769,4.159828437457876
8,3.9651846122682,1.6652327682846042,2.6201278966446724,3.043110171791758,0.023588130059503505,2.954477734568175,6.110637127149237,5.890797232270953,6.422033272052276,8.30670682481174,9.87743729038683,4.879737408666884,7.268890245115403,3.673731682104445
9,0.4306380242976401,-0.13652333045387785,0.0466751777726709,-0.39678892940950544,-0.4561316638760086,-1.1257683636021638,2.4754419032872272,4.913630469990883,5.518992103549254,5.701662619171975,6.871535035045802,4.202474057725083,5.238230518588361,3.2608234307023056
10,-1.1436219102599996,0.041331555416249194,-0.8197022620105086,-3.1680745106675836,-1.3920687099418185,-5.339331008240245,-4.185938205090948,0.09376295154105485,0.6078326313535403,0.07472735487193648,-0.24844560543957467,2.1382325456292963,0.4340040977210906,1.6268630089175264
11,-0.8884853389263084,0.7840850367203592,-0.4318995060073345,-2.894518397100756,-1.6796464709326562,-6.35757197682132,-6.835376505808586,-5.303802991679262,-2.410839645592469,-4.575589674936033,-5.7608220995426,-1.5061537643701812,-3.4026740908437527,-2.9741451869187414
12,-1.3434933991749058,-0.5258676534867259,-0.9239995240316023,-0.9124626535918556,-0.2815663908683763,-3.5629034368466734,-3.8862509996226087,-7.132842064003022,-2.336762264506959,-6.271973212815324,-7.0234540479562835,-5.553970884515322,-5.208642253779781,-6.7784121127627746
13,-2.908541613396917,-3.4978378933196996,-2.7426268005776264,0.04267255814461319,1.3758835213844196,0.6757713846444818,-0.27250001468278456,-4.422691417445268,-2.366779272773122,-5.046053645259807,-5.060257428229824,-6.783698863552914,-5.503881617439395,-4.732160075145228
14,-3.2519118627262964,-4.527354628800394,-3.5826056321497415,-0.24206944577597045,1.2053247545205095,3.7067800037319363,0.5964686529295977,-0.09744590636996911,-3.8335843921437847,-2.131888080618681,-1.6875583190202605,-3.4191665639065976,-3.6636708914933607,1.5542652325840487
15,-0.7702884755982449,-1.2639192919539601,-1.2999447812931642,0.2690109227261569,-0.22944202941790684,4.055960395869506,0.8759885464330078,2.8111012429998326,-3.885662699903896,1.14624872237404,2.2202273869367795,2.185905649257861,0.9160293270516192,5.3900124197918755
16,3.216219310338966,3.9272669193992744,2.9210157255563094,2.2507057823249426,-0.6422376154801992,1.8163126534662497,3.189508679739747,4.256358425857058,0.34940978226171254,4.386544630598476,5.738463906831629,6.055974962808545,6.021081673289443,3.959489310572837
17,5.857607234101493,6.345369983200979,5.618772322055239,3.710383941562079,0.4360992428442607,-0.8067508556473576,5.585618169305389,5.162875951394751,6.928418083062314,7.096850603445314,6.971474494284637,6.5489474182253105,7.905896728823623,1.0437137077365932
18,5.085593771570982,4.213226923688406,4.811769436543259,2.5149958625687137,1.2810814093599014,-1.0793747325114151,4.090528789815859,4.2046942971418275,9.555802890540065,6.894474841578432,4.476667645985742,4.267542686209822,5.23295354657049,0.15705277289326153
19,0.7143516269871713,-0.1361083533509306,1.2608605366314856,-1.1183272882195001,0.6468721466397612,0.5726837788668692,-1.5653224336614242,-0.28494343772040615,4.026387915221838,1.438520941204875,-0.7927192773625807,-0.17940643229424327,-0.22189135304641483,-0.492538784628771
20,-5.097733469110954,-3.8667954866117316,-3.2947910362582453,-4.792225832473005,-0.9472206771426789,0.6017821938003827,-6.870096488136008,-5.847415782433164,-5.626448639850235,-6.833208087986897,-5.828472204113918,-5.645685959281581,-5.924961821539723,-3.482761331643929
21,-8.236325588893026,-5.836703994693399,-6.837412149049761,-5.614280403877688,-2.1433694615775334,-2.1394863774793773,-6.9126860985488765,-7.138487788840007,-9.961089617663545,-10.909263395992078,-7.702075362471586,-8.68271778555174,-9.248595667483748,-6.038026296077043
22,-5.407808261210752,-5.021627619476381,-6.470535252638,-2.1691732785087665,-1.765785814350739,-3.695165750238092,-1.246640601879523,-2.5972656475049423,-4.997715949438877,-6.560902651960567,-5.233279544800887,-5.705122389438853,-7.122438534927641,-3.055605549616024
23,1.9888414989506698,-0.4854078800868298,-0.7401154128735824,3.5907102463833964,0.3174129197919293,-0.7662203985042172,5.230957769585652,3.0717649419533095,2.5043425381760223,2.241773377125823,0.3005911457222361,2.085381217505278,0.8653420721509646,4.477950346220575
24,7.721245475331241,5.206765335168406,6.3672377441038,6.725307758452556,2.40776546258535,3.4140395195606787,6.397657303799885,4.500983397570475,3.8904501720538023,7.547299934083971,5.316407076295302,8.1174568965172,8.885791965281916,8.715829700625092
25,6.486886559675852,6.39467501825054,7.6400778232628666,3.8346043121126043,2.1790113895668615,3.199927893818932,1.0410328048280328,1.6487008785176707,0.07233820616732105,6.061388091961057,6.218273539040522,6.785103529454189,9.105932947977852,4.332847728283884
26,0.020414937037909538,1.551376352795494,1.5392654640408572,-2.333286854741416,-0.27548385616927584,-0.9182883638659398,-5.05728943691562,-1.1679360873513775,-0.8796088528317465,1.5733847590197216,3.057813139871378,-0.07560444871999256,1.4387664793963673,-4.205539526921072
27,-4.487902901029822,-3.185192492660387,-4.495947572377742,-5.150939125099789,-1.9159171074017411,-2.8515058919917453,-4.840820254702298,-0.799325128795705,3.61750554338079,-0.7797523443653509,-0.2617694456755226,-4.9029074086789155,-5.187047826380302,-7.54557986536866
28,-2.8764429892368955,-2.00733742642631,-3.38131284073973,-2.037261515807862,-0.6665144034577831,-0.08923879159701639,1.6255994117690247,1.514679771477158,6.692599917076625,-0.47348060095948424,-0.9536686021499863,-3.1505168852849383,-4.146173012061525,-2.6732634050697044
29,1.2014650145982881,1.93338806272618,1.8855788597205883,2.3081730759197647,1.4660210029923335,2.7862471078592326,6.604448155853245,2.1401872578014385,2.3371142147112844,-0.7040221114411582,-0.8217829701174176,1.6187573895144736,0.5470283802324052,3.760362752602711
30,1.6888478983196633,1.330659295498905,2.8703008186867827,2.356005751127462,1.1246525666969909,1.5305540583714454,4.053778766045715,-0.3506811056821321,-5.662392598991145,-2.8265374459750032,-2.5498691881513897,2.965212313152459,1.3124012643647727,4.238128515057626
31,-1.695979044402025,-3.738218058024934,-1.8133527256440178,-1.0054012043762772,-1.4657906242588536,-1.549272092646731,-2.785838353455189,-3.2268535747168197,-8.872838249308046,-4.2528301369724275,-4.609321539627604,-0.14921981334024015,-1.7732172000465163,-0.3318168866061152
32,-3.7372246939578977,-5.641519346174728,-5.021018810076046,-2.598820086250813,-2.7301933879650457,-2.120158727981395,-6.041860247270583,-3.076009818927631,-5.063843890779572,-2.6655476948016057,-3.486650569388461,-3.326432803785737,-2.832547970884875,-3.0800237379839945
33,-1.3588318700233335,-0.8134003242520038,-2.22617799334795,-0.602925351520048,-0.7990398078983967,-0.6397932380478817,-3.45914372050778,-0.4642945382002775,0.5545348331866248,0.31176119003959624,0.45796098646431094,-3.4636464578645416,-0.33400360084224323,-1.1067954077426656
34,2.6335023568942737,4.923794572529629,2.47691371728672,1.8131960935401588,2.1053358107003812,-0.13485439680618122,0.35669131175094004,1.168471435901933,3.5903898100604885,2.0520523185494572,3.6305387813686583,-1.42965708067975,1.8137674033256554,1.668359271461914
35,4.079023186765932,5.065688013300693,3.6713235320604225,2.0121081800203675,2.925086198737267,-0.16598491038603613,1.9366789691360864,0.991121618167484,5.038135494346154,3.22289694145686,4.6502470552062976,1.3280520463132466,2.0167298979325374,1.5152056136598564
36,2.4426275298755336,1.1205430346792988,1.980257308608638,0.9164782560409471,1.289151090113218,1.4509316005120156,2.535609068459784,1.5379212182960398,6.514729306369299,5.324319439538582,4.493815545353774,4.240750376763389,2.4356973076785775,-0.2552723698835408
37,-0.12094358811533114,-1.2179107372749967,0.7712930561376156,-0.05058715937768093,-1.0795796155411157,2.8333580654119572,3.0848759482988806,3.1566489740769903,5.505101495722304,5.726141488679926,2.460227418181636,5.485960385685132,2.851955389130283,-0.7929010562273918
38,-1.8435206313362351,-0.6801012621473969,0.40664258547337645,-1.0905065217099836,-2.534661110765164,0.35733172695929183,1.6530833969202268,2.268986049053642,-0.6501366385753832,0.6593839152665648,-2.27811832287084,2.9270172373752494,0.477948509823593,0.16849777454246406
39,-1.9523785525660462,-0.5091013146250604,-0.4808011901817925,-1.888227987161631,-2.0903441819757127,-3.7672511038795635,-1.7340398521059448,-2.235158407254735,-8.285204675208863,-7.151853418112557,-6.11125853065871,-2.011586918137298,-3.4887013421837225,1.1833235266391793
40,-0.7620017586346008,-2.075736865323573,-1.7174482485456544,-1.0545963641036178,0.2449904120923891,-3.1527971498243477,-3.2210720771762156,-5.323079512218192,-10.117903705688478,-10.045340387219898,-4.678569597535578,-5.2119409072649105,-4.325659151710947,0.8515124319982857
41,-0.25680466499265836,-3.076751374793887,-2.616718212316737,0.8136288613890202,2.5431937448360205,2.451834504535768,-1.145956559184355,-2.7059489833695167,-4.613904453171276,-5.607621630950837,-0.5502039439353188,-5.0744040867481095,-1.7645165359786261,-1.5767454165083152
42,-1.7633526631961245,-1.6818890689459622,-3.0844072040510215,1.0862781181308707,2.2148542332801675,5.320705682512577,0.8525885932539857,2.1167917441210227,2.147598905202795,0.8286052932438994,0.20958853952933557,-3.3287199743932265,-0.3206887849893733,-4.243918440524826
43,-2.6441052809877528,1.0594156161329378,-2.001065405812796,-0.40604519062178235,-0.550147380629238,0.9932776902514976,-0.044861478711476895,2.809739003908991,5.111079702390192,4.986495628845944,-1.2452614189995943,-0.8159233745716437,-0.6777065800250827,-2.790022597849934
44,0.6509803977399555,3.123843095367819,1.743783932859824,-0.6167076428388458,-2.465347177205003,-4.7688564314375625,-1.2061469773202917,-0.2251857267148863,5.685005663039381,7.759375299841857,1.7870643784766187,3.1890514774204886,1.3688452017844814,3.3327181310351848
45,5.752159051700651,3.4420159136639015,5.573356120103454,1.3333225336147294,-1.5259799622930919,-4.50371138632831,0.29891730822237095,-1.0927309087785462,6.2246586995185,8.673367500966329,8.327808299551013,6.954370476548658,5.681973553951652,7.205600875495099
46,5.969005480582938,1.9865405245896648,5.084803358061101,2.1405470005443608,0.45274471747429074,0.4672257699831269,2.2066355338368364,1.7467115409934075,4.542531813905958,3.783795905595043,8.468828079033429,6.328140994242439,5.926317475830151,3.087487823999384
47,0.21564102632252063,-0.29311038797469247,0.6136359090106033,-0.12554731770065783,1.1756683931159784,3.403355188581791,1.195639483842802,3.200149276014102,-1.4819685378012744,-5.755360184172562,-1.0576484976122815,0.7843711920817704,0.033602825893180345,-3.985916150501136
48,-4.646851437590321,-1.9502532222632454,-2.8247871846645047,-2.488504746619313,1.165910785492267,2.3476548829147705,-0.9387577141874595,0.13927952140962127,-7.825725710925105,-10.97000320224491,-9.84284179319771,-4.462320237313762,-5.335652871541551,-4.8138843178226365
49,-4.000369655813983,-2.5782401701906528,-3.033065370246714,-1.7854023443336462,1.4772327557603573,0.8690917278084668,-0.3947084839302126,-3.5326669396745536,-8.501731514804959,-6.596979266896254,-8.25565769061667,-5.109926712049686,-4.8180957470844525,0.003225926746510087
50,-1.6898134041227084,-2.854970206836281,-2.798118570439058,0.5777676926915676,0.7799744304229279,0.6072547247293392,1.6418131109397751,-3.133985013201756,-3.7237594343174463,1.089456776617374,-0.7682675810599837,-3.194563434521699,-1.7806692132958422,1.710996295437701
51,-2.012427623179962,-2.357646703751475,-3.3923010278295513,1.427900801293474,-1.9478752233920025,-0.5856924127086255,0.707595303007709,-0.007527080956824087,1.2139990297473862,3.754555773194767,2.495638003521569,-2.473683362204846,-1.0675606742033306,-1.9575706759955553
52,-1.841575603792653,0.38931775329510626,-1.783898530343406,0.5088029678763771,-3.874988479453343,-3.11205384596577,-3.074892093391661,1.476900390708396,3.622250461805184,2.357812971418936,0.981481909589364,-1.7189105095668897,-0.8242961818622674,-3.648184570528674
53,2.931203351098199,4.3438995819919155,3.1295416165925367,-0.3496377738825924,-1.5851764712431295,-3.7551265068150417,-4.3906120605910175,0.5322227816294942,4.810543041295823,2.533586705212017,1.5827533347915343,2.2840878191718796,2.4571007448650066,0.8681689284501839
54,7.950283099845648,5.336114810682146,6.692999451108799,-0.45471871102215433,3.028407020084564,-0.7483669253154633,-0.6666308589150194,-0.22827190125371358,4.9689076719437875,3.8861075750209713,5.207313106441715,7.172617549080674,5.825514131275265,5.9094720759958665
55,5.49178119363034,1.4396893031870428,4.5085498376671485,-0.21630809945499185,4.360109472939461,3.1223645842637997,4.064529557656649,0.38539411474798346,2.4208099792692694,1.8237992356764219,5.252066437450109,6.772748332814211,3.914390904413301,4.976033797309429
56,-3.0011019080731467,-3.4680223112408752,-1.178177663775247,0.32158327385815816,0.7689351441722512,4.160182041941166,4.809966493162383,1.1464621808832642,-1.7345647599496847,-2.8644442694388563,-0.6130964419281522,0.47943315416125487,-1.650738170990643,-0.28814056902179114
57,-7.556262462689511,-4.255700414993956,-4.472589111610019,0.9522373501386403,-3.0990885042503127,2.04979735976146,1.6422399479003333,1.3501197121105304,-3.4813082346322206,-4.257008676324894,-5.7118035088691945,-4.979489050829138,-3.8836464038677856,-3.83090403553569
58,-3.453770261195072,-0.9610011502795447,-3.143686509769034,0.7757871579899022,-2.6987613356405666,-0.7881297779451903,-1.7039225049854547,1.488090074459694,-1.7497644304569235,-0.7681557014023963,-4.245895983632269,-4.67626976096458,-0.8413130064287565,-3.244430967876252
59,2.5312878614666188,1.7939066547976525,-0.3275084757162804,-0.42555664291227646,0.6537919818915583,-2.378202284665723,-2.8193640001543505,1.0096262928752784,-0.2727482254999941,2.1601022850266998,0.297853916606021,-1.5701550205407573,1.7204692432743474,-1.0018264094310743
60,2.283995958058543,0.8364465325870489,0.14898189473632878,-1.5808740354109647,2.148463079036259,-2.489079934904352,-2.318625113267871,-1.5855581331391264,-1.821771210165578,0.20093732793369912,1.0065187151543604,-1.0028067004369998,-0.8201288980442046,-0.24890696052717393
61,-2.4003998644807893,-1.9323584179257571,-1.4812140542030312,-1.725534668413352,0.026892381309110952,-1.6687769627881794,-1.6397863873716516,-5.280363301065881,-3.8464708712848314,-3.6060842816903746,-2.065595929374441,-2.6936825503337376,-5.1614376223370755,-1.226759171561586
62,-3.182742613664581,-1.9415664506987598,-1.3050235029346757,-0.6657975564350913,-2.250768251351308,-0.16716477756856812,-0.7521096325521273,-5.730061820942741,-2.16755147910718,-3.2402289061986793,-2.6396726657679785,-1.7160768952250176,-4.626990219641193,-1.147137747879761
63,2.4092513768611084,2.263288984033817,2.665217741374989,1.4286945380765206,-0.7804362178494151,1.786011633099816,1.2728741009462436,-0.5693751298321822,2.8437897978717364,1.8783915618463243,1.8488933880053968,3.731823396051673,1.8415418994621195,1.9797130497953739
64,7.164044988139645,6.052331028240547,6.2833392326790625,3.272866534606664,3.033140954377277,2.970732237378581,3.6722497949631236,5.904746035154551,6.2755750800492605,5.780926585895059,6.226984822297141,8.739709835469721,7.953979756239496,5.3972858551993275
65,4.230967900581292,3.5867718190994484,3.88635365464789,2.424150620302196,3.6981419783663325,1.7586948968298903,3.7253625537810677,7.115774953241292,4.816857048605953,3.7695443885701705,5.0214885709276995,7.19357227759995,7.439497289286507,4.348306475386653
66,-3.172342132063842,-3.793932714317061,-2.9227657344619153,-1.3451777379337766,-0.6987510921809694,-1.345802576807194,0.503169743267025,2.9478636232237236,0.8480354620155246,-1.0674449667108963,0.02989691669140674,-0.4903059795741331,1.3674979120622723,-0.6857079778960261
67,-6.3491336676559635,-7.789776063001671,-6.281421212802453,-4.068203341491462,-4.972379593496306,-3.1185125717935307,-2.903628284653259,-0.65372185494399,-1.2925171184762207,-2.31523665866493,-3.0382126967869154,-7.531283510013192,-3.828518327517987,-3.9962242816148343
68,-3.20244061981912,-3.906896412834684,-3.285360162235671,-2.355794723456118,-3.650709863069766,-1.3520923939339475,-3.2447580220953824,-1.3149579178758841,-1.6626444556564288,-0.029265489482831274,-3.117043230780487,-8.801278789577935,-4.968011890577887,-3.263471629808142
69,0.2232901979282573,2.428294655223813,0.19434782458342506,1.3539154000202482,1.304917298657881,1.907763970432977,-1.4530300204964302,-2.9756782057021867,-3.5515305863972335,-0.33806081370858604,-3.759278706153323,-5.5773133160904935,-4.86191539788741,-2.4216691165172124
70,0.1358496061386706,4.143330107035629,-0.16340469197933677,2.20929576304888,3.610061757803486,2.80053136077031,-0.39905105368800525,-6.666278138062743,-6.206143214766366,-4.300259434058489,-5.031264258916275,-1.12796531796974,-5.227225227062232,-3.3972098497260275
71,0.02007392552331075,2.160495807947458,-0.3085200650724848,0.11960944169635236,1.6545697321802328,0.3423167135655115,-0.25113833279070635,-6.311988210464544,-4.5229301711641305,-4.8597302133012885,-2.1737430507053537,4.040785702981543,-2.4112006696052823,-1.7232638034512338
72,2.9922928749156816,1.5213636400219066,3.6748167166278405,-0.8617727984544842,-0.40710656492757624,-2.935760079978667,0.7190823490944571,1.0697857649868654,2.069032550530104,1.2470601477851302,5.272189143774946,9.162308361770439,5.422804711220934,4.8682209106564756
73,5.622047631598931,2.1556096374406204,7.203883811770121,0.729471545476565,0.11772920924297495,-3.792191927367517,2.4310600881307263,8.119687543362982,6.859741282692733,6.692028555544052,9.704669162592838,9.830584192772806,11.731462765096818,9.669199499214443
74,3.5332773268940096,0.2792586592209712,4.091315923169708,2.112081952171736,1.027762374561846,-0.7100597285405676,3.2657976069436003,7.094564837449958,5.549021380595109,4.764378603402633,5.556582767248671,3.1850003980862107,8.751755840887753,5.60041249462894
75,-1.7113233592687025,-3.6200139437070824,-3.3855286483828997,1.043477481749277,-0.23981584493631938,4.401170821106009,2.518057018388537,1.2270604428284342,2.215789655901563,-0.30480764661786613,-2.345327789213129,-6.07436504343887,-1.5120524994506919,-3.6028229496498914
76,-5.607762839525049,-5.124725008395039,-8.000276665772441,-1.446065005763501,-2.54595813319486,6.352778457914916,0.10228109817770134,-1.5783286209351182,1.151707698181546,-1.625283750372091,-6.059634897540819,-10.303684561926897,-9.670405902100432,-8.182893805662268
77,-6.543319602846247,-3.0198408023348153,-7.126803101033089,-3.120303774701721,-3.0823120752195945,1.7707369747837152,-3.8881889306485897,-1.2188863319591257,-0.3379205655013973,-0.9083355766651835,-5.109594244439098,-7.871139960385013,-10.345485509319102,-5.6515667204622915
78,-4.6419534656431445,0.05292570416612198,-2.848351777626054,-2.6561865807115868,-1.061296636697804,-5.2616748545485965,-6.872159250031637,-2.683722889148292,-4.993577143397506,-2.7391295819958206,-3.4588850766848513,-2.6927312669925034,-5.436027323946936,-1.6314354520360363
79,0.8813877471496385,2.9936628284544544,3.2580418897444834,-0.02134945170800231,1.9519261759829503,-6.895991743045978,-4.447515737860122,-4.902406353342645,-8.145054585755375,-4.277922158206964,-1.0496346240215648,2.835598167761092,1.6750226467507527,0.7860947229478928
80,8.190505882941927,6.044497186878908,8.980367170932947,3.086393830546748,3.8156823714668318,-1.9140419925594128,3.0110460061530526,-2.584332816237367,-4.717288857545885,-0.7614237312183372,3.606435659445093,8.279840562824061,8.272336631393403,3.725494907400649
81,10.4319587221446,6.192063046285305,8.925108090471676,3.7659532745562667,3.039268905067098,2.7127906080939006,7.964544624303891,2.500110974165218,1.7575724946427196,3.967567802991918,6.519149192170314,10.126067984693373,9.978740581892303,6.484054445935125
82,3.204646065983298,0.12504402592418606,0.6680554894238545,0.9191433302803221,-0.2287115150577234,2.4154410071043872,4.719078021572508,2.8077268558154387,4.936829754466347,3.120706845213336,3.0925778849242844,4.11944377771415,3.946582776189233,4.1973310738267955
83,-7.3877708877086015,-7.806724761544828,-8.539157874871597,-2.6727270969814407,-3.424369830819357,1.0711074134472782,-2.1469221546476427,-1.5808979973005517,5.467549804293256,-0.7486914175800585,-2.6766973314697236,-6.1298848851698295,-4.945881976097001,-2.724048581431092
84,-10.343104660825,-8.320382598420032,-8.631643324811174,-3.043654282636792,-3.296910983057531,2.9386257944284737,-3.8850875507158373,-1.4414367494865807,6.724874828322015,-0.07825549562500371,-3.0650921022520623,-10.180590881094853,-7.790377198389684,-6.181592533917188
85,-3.257337022648261,-0.13497742790865647,-0.001976389264292902,0.20592845832457102,0.1518239477359374,4.573960440525973,0.14484312750407327,6.061277724881516,5.613730035611227,3.7508121696242998,1.006789869442156,-3.8376388264445294,-2.9179169394246998,-1.891329464883683
86,5.051654965851855,6.842086815534055,6.589927355247306,3.1787076130151855,2.8426618734199756,0.6172021208634778,2.517720716372091,10.089320338258354,-2.5225560046318996,2.2348445435063087,1.6939189308794835,4.509684923875713,2.3017667856021125,3.499816721864401
87,6.049350330250707,4.743746310616269,4.062154920824506,2.130193371762869,1.5800628213824612,-6.353047443328022,-0.7738229388796274,1.417661511076293,-12.584115647541486,-5.107400922804823,-2.5194941105837243,4.95193540394902,2.1401247678940236,2.155152342699445
88,0.8372504132069197,-2.0207678235142805,-2.860117147865433,-2.075942501162266,-1.5621344476646597,-8.42238699905285,-5.1161411256193725,-12.085447597029194,-13.412498471320331,-8.58820570481308,-4.714947436022517,-1.1706165285896113,-0.9017614145870476,-3.5272547900936213
89,-3.637135422073107,-4.318448302170249,-5.409495899231205,-4.773490199706278,-2.289783066664904,-3.2309055910317714,-4.567459314351466,-14.506085676539922,-2.8369847214202784,-3.0890003925651617,-1.3617145681930038,-4.781418442227607,-1.9915995699874072,-5.285803114925876
90,-3.497165536295415,-0.8911432589637007,-1.7286519797897915,-2.769941597151065,-0.20827602863159922,3.581560386289291,0.5699118064531642,-3.0369166975357507,9.072849541296879,4.734706335878064,2.6906965581489724,-1.9128280985070427,-0.6405008679203045,-0.9106074142865204
91,-0.11651958027895157,2.3866070091592695,3.1387260174440974,2.080477461291067,1.402940706234385,6.452902078135865,5.415570299532241,9.220381710141801,12.711709888921268,7.085857485022973,3.1998677242513485,3.039174733171789,1.3689074843000182,4.481657599277105
92,3.5734253710108983,2.3821457078670814,4.836994841675049,5.1725124366244986,1.154493711762878,5.296126943387882,6.3962530182783865,11.001415088979558,8.271396754617502,4.625491875838251,2.518331036286904,5.20747671229119,3.63368253230661,6.603045905190191
93,5.143238479466754,1.3136648851350086,3.302537211941441,4.156716525726637,0.9335066416681499,2.381060216129027,3.4528433253871182,4.693605388659401,1.1796270961139979,1.5314916064535253,3.103385952547806,4.213045256427439,5.080828820630392,5.26195007231828
94,2.707512301335027,0.7029124154896998,0.3266755938128866,0.5963391405070575,1.4831617398734487,-1.325950805431,-1.33351104093728,-1.2157551406601885,-5.3158706114691885,-1.7484393710785169,1.9407526733079214,1.246534038510341,2.5532767667980867,0.939758802538877
95,-2.979485933373328,-0.9814380739324913,-2.5979265326157006,-2.62859379618317,0.6816680827816531,-4.7421844030682765,-5.170758985663929,-3.5290274775788464,-9.69316303733478,-5.562146664773982,-3.386007078887425,-3.113865215904615,-4.109575420774824,-5.5666280185633115
96,-7.029145326977587,-3.7565904797328655,-4.067878169372526,-3.958321670230909,-2.237203298634148,-5.282334338357009,-5.7210219061278975,-4.027274742865484,-9.09564866586059,-6.479421305923053,-7.988916637830836,-6.768534848972636,-8.782215549263302,-10.0624496772414
97,-5.10165834221992,-4.397020534274756,-3.4170774607605474,-3.3234004613898764,-4.182025897030452,-1.9693438462510888,-2.7873923394151428,-3.544541220876124,-2.2316500308971374,-1.9539860177693193,-5.465276268188598,-6.411274961159818,-5.94918415387436,-7.463330766631054
98,0.4439006911637517,-1.3762878069128266,-1.8486892261772145,-1.3423511773177064,-2.3392148004545428,2.0299476170114694,1.1405535542043428,-1.7778501307295524,5.93976114216297,3.6237654664517494,1.9416823460192165,-1.9951242247728298,1.1234735270749625,1.0917118107251862
99,3.431264960042035,2.41701594016338,-0.5581633192654358,1.0480921479744976,1.5539494837954424,2.9278129511329802,3.174141015171983,0.05421621664281484,7.892410938497451,3.8741945133542117,5.714100299566836,2.7388179613306844,4.673575397823427,8.204869089406802
100,2.946032844926682,4.198082124212688,1.8199961117964047,2.987759851795015,3.6090987234296343,1.2303862722499208,2.9865257687097104,1.038571851801671,3.1829239090419557,0.20702568810194194,3.401418417801263,5.707288362843753,3.6752644677104196,8.914615232215706
101,3.672000169082577,4.7456765692546155,6.446455414995125,3.9340216644702415,2.780118891734922,0.3278688531201601,2.4320398240089505,2.807923291627867,-0.5173447018675135,0.15928388845823266,1.415467336192797,8.044259295315818,3.89997634482005,5.339113734599545
102,5.893645733727515,4.558325403428973,9.15619863254957,3.1560854494918447,0.9689618310611833,1.0592489579490032,2.1437080438249647,5.700427202275373,1.1669809038739847,5.02915538022542,3.3044480432308077,8.241159941771599,6.249762025633729,1.0950965695076968
103,2.9059091528403505,0.8566471162269809,3.530580123881171,-0.0040085162091376345,-0.5216666377002859,0.975526591995294,0.4413031640863527,5.2851995871113715,2.3431906304136163,6.033122947117056,2.9494855903327255,1.1240366364513064,3.4868885496341244,-3.9299182499259513
104,-7.027102851725521,-6.87064371162818,-8.540928658238375,-4.156152505448508,-1.8801327540438282,-0.962043127090035,-3.186828154466858,-1.6859185954150275,-3.0845601709107653,-2.75573760775567,-4.644262511803043,-12.02154491261377,-7.074763451628624,-9.668537615009598
105,-13.66679060075321,-11.8319735293285,-15.03589791000471,-5.622672247981807,-2.7307217630345253,-2.354976708690336,-5.630437304534235,-9.533410219640912,-9.359261248494152,-12.993648456844578,-12.04236784836743,-18.442759941030225,-15.165378641756412,-11.162990371060022
106,-7.5520292037527215,-6.896191708662841,-7.743475024739862,-2.47728042864256,-1.915587142500449,-1.2381514705874932,-3.7336790379014637,-8.731999773574378,-6.064766622211977,-11.16514145482726,-8.027378126756181,-8.037211662280427,-9.651023797668593,-3.8445715769270805
107,5.587493028599888,4.728609718137925,6.081259253540398,2.2772373160324677,0.34432339560428105,0.7665971173506595,0.9900874983292108,0.7826683151463808,4.647285849357053,2.672311304078547,5.150190534272283,10.656155464304888,5.211202303704273,7.964201076384989
108,12.1466975403539,12.090559134543744,12.457333625212774,4.215692288753901,2.1066214799503786,1.0535652103714408,4.207188774698005,8.186160151884373,9.018746449767931,13.535602585145243,13.062065502313015,18.661409923575068,14.237597901252167,13.897186299599396
109,8.602394023583123,9.688483398740132,8.015003537313598,3.0594628917843383,2.134580716154497,-0.1598807754910958,4.414519046461476,6.001606702702018,1.7238281106411502,10.498212720152775,8.16590054785958,10.100840231608885,10.450289067726837,9.4487880380338
110,2.407719208124306,2.168966459171186,0.9860170205874743,1.5534912210168845,1.15118553330781,-0.798937970417538,3.279584049992101,-0.48994289401671504,-5.7817671902541,-0.4807619074385485,-1.5828430945252294,-2.5907875724020366,1.268223857468871,0.074133369762103
111,-2.2235176369700627,-4.333391324484522,-2.919075899076609,0.048826961812899194,0.11912143934132655,-0.35234197783593557,1.0855315203864346,-2.2829787981973646,-2.361006933848639,-6.714605148342297,-5.7826653109824795,-7.748316320731394,-4.488627383451286,-7.158207450819518
112,-7.676841681286362,-8.557020832443913,-5.8692988587137815,-3.1431168766178437,-1.1177192176788482,0.10780898838193508,-3.404122916516307,0.2778189372747108,6.343972264370743,-5.234394808212034,-4.6254123028047145,-7.541716041897832,-6.679554807461995,-10.318007698921893
113,-12.016882316292612,-9.810030059007678,-8.537020361302565,-6.101311125254838,-2.4270211593180604,0.541565983783101,-7.814841388501755,0.08604101982116362,6.987919980336634,-2.4238193133857036,-3.779969384460177,-7.8723499535878405,-7.90647640989658,-9.412301085559546
114,-7.371825406900781,-4.860712802480005,-5.829212240147176,-3.7471569998090133,-2.1912538880967123,1.773907877224821,-6.2509757204812,-3.905017106686725,-1.713667611293133,-1.5473374919839964,-3.33622789903565,-6.005395422013273,-5.861530078942061,-3.0831727433120686
115,6.1476021115735024,5.55102776751119,3.439977330855339,3.771294697111768,0.4751951437634715,2.675468048808585,2.3186783510543556,-4.679225484689514,-8.424653443166434,0.5211640362429895,0.4972860147986673,2.891679912775249,1.8207642663434749,6.906478795658689
116,15.205082195700083,12.517326524810077,10.675565592319776,8.331131160373056,3.1343391063428174,0.6126555473237367,9.773480635868088,0.9388524980423931,-6.46487138574603,4.488047383971813,6.206822819698442,13.114835094209424,9.772967408709707,12.757455574790011
117,9.415964399024254,8.296537663396686,7.823165191489954,3.8982427482722537,2.3973803243809577,-3.907954867190704,7.686497900500633,6.0566716973313515,-1.255326302010792,5.214684582740985,7.422295129647311,12.95373794449046,9.549260472286488,8.425672606625803
118,-3.8756313666933644,-2.606117108148545,-1.2344022299891149,-4.168177560606226,-0.8571275765460894,-5.790297118948864,-1.4161727453940494,3.9139747000056104,1.1718260793837711,0.3515786172875282,2.419293500353623,1.271610536890438,1.2964075516707967,-1.6340412035479814
119,-9.234787658992582,-8.31240154617078,-6.003398380280593,-5.6733867717459585,-1.9290730363579154,-1.4167794646319578,-6.909689776987302,-1.6073899163712333,3.103493732940198,-4.230745998198559,-3.15831184722283,-9.396965961946155,-5.632114513541801,-7.168943096788982
120,-3.675015827033146,-4.724336698425406,-3.4488371193608156,0.07306232426179719,0.5138398412273537,5.23511443744976,-4.102904979140458,-2.5714277772122123,7.176653188785565,-2.7894830272033504,-4.522478027707865,-9.140576386044021,-5.136703764907529,-5.082258801717845
121,1.4730597133797878,0.6259589375879611,-0.2781992013936285,3.393024161168798,1.5534614661760577,6.275032175770709,0.4654105216304435,0.10947308440857698,7.9268539158413045,1.268286194395608,-3.4604784478424864,-2.811339939164096,-1.7472832351207102,-2.0885085178176666
122,-1.2970685609802406,0.6811676511001714,-1.489863588956121,-1.0410440740114706,-2.1663412751440156,0.1296532606576933,-0.023573233115334394,-0.5328767610725981,0.19642367007703282,1.0536133225118602,-3.2113757389240085,-0.4582041156402573,-1.9665767174127906,-3.2618583545563085
123,-5.041487984032177,-1.6872610050227614,-3.1215826445481714,-5.785963443586421,-5.447189123561734,-5.610593778419077,-2.4528700965797596,-3.8943351459055116,-9.190061948853275,-2.345560641043223,-2.2263974267466686,-1.6359003817509645,-3.3844185558380615,-3.9611835071600927
124,-0.25543049495344583,0.02913506801621021,0.504886673076047,-1.7575837416739384,-1.3301904814674095,-3.8000367222416407,0.1408614822312239,-2.0535724147202723,-8.705424446399,-1.8266989665811344,2.407055424287582,1.6795992479959512,0.7203061845047783,2.1411194773444135
125,9.2942181884018,4.935029390798847,6.769395099956323,7.343936790962908,6.994790289121954,2.7060245344748313,6.280892012159037,5.24452298518478,0.5526204220727328,3.259272883302505,7.895453151032336,9.097830114936723,8.366277100034356,10.957292011440238
126,10.69585096094662,5.859626505425722,7.419259320203681,9.176694495452375,8.576613509812518,4.918988357631117,7.238929741455814,7.534943091685987,5.460913820040915,5.156163931611659,7.6027223687471714,10.063324929346933,9.349906853586635,11.302979090392986
127,0.32679826311945226,0.34287519506893016,0.304104114541028,0.13989444269294377,0.07756494904203594,0.009754123145713126,0.14270333279981157,0.044629270452284577,0.23948287300663595,0.18370005240800252,0.26221511284768756,0.4940012853498641,0.3414633722737036,0.486379377418735
