,AF3,F7,F3,FC5,T7,P7,O1,O2,P8,T8,FC6,F4,F8,AF4
0,0.06382995451063894,0.014385357048697894,0.046733456577347454,0.03165979469458628,-0.010110967156252686,-0.08175742373391126,-0.050289588593526016,0.060861153782667404,0.04136147973426439,0.13475055824156557,0.13942926027628108,0.10704138477306727,0.16170528916163415,0.1213183844816891
1,-2.7598885541950313,-2.83985829354057,-3.32985821478545,-2.3845397239422628,-0.8835376451539391,-0.5875999330812676,1.0538431114498903,-0.6017382207963844,6.578370796663646,3.0706084348998903,0.5204748586236145,1.4373405496147402,-4.272236329712334,-2.3549069471390496
2,-1.876861580842789,0.627883169855537,-1.7818220908182734,-0.775121204048332,-0.023304870002349695,2.6463918390474914,3.750830904973398,0.0567456276569807,6.00922878490644,2.667174242289003,1.9020522324364189,1.760008905395685,-3.639455932065813,-3.311062851184198
3,-0.11332753091318552,4.852170805667914,1.7621264113157482,2.2318631857052633,1.6868983483886248,5.892363704694016,5.399284365324197,0.9901964745464165,-0.6994798786292731,-0.7011277242334829,2.3249316656695673,0.18026709580561132,0.05277949744027151,-3.219492374638329
4,-1.4791241432260427,1.657674256825596,1.3435618653289942,1.7170073614864505,1.8901292400211545,3.244945049013621,2.3441188778763173,0.14836109655987714,-6.347511702509879,-3.6503982805437727,-0.458454498270767,-2.505856174399653,1.0566938284206207,-2.867970257821288
5,-3.4221618315490865,-5.184975511062668,-2.3748222079740007,-1.6736178296225723,-0.032640512961298884,-3.717494504695207,-4.065352539495558,-2.239999720946996,-6.202292465540414,-3.827206596335506,-4.539774704444252,-3.60244140483837,-1.3139362581744614,-1.291702643448492
6,-0.7620848474587083,-5.362778933094766,-3.0618772280169075,-3.0535498943159007,-2.112500980430922,-7.284739931862924,-7.852886036639875,-3.253668897569526,-1.9932337768700616,-1.946178941572783,-5.035431157568556,-1.5390426467420324,-1.8237171002085717,2.169428196776951
7,5.08842378057257,1.5512634253658117,1.4129714852507063,-0.7160687584629105,-2.213949310085977,-3.841717256486239,-5.037483845962704,-0.7191206294338985,2.404966323866254,0.4867833774339262,-0.19554983235920353,1.9611589026346938,2.1050374752386856,5.212398656440592
8,7.26188982738313,5.808027738568787,5.51710154187918,2.3119997383416937,-0.40257489038887634,2.1038326391314603,2.0388272860456667,3.63156619055622,5.314578948173194,3.32644006611961,5.600537487900178,3.9896636060995156,5.6139310375156475,5.022556046653054
9,3.0071397193641207,2.642557661157891,3.753568041789369,3.128453362521871,1.3917571291707989,4.487971713601434,7.191593180649069,5.431759830927807,5.967072802826818,5.973483131361636,6.352788985595976,3.4816258787611156,3.2624909768172605,2.2572146146818706
10,-3.2642883931807694,-2.1664233018923333,-2.083360376789462,1.4991720030950362,1.5572313987497968,2.491643517811461,6.1216761895911045,2.4870984521978503,3.0554526761244416,5.589443547758853,1.41899410557392,1.1926590952097342,-2.622441105866268,-0.5141797107853563
11,-6.31328474710953,-2.7863175405420852,-5.57615921988863,-1.4510062528251793,0.36756220106667764,-0.27939010445815404,0.1035331918843431,-2.4012870939322983,-2.334892523868343,0.3918029096016651,-3.594446476217957,-1.6161802260148437,-4.902095353796194,-2.8129107068363437
12,-5.090352960224004,-0.7808107260149098,-3.5292934095077473,-3.6790071769341988,-0.5335012164920472,-0.8638753702233412,-5.12600506561313,-4.555763208273428,-5.565797126660612,-6.215224645748228,-3.7022045445913623,-3.4537502906987783,-1.6430476161016343,-5.179489053613062
13,-1.5018411441932722,0.19342105459788048,1.0749438540149234,-2.682148627218328,-0.18949241521016075,0.18526062208827127,-4.886904315097257,-2.979438191084427,-3.9225004617691894,-8.333656271117627,-0.7068960500746998,-3.3332544761606377,1.6321525933753247,-5.89779397215913
14,2.1692585196573684,0.26942068984404804,3.3780730926315305,1.2273104992029096,0.44621389215184876,0.21805974828030433,-0.4987231717146497,-0.7928656184825601,-0.7645162225604524,-4.436315683171758,-0.03409554807628886,-1.909663204389074,0.479044351949504,-2.85784939352072
15,4.1715934622008035,0.8795526492633274,2.0586810200010697,3.7418602615812344,-0.03442677664020473,-1.680691654763346,2.6017775396573404,0.05004672199219694,-0.35534872793336675,1.3704588667777382,-2.319882142074893,-0.2587037364841383,-2.1554480321795544,2.462740921215155
16,3.8754276833273504,1.1823829859259654,-0.26224307231846516,1.8629659380113717,-1.15433111765075,-2.7870777851722686,1.8740074834471256,1.262481056618095,-1.0379499793572835,4.79833209919513,-2.411784644512798,1.891953180327903,-1.0801154886379716,6.201382445052072
17,1.9171647978353175,0.021340348957454763,-1.0300851895373078,-1.5934408164080973,-1.0270744712123254,-0.25600535478813136,0.2138605463605428,3.6845036982413157,1.4676197891135248,4.9937369204653494,2.1320944854982415,4.262918808289751,2.7530140289046985,6.213732786554942
18,-0.7413917799106878,-1.4597836798310986,-0.5467414067365385,-2.185501352320514,0.6182562717242025,3.6992940679312296,0.4645347305947675,3.9692971282262994,5.643747214710478,2.8437868538316016,6.211771022261706,4.000463312974415,3.544161192113109,2.940578882320566
19,-3.1490502265757763,-1.449875532030271,-0.3328875973997153,-0.29754565179939896,1.5868804624776327,3.5155523437172387,0.8321904674116232,-0.2314432861034339,5.319864514236191,-0.5173089759341293,4.20079005817032,-0.3518041006016734,-0.30162691787392126,-1.7321229520319015
20,-3.7588640278539835,0.03862461340151899,-0.2849852252022692,0.5952994263092778,0.3889411793393692,-1.6144034420729703,-1.2798477972759323,-4.5698668994219105,-0.36245628003735064,-2.619728427501909,-1.574627614346716,-4.331104886829763,-3.0976262718425027,-4.717119023801714
21,-1.4006371935156101,1.6601606601095311,0.73607845538021,0.16307423322974318,-1.2729375442114694,-5.30796856754237,-3.585273398526064,-3.0104591721108847,-4.525244194617547,-0.957749783176155,-3.916618854240249,-2.4305871494747096,0.06982259461828798,-3.559800593593359
22,2.3354400954814594,2.3012682312900594,2.025657855136585,0.9072738094010748,-0.8931589797621279,-2.4631042560874326,-1.6493553822678166,2.545863188633578,-2.661705685209163,2.52276025329163,-0.964416950312268,2.9082044291109983,5.250941681289332,0.019284070426579786
23,3.5854737350235975,1.3675116542678165,1.1410500170412023,2.38003750499723,0.9716147843458228,3.3785102360258223,3.4362511825579856,3.805847712017269,0.4976171831394897,1.8239406483092615,1.4039378893082235,3.330933938424089,3.728883744125566,1.1596772889672775
24,0.6981376886481764,-1.0264059651477693,-2.230289249317058,0.9654157520992361,1.456881115184851,5.067380101580672,5.151016869854167,-1.8171147191212136,-1.2451668890402163,-4.7332954343436295,-1.5626304156549546,-3.0909704089538543,-5.572480635160879,-1.5561260868885392
25,-2.9841611030084345,-3.3537928279028,-4.495910407878948,-3.44997314258748,-0.2189152889368517,1.6268663974952968,0.7142153235600454,-6.595268451419453,-5.0947139887722335,-9.515385571243945,-5.955736752811888,-7.723120456238435,-12.134392965272632,-3.426514441993415
26,-2.8743645559504984,-3.4346105980844617,-2.24032388596128,-5.375981994889895,-1.5684502469198174,-1.7298181632963785,-4.325540437908137,-3.08382449073328,-2.9199002788524293,-4.231897245250568,-4.029392013966729,-3.1213927102996126,-6.139269693559407,-0.1712665790473762
27,0.8249955570290268,-0.8148084890086769,2.8136467319325345,-1.2309976501821729,-0.7225049011091893,-2.049831031625213,-3.720814183892914,5.206018423379076,5.719798928911512,7.577968050834124,4.495244511649659,6.001765810630185,7.634817555500393,5.382108747715367
28,3.2610421737015884,2.3695851602851024,5.261997177337572,4.592249607385219,0.7871698644835154,-1.7634136150794197,0.7658827776568762,8.360573707328495,10.73821578280808,12.92698541912218,10.338008937256278,8.873336797663221,14.13035475664581,6.688792818315033
29,1.563389086735559,3.6080654722100585,2.6523125990603256,5.272061437548144,0.6773180995876443,-2.689097054293937,2.6095344304012786,2.9948086333841433,4.455781605904337,5.567826688463161,6.060974114196248,2.943670167226513,6.665629334105808,2.170193756661289
30,-1.2889988590285595,2.58961248392259,-1.536238158819841,0.9633838713374234,-0.4443260162778424,-2.1403310651109586,0.27624720610371556,-4.27289422847354,-6.874620352853493,-5.748273855606823,-3.6927997181886374,-3.798409490028168,-4.926972566208467,-3.254708124634073
31,-1.070947067511113,0.885590541663316,-2.6962904999353086,-2.143717472075532,-0.35535701004601095,1.967505979946279,-1.5056790378857308,-6.048522118197961,-9.817157326231303,-8.451820808318612,-7.708669098988656,-4.226737478852875,-7.758072738638351,-4.975014064894978
32,1.3165576094613698,-0.5548740299570551,-0.9795605311065174,-1.266075102115028,0.8476139305233585,5.859879353989753,0.13935405310362528,-2.4743681690001735,-1.253338925450959,-1.6463327089919684,-2.7314721446988206,-0.39070811875017,-2.0195011407586843,-3.385365834248407
33,1.27562959904974,-2.250229492833956,-0.1359405264888989,-0.15445925649955394,0.8489519774805342,4.198958964505255,2.1185605437794344,1.1642751443655412,7.081770888128988,4.195344025926217,2.8779808310159685,1.0805148025213471,1.7930037276775772,-1.2145523333394856
34,-2.2702025355410225,-3.9777516192961047,-1.4787692316824406,-1.8798825074657348,-0.7978503110299069,-1.9126872779418156,0.9478129830885186,1.8219110990041925,4.2780309028282515,1.585330948057768,1.281784381247631,-1.7876442937296266,-1.3197229270671031,0.46192641441670673
35,-4.726309109286879,-3.5243633844769326,-2.1059680907582465,-3.583057099764551,-1.5559530984644323,-5.5996558051858765,-1.7286450302272525,0.8903476268512065,-5.105591668142069,-4.978526800569737,-4.230048910433549,-4.406860654647941,-5.001047155352149,1.7986928794382244
36,-2.109247730738152,0.2573837221110693,0.2930538232321471,-1.2478424294965047,0.018386150285315213,-3.001661024768519,-1.9897817158316387,0.5399116379175151,-7.802470618901921,-6.127295393183551,-4.709511425727553,-2.0254649412985306,-2.263063568638842,2.171116071207285
37,3.3460292569438006,4.381796467168768,3.6639590527741346,3.6555954203338477,1.70906953550825,2.165507072686651,0.4744130929699065,0.8332493379671915,0.008149302928965596,0.029376212470353463,1.6528953783656044,3.990505473751088,4.409936393511977,1.1084177045154235
38,5.983750995946444,4.655282902092669,4.274005044867379,5.755652865341259,1.0572460771625631,3.8979412049678235,2.2487392734722675,0.7092624457050141,8.46864366729834,6.731422176835248,7.57770656958061,7.3824218285179715,7.612805640709607,0.12431929306820377
39,3.4721528807967807,1.2260370032870003,1.3732951098224486,2.6801329120534474,-0.8520958274846997,1.0574545517045773,1.0128894726138356,-0.07798361339749015,7.844660136189188,8.002497879007787,6.878019662570007,4.349285643157557,5.216443100661955,0.9355835678434794
40,-1.2927045971541913,-1.7689918740329822,-2.4334484144415223,-2.3264007620741567,-1.426334567719709,-2.5026348346931155,-1.7373030434136503,-0.8322100106468501,0.08370304222942306,4.2964179658151265,1.4117642299605142,-1.8670729912122626,0.7178687570408736,2.078938449302509
41,-4.100670168142955,-2.013235252087355,-4.252417436645646,-4.578607826072794,-0.5958447158081557,-3.2290008185274535,-2.799511552718435,-0.931282496776006,-5.765091587099767,-1.0734859410799786,-3.4209448629572003,-5.098689895744891,-3.5452158602947437,0.23785675451611146
42,-3.516690967796923,-1.3598448488524306,-3.120687394641143,-2.9711183801769763,-0.04803786769391253,-1.0880655468859015,-0.9572829284359994,-0.4445931536078518,-5.176752579343687,-5.824437919690126,-5.620776295419038,-3.69671339859709,-7.208289146657216,-4.261292906708313
43,-1.2677282175482474,-1.7596370376696029,-0.18380578056880334,-0.10241778926676073,0.1803770071514499,1.8140593043292015,1.8284612992001685,-0.0023066945991702253,-1.5250715840872802,-7.805925929418633,-6.023244373619668,-1.314179034806923,-7.648682582636661,-6.221293904846295
44,0.43828346702917725,-1.7869940813000451,2.349688483367148,1.6137536761671503,1.218091869520104,3.4860690980564573,2.8058261781121407,-0.11443687870578652,0.2747419141535785,-5.077694527820495,-4.0644831052082635,-0.6416366476550275,-2.050890256448857,-1.94547767018345
45,1.4088117262065025,0.7866525250608093,2.9904931078458294,2.198795231844402,2.215254088155397,2.681364530603739,1.529671137594243,-0.44898592702225015,-0.13251346710460413,0.8179575889312852,1.28353201476394,0.12591264729215915,6.123425469562263,5.085199659431605
46,2.6259197801603555,4.412970150793182,2.0301914292641587,2.1988602601714304,1.0037507940544739,-0.4630170459098803,-0.2469821194025568,-0.10984288800189367,0.36540637273749127,5.062513434685684,7.164673165660841,2.983994513778551,9.133298344095673,7.555275482730614
47,3.222777028405354,4.463698040910859,0.45441392657316726,0.8617768862520646,-1.9761288624901674,-3.4607311656829354,-1.3680324401058201,0.9815812642974913,2.898534385792668,4.9554343156771115,7.989116554319594,5.27528023226276,4.557841824961229,2.7900724160008923
48,0.7696484896882948,-0.6658655003902861,-1.4443615102763032,-1.9060671811931575,-3.4467254235448257,-3.192053553921932,-2.1551093153312646,1.5150453125622643,4.410146182227015,2.5074768891497157,2.267456132413512,2.665236727482356,-2.228265085557645,-4.263738869906217
49,-3.994815371274222,-6.049539195495774,-3.149863241570985,-3.5584467273106846,-1.7299421440471718,0.10497924950738192,-2.3349821708519345,0.4697036814994884,1.8742776460130033,0.5978423251771904,-4.726329944998489,-3.756914124804042,-5.7119263564276945,-6.692235799912143
50,-5.616398125402657,-5.246027280697363,-2.7527861247032464,-1.6134389209762918,1.1407094627660486,2.5258601953504516,-0.5151756818449701,-1.0082267086887293,-2.609382621821568,-0.4978257241266756,-6.762354352129841,-7.011509951812604,-5.188672831093517,-2.6921430200363967
51,-0.5484032982844742,1.4616469056591135,0.7623102923835562,2.3901794211358545,2.6153941818193855,1.62770777103259,2.9683891481344764,-0.8180894640254297,-3.6983192982879594,-1.5294315710714392,-3.0779732381116744,-2.4941074873922475,-1.8306867324189762,3.436940154288961
52,6.381970915279586,6.602963910408623,4.386737346534997,4.133685613805098,2.464243544674649,-0.423427778580856,4.64679474123938,0.8146818221666801,-0.3418991259023653,-2.1760480866699288,2.163609896897306,5.368539851350596,3.1395120632381226,6.119598504453206
53,6.544202498432657,4.4007151593980725,3.4760380379381317,1.6572737570742122,1.3346599476291245,-0.7401983552303281,1.6059707899881752,1.0918050254551834,1.9096275339785123,-2.1124585897773964,4.664653449317029,7.418828241248306,6.165731195186164,3.4273184021215766
54,-1.3277343787212896,-2.253373263515446,-1.7968240077838669,-2.507540165006271,-0.8740296903921048,-0.08684210211742366,-3.919790865740288,-1.2092992582247766,-1.1661263034064757,-1.804037918102233,2.8683160267166072,0.691561485084804,3.3083513312623634,-2.0784283925316913
55,-8.584656989751677,-5.742428169804777,-5.439698615447454,-4.328484397272208,-3.364424042541903,-0.47303408004802155,-5.899316054916498,-3.201749618803362,-5.208887166492633,-1.0238505504966078,-1.7491961202005202,-7.44059732231302,-3.3174927478939926,-6.0533146128279665
56,-6.857364447140617,-2.983529310972597,-2.978587483502758,-2.2020730514258253,-3.5038206562690815,-0.8786558399756073,-1.548977971005457,-1.6855563461756933,-2.867364238795069,1.062834553905897,-5.2241490817742475,-7.648407883318687,-6.304466839649384,-5.63083738292936
57,2.0418623726578606,1.9216812617791534,2.684744731525792,1.8630282236725553,-0.12039205597064458,0.643276802427405,4.4658737306668055,1.9144483844785212,4.764341212016928,3.40249196430905,-3.6259462798047624,0.3402285171875715,-2.5261761286411644,-1.0823278569097206
58,8.636299129785373,3.7032860334992854,5.160589468454,4.102887683851635,3.662764204956691,2.3065140842461207,5.145731078492861,3.369998872816938,8.56121947532255,3.351502166745339,2.4832997720806826,7.646181228591161,2.8266313037216433,4.546343726488495
59,6.721120685495601,1.7993093722863758,2.4895403218641796,2.484763958349372,3.6309104808621138,0.7481793691985799,0.04437610496042541,1.7041295887881212,3.9489695793696873,0.6337842132868794,7.088484000032818,6.899179144906066,4.0805995624448,7.333404625721563
60,-0.5657637980052798,-0.5464136658018962,-1.5656200409810421,-1.0570979302075982,0.012870056822994105,-2.716287441718338,-4.040471431532696,-0.011826664759079189,-3.2055572581531817,-1.6855921188585625,4.838786860270071,0.1587580291636598,2.055264653066386,5.046739315840279
61,-5.56271019884996,-1.0641143829011075,-3.1286330677607364,-2.6587996980074577,-2.739430850977641,-2.9590233181875973,-2.1821612816197797,-0.004644088483213406,-5.576991574477784,-1.5416858329585093,-2.2593241445166377,-4.947718681271126,0.3058033368418083,-0.96442701975458
62,-4.872853121363589,-0.5827058068661002,-2.188284422543419,-1.193889843944602,-1.8506688320699516,1.1281824691575382,2.288216673065666,-0.23762886610094108,-3.4060754011038363,-0.6107889635858053,-6.8262292357634555,-4.505781318356513,-0.8747254531784973,-6.2453658556835565
63,-1.6083087540213694,-0.7780555422815556,-0.7907538191281673,0.5588469629817435,0.5552198114342467,4.32666284660601,3.0518818290030647,-2.228233588857991,-1.0665133298069984,-1.0430272252633248,-4.780307121958725,-1.1560081167082288,-2.6766370109272835,-6.6783220962235
64,0.33682511434406104,-1.427442294391803,0.23160365850235554,0.15118300009924457,1.08223767404471,2.397615588990861,-0.4545336133011364,-3.689719489025179,0.24495465869179808,-1.7829896939638772,0.5739086531654661,1.1073689517157927,-3.5504968500538125,-2.341031999700017
65,1.1883291416340058,-0.9365009508766706,1.3214027961371326,-1.106957611232183,-0.252470418352101,-2.2086855611569627,-3.3800562163837515,-1.7921179860628045,1.812759739934262,-0.4679113898965296,3.6430635284726387,1.5796170929184226,-1.2841574467409196,2.567896429322598
66,2.8355669224984723,0.9676511938719126,2.2506679744903613,-0.5806954419711169,-0.8612432798691159,-4.300817657912403,-2.7075324321718823,2.1922527670326013,2.98294074791502,2.3616093193243466,3.0621503037000717,1.5984520696463884,2.6179134027221287,4.274000155712073
67,4.042221378074705,2.478978680110316,1.8753879352708116,1.4887304538291313,0.16387192947032184,-2.5202420746497847,0.054726267721403,4.2109551128680565,2.0441843027954008,3.4272993062578707,1.414468872596315,1.4046703629947106,4.378693755907266,3.020296614833617
68,1.7705485523622462,1.9696987629078908,-0.0937944106138863,2.437903154736225,1.0424050880517572,0.5532960176138396,2.4126581918127457,2.557254337380211,-0.41624988516533395,0.9557799957687743,0.31532861081998503,0.20235242255636204,2.5676482128975375,1.2175195378589008
69,-3.104448261818228,-0.04022764212001933,-2.141879639396014,1.0690387278208473,0.4622203164316938,2.5201918710986004,3.0783968990125485,-0.6264988149424475,-2.3021137831809755,-2.901609248457775,-1.1984324207230594,-1.6982670617680773,-1.198698939574383,-0.40328024273858787
70,-5.195644962803319,-1.629864780212114,-2.2780552843057262,-0.9480054323736475,-0.43040669212102733,2.8717069912320374,1.4549100920867997,-2.4541246390203804,-2.483452884265934,-4.1009481507148555,-3.1370052365672,-2.410447865061726,-4.286041217564634,-2.2976966001933192
71,-1.4506461744913197,-1.4855382757934763,-0.16920210664429453,-1.5596394378958574,-0.10019442690460699,2.0280304145144994,-1.3236034679240458,-1.8748911507848036,-0.5684248175601425,-0.6336424499552468,-2.682046695115496,-0.46757642131184646,-3.8812091272900555,-2.8873785157866796
72,3.8552765948809573,-0.05215897949132077,2.083880723234766,-0.8434218788282357,0.7698673758943492,0.6386884845252556,-2.0749896488722532,0.28423736112228865,3.0328794488516153,4.8170661819451075,1.4140372119894051,2.8084945690418763,0.9513436561290135,-0.07278061332916656
73,3.8888546035243707,0.7205593834732271,1.6792798303431138,-0.5139636425010189,0.2504922741894936,-0.7951214281302451,0.08072471542689047,1.9296054638621725,5.025019219652008,6.0845242814234775,4.730320020281552,3.5482987559206047,5.7738429531738005,3.4977278439925414
74,-1.6212522936275666,-0.6519795609328256,-1.4720983101293554,-1.262377932592882,-1.6502784149252552,-2.294848012047029,1.2337652462759225,1.0779953814979666,1.3066958511596123,-0.07593690246763246,2.1339345969066854,-0.3902040712527869,3.9128964629341008,1.9657539163162714
75,-5.387637536559348,-2.6029112315885725,-3.487868824655942,-1.320322717176404,-2.3723628072896825,-3.6078242968639236,-1.2829907817505481,-1.6118397197767997,-5.966437161278301,-8.008725729324665,-3.671141173494051,-5.229185220923891,-3.553487775122361,-4.28729919209486
76,-2.0936511392816493,-1.4234383956428946,-0.7906729141028216,1.1724405972774843,-0.17571986731266143,-3.3165247134204585,-3.467544782477343,-2.839240961573898,-8.142026684759141,-7.819502923911719,-4.528690074722963,-4.442984296057632,-6.7047442961714605,-6.4262874432928765
77,4.1010670341001605,3.2588840988499017,4.151194693333897,4.375607915355344,2.8760907142636323,-0.35467531323338786,-0.7609318035724685,-0.9499843939285303,-1.3570738949757357,1.4604266816046405,0.858516799565969,2.1504943134895074,-0.7911563688223406,0.5408060819148844
78,5.086634688745795,5.982160875675583,4.667617491854943,3.7628234571109593,3.0085937314693525,3.711420293128403,3.6005011423794606,1.564471409210092,6.571445019421805,8.584203627813192,4.0652066542486605,6.323185491820993,5.294043234474203,8.447019323812267
79,0.13191816558514702,2.162030911703654,-0.8616509986898067,-1.4053609142010353,-0.15617847069408117,5.633671452862709,3.3051958093247435,1.9780362077470763,6.4387220185036815,4.848340523709617,0.204726633496284,2.2742752209235664,2.337213507095201,6.428705784669803
80,-3.394684068973151,-4.304555148021496,-5.464328656934089,-5.346861420523291,-2.676567860250526,3.852448888449432,-0.4418685681847916,1.3523313658039253,0.5964234183095597,-3.1725031194017532,-3.5445824016847514,-4.206766407995995,-3.896307175062372,-2.8363879792942246
81,-1.085668015275903,-5.4026797714301855,-2.8802326861072975,-2.96147828860142,-1.5934051538726577,-0.2951070593735311,-1.1879605589382438,1.6528382272936961,-1.891674810237424,-3.4674561856660273,0.3608234763912514,-3.528929826079559,-1.7447724127662363,-6.6578837427098785
82,2.329402891863471,-0.4956000677124227,3.092317442723161,2.367807502638197,0.9636697594603307,-4.332034239333362,1.201990785526932,1.372946665373993,0.21431197713903127,2.8467420127599197,6.288740274025654,3.208698999957463,6.355046870950662,-1.1282575114692661
83,0.8412603493920574,2.8262190054443703,4.008989624688099,3.1399760602264366,1.166037611172766,-6.066881053946073,0.4427173259676785,-1.7190727883013834,-0.029139017324231596,3.665692423582911,3.5754605791318377,5.4892808766502785,6.539153129696125,3.8306666316506384
84,-3.4801901318755055,0.47759339201522977,-0.7310750977023863,-1.1065504293576667,-0.7739673921434422,-3.9001804933061393,-4.067412557584217,-5.13017465067925,-4.311040869015073,-4.03546798555846,-5.7830448652600275,-0.8186660169560257,-4.150567588724342,0.5422480219818078
85,-3.934371316134021,-2.3112710038384274,-3.629194121207808,-3.182524532009173,-1.3934357547409584,1.706922487606908,-4.691294453625603,-3.9371596658752077,-5.30709421684708,-8.60829873584808,-9.044901040609156,-7.267644904282336,-11.788516741309435,-5.000152320507446
86,0.5265071554574741,-0.1557522286437474,-1.0140016571552244,0.37322605966088596,0.355410173902701,6.623117585070525,1.6462762133909612,1.5863634672020204,0.8119719612646392,-2.0877603788978263,-1.7685462286265254,-5.289941499238405,-5.878693293703667,-3.5085662467777015
87,3.9704995791374986,3.5467430698288416,2.019944017986982,3.8886055116070324,1.7340768197223904,5.738968116893923,6.838683460444181,5.277087431218027,6.62091020705768,7.006588364215621,6.022263225751469,2.022180697944787,5.6710544942783825,3.097914941701706
88,2.331027826464089,2.303807879509339,0.6637670312525598,1.6926763360547006,0.7635903279267099,-0.8197826267725954,3.343884295664809,3.1779397837822407,3.9324728127662216,6.729360071446002,5.118228251020119,5.4382515194100725,8.74627560080048,5.478408619611468
89,-1.0682298116708608,-2.5444793721975154,-1.936015227528511,-2.8771017062143844,-0.9299567868429556,-6.199578349170609,-4.055580783203536,-1.3449403608702513,-3.393474074064484,-0.6895919689214756,-0.590955301598296,2.6193814554354065,2.3508839562362525,1.3696373792607794
90,-0.7700618769848918,-3.3120906912078505,-0.26923752336619183,-2.660000276510598,-0.9060400737273926,-4.322746484310795,-5.180586299667186,-2.601299870720419,-4.5026265916092045,-3.8092068441428077,-1.8317627039419457,-0.21542871548168818,-2.6464143843457384,-2.0301790423866843
91,2.6797779972655382,1.991212421162064,4.240157499289481,2.292169102006881,0.5514961300762586,2.1496122262028905,0.758863297738497,-0.14973425550497918,2.3267263608118185,0.25634922316938263,2.2373347661000995,1.2383496343800136,-0.31001308364802505,0.055686180110432526
92,3.1889472539878674,5.641173544497596,4.762313850944072,4.592481663960725,1.147206276834886,4.827111245538565,4.77892130440014,1.501296627316604,6.524213068250588,3.260222491356764,4.038367050913331,2.902840723657559,3.343980125300732,3.0473369370261705
93,-1.9327984655786943,1.191875564494764,-0.9790973625946511,0.19283349895716842,-0.0771943863945826,0.7634744933312231,1.6517486799347112,-0.13205564650100787,0.680122130333569,-0.0041102207373775596,-0.7061299973613289,-0.7070176397037865,0.8860039144025272,0.8065255970346126
94,-6.945921382226228,-6.511174627956934,-6.905357388577787,-5.770658671783737,-1.5037047217170194,-3.611572981898888,-3.327930470983789,-2.190862185479189,-7.80606419572041,-4.452752517568205,-6.871901728763838,-6.7667463078965016,-5.485396578443966,-4.81485880568633
95,-5.054585687825579,-7.692441207229022,-6.362789501181547,-5.977989520385942,-1.3100634595487821,-2.0308659675697363,-3.286882078883033,-1.3028331468857466,-6.97629900949143,-4.012809409668989,-7.079870002954256,-7.246418291079481,-7.639037945462364,-6.939903140508052
96,1.5582662424210072,-1.1395215978957292,-0.5065744254244606,-0.412462196467166,-0.0121606746628741,2.4338134252902863,0.42135974284599204,1.214279555347736,2.2102483493032365,-0.5405085300979027,-1.2493283962764512,-0.8776213283194766,-3.031811722892637,-3.3422749991444975
97,4.786165186965826,5.211308378478836,4.1449985824194515,4.71879883392033,0.6580881170116806,2.661998252957074,2.036970381090651,1.8211737590979087,7.586412946449551,1.215645963259966,4.4989684703777675,4.916677643765531,3.0154779552301947,2.0875942026596728
98,2.7640655086312704,6.042956188034256,4.540526775825419,5.58367077057102,0.722353608490911,-1.1105745483789289,0.9144732751482262,0.42805715738795674,3.636779989606757,1.8646058896466031,6.331643726533691,5.316423535232344,5.886581159488223,6.020326377448635
99,1.4798612189242568,3.8006648260682576,3.2236717395877847,3.676073843481023,1.4488787164313766,-2.2521419562420872,0.8081240769371054,-0.21000459540287844,-2.1688630585232476,4.236610112939758,5.284121993538739,3.8028529486402927,6.300060303273207,7.971477377446529
100,3.200596316636052,1.5746197542031568,2.1909904692267497,0.8676266163896842,2.0140142382839326,0.7689255268243343,1.720871684280679,0.28757958055674493,-2.482215927841982,5.706939973193128,2.3908597852910587,3.520293857192777,5.106295692010301,6.3990632021477
101,2.0667618363644547,-1.626047665384153,-0.20779636638962848,-3.022832643162283,0.08583425526529917,1.9733614709570018,-0.09954116264645958,-0.29884120360315725,-0.018173959606818973,1.3703622945921419,-2.6104939710124184,0.9795464026988221,0.2872960183152089,-0.6672800625450135
102,-4.665020401639315,-5.823897971619736,-4.460569752219601,-6.553122307196306,-3.368481658390829,-1.379013714679225,-3.9321111334824237,-1.8571587358807498,-0.16742390304921498,-6.19243781492921,-6.984505092524693,-5.887871156301778,-7.123412542408346,-9.555749364440121
103,-9.204585673887527,-6.733284076019405,-6.468748823381169,-5.771974837388257,-3.8242434490407566,-3.590035849473546,-3.9535398321950663,-1.4263972297025342,-1.6248925394358564,-8.217744448008276,-5.878826647492636,-10.239931067841091,-10.1312028091751,-11.85428519815741
104,-4.070577391467478,-1.791727656764341,-2.699737775951962,0.14355292663432087,0.1455973826941266,-0.1087378646310707,1.0962058609557508,1.3569142872869537,-0.5460672653168709,-2.212561539968118,0.12713268891617993,-4.918232785860418,-4.2971451716122635,-4.536058842383391
105,5.429896890921387,4.550420213916555,3.6133608994166493,5.947316256264158,3.753516279169074,4.373046466821358,4.663149793710581,2.7256339970682304,1.5315402049765832,3.9851278538464605,4.1235458414626,5.440519037577444,4.791231252380923,5.418614551118246
106,7.904938652921222,5.935647538966008,5.697134529226486,6.1044915586964335,2.613699003630715,3.1775814366391057,2.326700492868238,0.6554087600872587,0.8543100189620892,3.6518319054676422,2.4963522091094523,9.31218795007431,8.005473901582958,9.449554360848632
107,1.923751564463222,2.233950831148518,2.1064986702854105,1.406427779665976,-0.8286855182260797,-1.7578053538488065,-1.3226098940172535,-1.6941499127263806,-0.9632072715932533,0.252662901675973,-0.09592651694597201,3.810551045310193,3.897295476789698,6.54201029635144
108,-3.31528629062063,-1.3415266235997991,-1.83574242457734,-2.7748630344939476,-1.498907570158189,-3.253906442291691,-0.6560447760877232,-1.1122682517934213,0.21778119194258405,0.19555227801551398,0.9377721072821914,-2.684461320472222,-1.5669463433819077,1.2551325360217134
109,-2.4544569531072584,-1.9418501064454534,-2.0788778467527593,-3.365215061688657,0.2323588601223685,-0.23646032767845318,1.5546341442806917,0.5513606507527063,2.582897606002919,2.0710788890851317,2.4712227174436814,-3.5279587655584863,-3.965355232348948,-3.215983289691194
110,-0.05373790093594005,-1.5605019680505308,-0.7244602458627347,-1.9067618459421765,-0.0493845256468549,1.4350026636729833,-0.6500007856476488,-0.04713928373563235,0.7062634444881014,0.3908795147601329,-0.2031454729162968,-1.4077931264848582,-3.4567419290670274,-6.017826628189614
111,-0.4650248235272816,-1.665456458951552,-0.7158214952772806,-0.5168121470903031,-2.3364016133634946,-0.8276229624938944,-5.212426503877021,-1.7268364230627045,-3.8833786017987877,-3.315771075188526,-4.206827708440344,-0.800296996084593,-0.6435492619110101,-5.593973373087508
112,-0.5961155871813968,-0.3318182786570606,-0.43995944041626966,1.0485201267145643,-1.5363261644720585,-2.330727102850141,-4.202531720668697,-0.7543435045403358,-3.3603524653770056,-2.185321422886004,-3.083080028982098,-0.48874416818158894,3.938476503614932,-0.7797714170271526
113,2.4507541589274604,2.8631121043878967,2.201044821315908,2.9359395757687445,3.2406748862324575,0.501608571332928,3.1394421941384225,2.4291257195665206,3.135681517428581,3.443922951173322,2.4238793477870764,1.8201816250470173,6.349860119575047,5.269814670236262
114,4.071852046386585,3.7295578956704185,4.125423112876993,2.9211717307349567,5.223323346107717,3.7169103236228573,7.64776712840505,3.2440529276223873,6.085830219904528,4.601967997389242,4.837436900896301,3.323021028520015,2.1545317010239056,6.533367266926311
115,-0.49001367505416876,-0.42777465939733916,1.015317269293179,-0.37857638866302296,-0.016228235778490085,2.184140877029599,3.3129660352089614,0.11345205927227234,0.034012708614952626,-2.233925432376757,0.8828841813276463,0.5290640562435203,-5.7927507199591,1.21423976861147
116,-6.618679840824891,-5.107152503283515,-4.95103615856358,-3.9766118381968756,-6.339659093525061,-1.8859685673525612,-3.738925134786826,-2.8599656908876576,-6.9452898395470815,-8.096572060373356,-4.353416473893019,-3.7465559660822025,-8.801951621025587,-5.15877311255523
117,-5.876817552830229,-4.209529928276669,-6.7985909140125464,-3.785879176076958,-4.975490759793157,-2.501242668203868,-4.407547934163302,-2.0879706197518355,-4.981609943494641,-4.259204598764917,-5.0411149090731575,-3.8055125384611364,-3.715888341332692,-5.8488556208987035
118,1.5460995831445021,1.0401630990426936,-2.0480487278217905,-0.3700080177854919,2.446303109208282,0.32413248761349406,0.2709595442287195,0.33288343272352283,2.9013978090356174,4.438787391451534,-1.243025441149601,0.27197962829934225,3.076416833698177,-0.7037515850335173
119,7.023773693167055,4.137693818945808,4.182936274178769,2.1545481223538245,5.934698030906209,0.9228916189358999,1.9618079354179663,0.5033601172582621,5.938784931028569,6.649476113725944,3.285479462233237,2.9394769072569065,5.312966830890474,4.311718341632909
120,5.282954705344524,2.738028907735215,6.156888687916421,2.2642301788503434,1.5984967650550554,-1.9800357420331043,-1.5040830221702506,-0.9138137498682437,1.5751772691427894,1.2209184750826718,5.583608203504615,1.7591474147623738,4.345283589418531,4.527515033660267
121,-0.014761832063075887,0.5740808372498075,3.900176532284642,2.1497201497460376,-3.242473638441177,-2.517258566612215,-3.2760251772730706,-0.12240282558892031,-2.3082694690158116,-2.0145031501291646,4.300859698825528,0.3798188972162449,3.6915549611509904,1.1062010892827834
122,-2.9203053071620193,0.38811697961985464,0.9452921078561307,2.695254760942803,-1.6333736235548935,2.3726041023590927,0.9374826249523525,3.0192877151613,-0.40875439097644917,1.8962174787892017,-0.16734001295423537,1.6545894191555564,2.304065757013408,-1.853457933595908
123,-2.450058617414427,0.2827456581750924,-1.2731963857692432,1.5057311049745288,2.755544867481911,6.336075251259278,5.463780833934181,3.8911348092822644,2.6310646484168725,5.137893908762445,-4.527345308889663,2.472914985709353,-1.8307850181934124,-2.3561074398785116
124,-1.3816375128292775,-1.7999601688019746,-3.6893969678981655,-2.63256823086954,2.0333869251453027,2.2739201462434986,3.0573838636629063,-0.17767808645398225,0.4765633695433402,-0.6482051860964628,-4.74095835675787,-1.1089546977629288,-6.104394469756972,-1.4442003059424535
125,-1.1804142855094875,-4.092084593469194,-5.658979417068754,-6.4442226050672735,-3.301317435930955,-6.054196125859932,-3.774934004108093,-5.326926031450943,-4.803993069516535,-10.387513841190199,-1.1861499338989314,-6.397227257378628,-6.5662900541640985,-0.6042670307862409
126,-0.8745864946988906,-3.4766960278904633,-4.505267089194584,-5.544832831590141,-5.048134398863557,-7.819096672267311,-5.766484291581176,-5.520358674044909,-5.654156061370498,-11.085541745798388,1.2753665497872952,-6.438114789055656,-3.5299527247908937,-0.09212736577219269
127,0.2403843350170158,0.19855163485776955,0.21068280700801562,0.10806570268726244,0.03240086189937065,-0.03551196768198187,-0.02546021340666403,-0.04054916777247721,0.031180129211539308,0.24372437893400145,0.1730540720611792,0.295164090182904,0.3259199263353712,0.35585389520650523
