,AF3,F7,F3,FC5,T7,P7,O1,O2,P8,T8,FC6,F4,F8,AF4
0,2.9851296221531376,2.294335183970914,-1.7302828808975246,4.819950286538741,-2.936537592372415,2.440105736624537,-4.698837230565265,-7.595165805204637,-1.8005268093435522,-2.727724278603127,3.4103454603383274,-11.531022229387414,0.20497317455857667,-6.851866417688633
1,-0.2759673172642282,-1.1957851793390903,-3.1435694603570044,2.395777608535371,-3.455056611672532,-0.956977201249407,-5.706045767993227,-7.388166959958743,-1.502322186199606,-4.618986227027269,3.0595909929214344,-13.92011924644643,-1.2832820799591977,-9.374694574412736
2,-3.498196213582233,-4.610148731363952,-4.562695627177865,0.025463364461211193,-3.9716049112394756,-4.31541836307107,-6.7331551564953775,-7.197130989314092,-1.2223226467567783,-6.526490159430198,2.700324301449513,-16.376689421736696,-2.765699383299142,-11.892801318182475
3,-6.659820377189142,-7.907003663494794,-5.977105405138881,-2.264903703477528,-4.48017198147632,-7.582533392456194,-7.777284605513413,-7.003087851783971,-0.9697050616169615,-8.420299147730628,2.315630280471005,-18.892082066215156,-4.226580567522675,-14.390482242802184
4,-9.740800673765012,-11.048337339107228,-7.377002250437045,-4.4521621524606205,-4.975416343650047,-10.707791972126882,-8.835118282668107,-6.788749849866517,-0.7530562102280459,-10.272296634589589,1.8876579064519297,-21.456741204329887,-5.651731410264286,-16.853267600595174
5,-12.72320484791409,-14.000977627824101,-8.753790120049041,-6.516844710194114,-5.452985873693681,-13.644035450338746,-9.903011390525656,-6.5396941035138845,-0.5802087573163722,-12.057497579503472,1.397593576665835,-24.0604607896394,-7.029109915709097,-19.26836846326896
6,-15.591501128415482,-16.73747902007836,-10.100373191007646,-8.443764884879755,-5.9097439423631215,-16.34860377752901,-10.977005481834018,-6.2452571880622285,-0.45806949823421783,-13.755065738359347,0.8257935400428411,-26.69252659696803,-8.349271449099898,-21.624952226788547
7,-18.33272064080511,-19.236753371646433,-11.411292575870657,-10.222392276704419,-6.3438835981191115,-18.784340907976265,-12.052745427284584,-5.89908386774008,-0.39244075242357673,-15.348980034397231,0.15209882181110418,-29.341728129794188,-9.605576681615418,-23.91422221460038
8,-20.93648548843872,-21.484421973166963,-12.68269491744269,-11.846999699265817,-6.754921393719908,-20.92045163713896,-13.125307350087164,-5.499304076228419,-0.38783903799104746,-16.82832537181306,-0.643661913731481,-31.996241719051298,-10.794151772874415,-26.12929393740251
9,-23.394911845576416,-23.47288342487395,-13.912144189389716,-13.316580176752314,-7.143572924198612,-22.733187650725725,-14.188962575907095,-5.048346101504212,-0.447318410397703,-18.187216114779012,-1.580995167226943,-34.64340478013885,-11.91361506538904,-28.264879717498406
10,-25.70240955318804,-25.201109603360095,-15.098303556334422,-14.634547800239085,-7.511523386525627,-24.206346239682485,-15.23691523330166,-4.5524256527564075,-0.5723087576426769,-19.424390375708022,-2.6779236261242914,-37.26941952054665,-12.96460805608276,-30.316813276276175
11,-27.8554099477419,-26.674198234572174,-16.24052719368191,-15.808252036228733,-7.861117103230958,-25.331570941214398,-16.26105860774008,-4.020776579229937,-0.7624816013280595,-20.542536995543415,-3.950075198482481,-39.85903960995449,-13.949187292707604,-32.2814644773022
12,-29.852059692207174,-27.90272318409571,-17.3384104899538,-16.84834773768094,-8.194997922345463,-26.108448850338462,-17.25179643055821,-3.464706812508312,-1.0156571751584764,-21.547432641600032,-5.409743541853445,-42.39530255848296,-14.870145526831166,-34.15510842916944
13,-31.69191849824308,-28.901931072894158,-18.391349614864236,-17.768070355060605,-8.515736145213415,-26.544404460891727,-18.197969808113694,-2.8965713532848323,-1.3277662590652346,-22.446973383097625,-7.064991839519659,-44.859371744669055,-15.730333640112558,-35.93331952988604
14,-33.37569243610067,-29.690834724657453,-19.398157736327597,-18.58246653796832,-8.825476470286748,-26.654394456701482,-19.086919227964508,-2.3287528543682274,-1.6928780318002923,-23.250184220386373,-8.918872595371802,-47.230544066811916,-16.532049604579576,-37.6104581144734
15,-34.90502311632237,-30.291250517130827,-20.356775893749912,-19.307624797288987,-9.125635513650279,-26.460411722764274,-19.904695735778134,-1.7727305473607013,-2.1033011400269244,-23.966282755046418,-10.968828784868062,-49.486462353350305,-17.276548499075517,-39.17930528271093
16,-36.282338828758114,-30.726819132431665,-21.26410314695698,-19.959940874241763,-9.41666789851463,-25.990810394302013,-20.63641867140416,-1.238301730419347,-2.549759987882816,-24.603861096024996,-13.206326329458536,-51.60354851923762,-17.96371082277819,-40.63088235366266
17,-37.51075981158265,-31.022039686983874,-22.115955259091816,-20.555440557399763,-9.697908851860081,-25.279467740200786,-21.26676223263623,-0.7329994948595928,-3.0216428683341627,-25.170234806360167,-15.616747058226656,-53.55764814543245,-18.59188755364531,-41.95446892917795
18,-38.59403883968189,-31.20133822214091,-22.907146355012618,-21.109171502689208,-9.967491250620315,-24.36480331223329,-21.780541585464007,-0.26172914400651115,-3.507313640863436,-25.670990773666478,-18.179548616405366,-55.32485364761715,-19.157921757402303,-43.137811635594275
19,-39.53651197537721,-31.28818491696245,-23.63167607459054,-21.634667127596117,-10.222328201841426,-23.288680673187656,-22.163361827683186,0.1733732836804306,-3.9944745705707536,-26.109748805586012,-20.868676721464457,-56.882454465821105,-19.657330004189674,-44.16749714745775
20,-40.34303367670094,-31.304271428575728,-24.28299734069938,-22.143481307053577,-10.458149772921344,-22.095221737988737,-22.40228958553772,0.5728723405130691,-4.4705649431896255,-26.488135872123593,-23.65319871646169,-58.20995085185465,-20.084614160950604,-45.02945015647704
21,-41.018875943517926,-31.26876113057785,-24.85433749511879,-22.644793112962084,-10.669584589721511,-20.829568024772904,-22.486506972561003,0.9397776142305793,-4.92317827186151,-26.80595837719933,-26.498117138135,-59.29006372498144,-20.433666494187612,-45.70951093128446
22,-41.56958172867,-31.197629908670685,-25.339047485643647,-23.145085422996093,-10.850282206824994,-19.53662615769609,-22.407910476993596,1.2791320121840688,-5.340480201352348,-27.06154709091145,-29.365317767426543,-60.10967577714299,-20.69822858965542,-46.19404782859386
23,-42.0007753838762,-31.103120930512894,-25.730958236462943,-23.64790729553412,-10.993077312647237,-18.259835687950464,-22.16162210871714,1.5974791783719768,-5.71160939459723,-27.25224085439425,-32.21460700353962,-60.660646134052406,-20.872366376462793,-46.470565425988134
24,-42.31794368190928,-30.993340168109338,-26.024728006870234,-24.153734316337545,-11.090198876513629,-17.039995263643764,-21.746385771376172,1.9022488327592686,-6.027044579244973,-27.37496776422093,-35.004796970760005,-60.94044972164384,-20.950927888022036,-46.5282760274504
25,-42.5262075947122,-30.872018487284667,-26.216167464411285,-24.659941569126225,-11.133525171978354,-15.914179153485417,-21.16482760041151,2.2011025497435934,-6.278922322560177,-27.426875561577425,-37.694802067987204,-60.95260126944798,-20.929955844333627,-46.35860912340764
26,-42.63010726011362,-30.738460932581653,-26.30252956148705,-25.160900443303053,-11.114880323341259,-14.914771688464713,-20.423564745154792,2.5012860139169395,-6.46129180857388,-27.405956899657617,-40.244715862798294,-60.70683241556118,-20.80703291482022,-45.955639163781896
27,-42.63342131975685,-30.587695661984363,-26.282749711326584,-25.648204567554128,-11.026361726785696,-14.06864388536249,-19.5331532490217,2.809035221383191,-6.570295019741673,-27.311611780569628,-42.61684063624977,-60.21899986410393,-20.58154332063204,-45.31641674971372
28,-42.53903804552232,-30.41082508639483,-26.157619783957994,-26.111023208409218,-10.860682534033252,-13.396494949267664,-18.507873121492633,3.129081322105268,-6.60426366338137,-27.14509096434062,-44.77664316755312,-59.51071443067817,-20.254840082679422,-44.44119240534142
29,-42.34889027984219,-30.195571063518944,-25.92987901675666,-26.536573251893113,-10.611510949567757,-12.912380480341287,-17.36535765925533,3.464290622799065,-6.563728197722383,-26.909772221543793,-46.693610957199716,-58.60869543957216,-19.830312584625364,-43.3335258462404
30,-42.06396009455299,-29.926995174691186,-25.604207578963283,-26.910693722133434,-10.27378869065839,-12.623446830646458,-16.1260836458668,3.8154631123262472,-6.4513392503406415,-26.611236301291175,-48.3419850726607,-57.54387112917168,-19.31335418262909,-42.00027754664405
31,-41.6843532091465,-29.588364900981254,-25.187114585825547,-27.218500312360515,-9.844013583797288,-12.529885515580878,-14.812747747614148,4.181296614476766,-6.2717070647577255,-26.257130189332674,-49.701350033002065,-56.35026157328785,-18.71123446281552,-40.45148390897693
32,-41.209438821024094,-29.162127949966433,-24.686721146296023,-27.445092671829475,-9.320474910302389,-12.625113306454454,-13.449561229700208,4.558506770182931,-6.031169650957758,-25.856828806219408,-50.75706706366648,-55.06369473293813,-18.032885648182823,-38.70012306227836
33,-40.63804882847689,-28.630951273456738,-24.11244976689356,-27.576284982339597,-8.703434669724325,-12.896174854339746,-12.061499681324,4.942077940042195,-5.73750430763849,-25.420928818403812,-51.50054398054288,-53.72041811216745,-17.28861775455116,-36.76178591350844
34,-39.9687315918641,-27.97877898783867,-23.474643108102722,-27.59933047048401,-7.995253180883369,-13.324357419030953,-10.673546277357856,5.325609191455908,-5.3995995476594105,-24.960625659160346,-51.929342536258815,-52.3556775210085,-16.489781902788508,-34.654276337029934
35,-39.20005709204483,-27.191863406921183,-22.784145142577476,-27.50361162974644,-7.200461630621416,-13.886001298442743,-9.309965181048122,5.701714964500239,-5.027104955735271,-24.487033924820185,-52.04713090681211,-51.00233878442472,-15.648404144088932,-32.39717290666522
36,-38.33096855468291,-26.259723391607853,-22.051882252329925,-27.281268024415066,-6.325784724124617,-14.553482774772405,-7.9936350584422105,6.062443049481384,-4.630075261662233,-24.010510394027673,-51.86349247013492,-49.689625131755555,-14.776811431861082,-30.011388119006416
37,-37.36116775403142,-25.1759827349924,-21.288478210296812,-26.92773126530733,-5.380112690813599,-15.296337433480488,-6.745461898995705,6.3996822826118835,-4.218622384894208,-23.540029136657868,-51.393600728591174,-48.442031202086895,-13.887266785913594,-27.518756603334765
38,-36.29150935242697,-23.939040078937428,-20.503926851935056,-26.442133567368447,-4.374416237761694,-16.082481915367232,-5.583878535608877,6.705544912906171,-3.8025862450667565,-23.082643904062994,-50.657766400493585,-47.27845663448259,-12.991624603035643,-24.941672669838383
39,-35.12436964232443,-22.552525290156115,-19.707334218128885,-25.827556438930003,-3.3215950986986735,-16.87948444605673,-4.524429950696133,6.972718235700821,-3.391232708036058,-22.64305988847945,-49.68086079905273,-46.21158352330132,-12.101012883401358,-22.302784815086607
40,-33.863951933169496,-21.02550824420288,-18.906732134402024,-25.09109279138966,-2.236252988577096,-17.655830562786214,-3.579441201495935,7.194783417658081,-2.9929855108763777,-22.223328225139277,-48.49162196291808,-45.24750684698046,-11.225548488786297,-19.6247451971911
41,-32.51649497361849,-19.372442800583993,-18.10895853854905,-24.243708117551545,-1.1343974705551014,-18.382129891716506,-2.7577670558925553,7.366497768849357,-2.6151978938560485,-21.82267136979052,-47.12185465757782,-44.385615482459514,-10.374092940226454,-16.930006541168964
42,-31.090359107500177,-17.612846634846772,-17.319595112881768,-23.29990037261294,-0.03306917403125821,-19.032211405564475,-2.0646254978567375,7.484033736463072,-2.26396848716716,-21.4374431726174,-45.60553881207896,-43.618711497975426,-9.554056745920208,-14.24065537548161
43,-29.595974520458935,-15.770733146263202,-16.54294915426783,-22.27717085603947,1.0500906494833804,-19.584057838609333,-1.5015189647702718,7.545165743466483,-1.9440050033205858,-21.061223382653097,-43.97786235392991,-42.93334642016175,-8.771258329303954,-11.578267232698376
44,-28.045646356893037,-13.873824599670714,-15.78206504712543,-21.195329692594303,2.097321171147516,-20.020535478308286,-1.0662478645935398,7.549394655752644,-1.6585388592034644,-20.685043759658335,-42.274196368121196,-42.3103467202941,-8.029840510724652,-8.963767098807518
45,-26.453223028588464,-11.952586861801233,-15.038752323191996,-20.075670416157536,3.09125346248146,-20.329884433976165,-0.7530213332610793,7.497999077617779,-1.4092937135187305,-20.2977427092885,-40.52903590072233,-41.72549848845232,-7.332245506838849,-6.4172789013304685
46,-24.833645985876704,-10.03913536768044,-14.313621487276775,-18.94005809219913,4.01542828137424,-20.505947045371027,-0.5526696966830028,7.394003973820041,-1.196510323042744,-19.88644588237803,-38.77493851009332,-41.150362681169,-6.679249307027746,-3.957952029060184
47,-23.202409532079574,-8.16606800453738,-13.606123464786728,-17.80998224263623,4.854791471335016,-20.54812723251378,-0.452960424363869,7.242061727385602,-1.0190285340271168,-19.437168266808985,-37.04150188028391,-40.553195086721104,-6.07005651223997,-1.6037594681832252
48,-21.574966113879867,-6.3652825471476255,-12.914592277806001,-16.70562807293517,5.596137569762915,-20.46108910829898,-0.439014295799273,7.048248724440266,-0.8744244670559903,-18.935526198431475,-35.35442800258143,-39.8999470475843,-5.502455426635446,0.628731039330662
49,-19.96611579384681,-4.666834664646483,-12.236293843659665,-15.645017762821132,6.228476059109837,-20.254217123964835,-0.49381227378379466,6.819789771050796,-0.7591973051280914,-18.367535488203043,-33.734722706661834,-39.15532346146657,-4.97303022559218,2.724605498493142
50,-18.389419482981147,-3.0978886482637176,-11.567487579487214,-14.643269569205701,6.743301778315158,-19.940871757164555,-0.5987778516946163,6.564729870238761,-0.668996224651308,-17.720457657223353,-32.198075394999336,-38.283874306472256,-4.477423468935562,4.670859433416771
51,-16.856674726437845,-1.6818075114629645,-10.903511277326816,-13.71201687184722,7.13475939629513,-19.53748459066448,-0.7344153641082813,6.2915761772595635,-0.5988746219282937,-16.983643993443664,-30.75445502023787,-37.251095397319325,-4.010638838838656,6.456644292855062
52,-15.377489934233664,-0.4374215901364075,-10.238901598468477,-12.859021216794366,7.399700122768401,-19.062544565053717,-0.8809817340896762,6.008932779775901,-0.5435564398186254,-16.14931942689018,-29.407945349885487,-36.02451326305617,-3.5673708781013924,8.073485226672274
53,-13.95898735797923,0.6214950100731582,-9.567561303824757,-12.088002220932538,7.5376361957120395,-18.535532551497653,-1.0191667885082785,5.725148919761767,-0.49769868926452665,-15.213246827537606,-28.156827210026403,-34.57472823159074,-3.1423458933634447,9.51545076881576
54,-12.605657254799743,1.4865218681602992,-8.882980670801645,-11.398693848758358,7.5506044120342555,-17.9758636116629,-1.1307557578020848,5.447998350297613,-0.4561356268486655,-14.175218810228566,-26.993900598758312,-32.876390017268314,-2.730656709242514,10.77925704648093
55,-11.319376292982229,2.1546565143111986,-8.178515821787482,-10.787122725891814,7.4429534060542135,-17.401895157440133,-1.1992475768844242,5.184403989321388,-0.41409306009578933,-13.03933847564088,-25.90702770864238,-30.909082091650216,-2.328074344322124,11.86429269497344
56,-10.099592285700577,2.6281495449777554,-7.447721204363361,-10.246090529822638,7.221070720312817,-16.830054074229086,-1.2104040252767396,4.940218499551453,-0.3673646101820714,-11.814069736423662,-24.879869470119058,-28.658094116916267,-1.9313220964877544,12.772555154600699
57,-8.943664520473787,2.914126392568393,-6.684726689945718,-9.765828992239271,6.893066152643551,-16.27412585259673,-1.152706669133841,4.720068757286066,-0.31244442773885694,-10.512057228419058,-23.892782230269194,-26.115063762667262,-1.538301181165075,13.508494446968687
58,-7.847335093123753,3.0240239080224622,-5.884641876518556,-9.334783076234652,6.468428546299214,-15.744734222772276,-1.0177007860302554,4.527270412782759,-0.24661283819810875,-9.149731544943167,-22.92383649834163,-23.27846892078851,-1.1482605714145389,14.078767089253576
59,-6.805293497886201,2.972881720710599,-5.043962467467021,-8.94046679394968,5.957674332566536,-15.249022908853615,-0.8002090235818881,4.3638168808540065,-0.1679732569245057,-7.746726273839504,-21.949915697802915,-20.153949107632005,-0.7619058695378784,14.491910729777144
60,-5.811786123157451,2.778538017715719,-4.160947649752623,-8.570328629991213,5.372007193031729,-14.79053478468253,-0.49840343904217355,4.230444159879587,-0.07544084036648649,-6.3251395681945795,-20.94784948698813,-16.754432668040785,-0.3814425388387088,14.757958997546734
61,-4.861216326271642,2.4607849538975963,-3.2359347522712008,-8.212561505302897,4.7230081896447045,-14.369270116958724,-0.11373252956321207,4.12676862810417,0.03131415274647389,-4.90867629466206,-19.89553402981057,-13.100046927697393,-0.010548362960969579,14.888024135376101
62,-3.9486815296605244,2.040538304254328,-2.2715594155756715,-7.8567972828013275,4.0223733319684305,-13.981895995284711,0.34929114947989864,4.051489541917956,0.15196243783399627,-3.5217090555489747,-18.772991700764315,-9.217793922934025,0.34572985628434955,14.893879493460194
63,-3.070401741693421,1.5390688012784453,-1.272856134699302,-7.494637974949198,3.2817101508440047,-13.622073990557064,0.8834282520974054,4.002641883844273,0.2856424038341452,-2.1882988372957666,-17.56332593874571,-5.140985063991325,0.6811582067623284,14.78757328436881
64,-2.2240067303410105,0.9773313334852997,-0.2472236008361535,-7.119992496539948,2.5123976312050114,-13.280872310307906,1.4791526647180149,3.9778801289098196,0.4311062062154812,-0.9312184983935816,-16.253532982524856,-0.9084417977378112,0.9885747441712355,14.581099981909116
65,-1.4086633707226757,0.37541635140475627,0.795750663436362,-6.729205298362312,1.7255073231748141,-12.947231422127096,2.125167239307967,3.9747716127886017,0.5868728845409308,0.22897680404954135,-14.835139329876812,3.436517078738565,1.2602189992757766,14.28614864964377
66,-0.6250384964380801,-0.24786294336808412,1.84460257350268,-6.3209791704140885,0.9317789435727389,-12.608457444453656,2.8089663422480173,3.9910800084827907,0.75137667580366,1.2747904708872435,-13.304640182680462,7.847268969447502,1.4881201179455952,13.913939922105085
67,0.12489443057195528,-0.8752442389213261,2.8864281724890057,-5.896108640184172,0.14164047966271912,-12.250724724683304,3.517416445403844,4.025022973439747,0.9231006444296682,2.192500581340782,-11.663719669421226,12.275219306319865,1.6645277022799636,13.47515575202079
68,0.8381846693455702,-1.491157079032419,3.9074239377313567,-5.457053126951473,-0.6347403311428533,-11.85957639158157,4.23732675640224,4.075490948160682,1.1006882313931585,2.9727232286337144,-9.919239744392188,16.671220549072423,1.7823664463772375,12.979958687966528
69,1.5113395994113925,-2.081746261788021,4.893502324122889,-5.007390109210695,-1.387388804371222,-11.420417016311008,4.955983032765529,4.1422157701379945,1.2830275057373646,3.610803688828308,-8.08299300047505,20.987020811643212,1.835693946447471,12.43809087211749
70,2.1408290974699633,-2.63479913516331,5.830947927285631,-4.551196969345915,-2.106456995638799,-10.918993530020332,5.66161967164013,4.225878973557712,1.469304605024466,4.10702430514792,-6.171225878991274,25.176680705928774,1.8201403054123628,11.859036945013996
71,2.7236172533696505,-3.139602456182064,6.7070750545382944,-4.092414696484141,-2.782174170017947,-10.34186012512461,6.343808020242032,4.328150855984915,1.6590243859014797,4.466624868741333,-4.2039527426129375,29.1978957158892,1.7333075252879073,11.252228692224241
72,3.257677308245117,-3.586757227700991,7.510844774203211,-3.6342467435163317,-3.4048281655772263,-9.676821849830587,6.993742345344224,4.451652365807655,1.8519978740375271,4.699635996852209,-2.2040971406473866,33.013162344960314,1.5751055235898102,10.627262359784096
73,3.7424453423220028,-3.9679814027855236,8.233399334254049,-3.178642525727483,-3.964789142753829,-8.913350692968592,7.604409157088206,4.599832446601419,2.0482976801380364,4.820528816617067,-0.19651216708113356,36.59072933984417,1.3480002595327631,9.994093530045838
74,4.179170609908846,-4.2759299600741185,8.86847514316137,-2.7259082365352714,-4.452583807679732,-8.042966868040805,8.170631344412643,4.776754266297415,2.2481841646023453,4.847686835010527,1.7930563941796422,39.90528131787819,1.0571493530585574,9.363171659950131
75,4.571126305397054,-4.504058931669104,9.412662753017514,-2.2744783894490506,-4.859024404283487,-7.059577081988566,8.68898638702966,4.98678607175757,2.4520068629307774,4.802709998555876,3.738995568472719,42.93831247464119,0.7104035086323474,8.74547880346856
76,4.923654663432143,-4.6465542098006525,9.8654931635999,-1.820869600423408,-5.175393047602312,-5.959761582342736,9.157607385170222,5.234197934807584,2.6600874198574034,4.709567350562245,5.616774249265346,45.67816368322217,0.31815917333060467,8.15244557265477
77,5.2440347755662895,-4.698337308232872,10.229343593684298,-1.3598232318961316,-5.393678155198644,-4.743002194965568,9.575885799224645,5.522675764512134,2.872591774192378,4.593623546105011,7.403762611137621,48.119717353372465,-0.10694084279460507,7.5957318709077635
78,5.541178895465074,-4.655149266049843,10.509171458368769,-0.8846264265312115,-5.506855317273203,-3.411842995480605,9.94410440651841,5.854778178320931,3.0894004110873117,4.4805756379693165,9.079887591322565,50.263769586147355,-0.5504479922471838,7.086878546880254
79,5.825179989508202,-4.513702676614174,10.712100206838057,-0.3875846547944536,-5.509200225287125,-1.9719740059837696,10.263036306963246,6.231376633639404,3.309986033026967,4.395348150945608,10.628112151623853,52.11612465413645,-0.9966650981095153,6.636854775833719
80,6.106746232073577,-4.271883509323159,10.846891833127067,0.13939311723142456,-5.396617436053045,-0.43222867875581805,10.533548704203021,6.651129498845461,3.5333078203218706,4.3610027749913005,12.034745133914628,53.68647745289828,-1.4292845956944185,6.2555399049761125
81,6.3965654668945024,-3.928980426211566,10.923346849627002,0.7041415800650523,-5.166966384660562,1.1955108120374323,10.756247739069506,7.110043358188866,3.757730505850307,4.3977212873224865,13.289600518912836,54.9871622039109,-1.8320670787110853,5.951185527585451
82,6.704645505292367,-3.485918180118134,10.951674514297325,1.3135652303322185,-4.820364509984161,2.896501746781872,10.931194323944773,7.601170391027516,3.980975061541435,4.5219170683109695,14.386030011415272,56.03185112573718,-2.1895182247091967,5.729904961379726
83,7.03967638495717,-2.9454712827028557,10.941875941637822,1.972990096366621,-4.359446044215242,4.6534196398801315,11.057713161237373,8.11448131170302,4.200106184155499,4.745523777663492,15.320853871815217,56.83428734004404,-2.487523899631577,5.59523505731399
84,7.40845866781399,-2.312434440607514,10.903180565011876,2.685586069849424,-3.7895546958514124,6.446721398015602,11.13430898637719,8.636940156393543,4.411559806292194,5.075500023351628,16.0942137662539,57.40713274358059,-2.7139073889155445,5.547809650501583
85,7.815436423417109,-1.5937287704065577,10.843571173211675,3.451900504404496,-3.1188503920816992,8.255083146768305,11.158695121656562,9.152790510221033,4.611211141410714,5.513575757550051,16.709368650622412,57.761003138812306,-2.858879787456436,5.585174602420556
86,8.262364287074687,-0.7984280665038983,10.76942400226349,4.26953577668104,-2.358314693519286,10.055899140519156,11.127929547621868,9.644044238915084,4.79448040641301,6.056250183288083,17.172450549381487,57.90374887905268,-2.915364207447295,5.701762012669267
87,8.748126035846283,0.06230361594206646,10.685279042755546,5.132992509660198,-1.5216456206892899,11.825824494142513,11.038643889101936,10.091146299901622,4.956470154714801,6.695033826874473,17.492191805403717,57.84002004012009,-2.8791848801295306,5.889027403031035
88,9.268709299042717,0.9753644523802875,10.593743400189515,6.033687129232122,-0.6250395669705322,13.541341559320783,10.887342246298594,10.473774924951664,5.092125903792218,7.4169108808336945,17.679629266383852,57.57113224038006,-2.7491218642721704,6.135739964176959
89,9.817329031204638,1.9259520613000751,10.49551904142603,6.9601387251359075,0.31313488453441995,15.17932780647089,10.670740600425303,10.77172622261346,5.196410617705398,8.20498361196802,17.747784836569394,57.095225506712595,-2.5268405043463114,6.428403859583271
90,10.384682958940756,2.8978749020066035,10.389537574817618,7.898308169009731,1.2727599720722216,16.71760219104758,10.386114274743914,10.965826602475063,5.264483401968496,9.039250530130515,17.71131763030835,56.407687505738316,-2.2167118336092795,6.751780006835693
91,10.959316855897095,3.87392472245621,10.273180348731927,8.8320646028412,2.2324728422161013,18.135427671617208,10.031621117570456,11.03881606783376,5.291873582425588,9.897465964092284,17.58614235388336,55.50179662438982,-1.8255449695145907,7.089473976667379
92,11.52807655566802,4.836297181934912,10.142562210176958,9.743751566326063,3.1702332801495356,19.413950843519345,9.606571886479864,10.976150433619537,5.27464337173608,10.75603132326863,17.389011874980426,54.369530741465425,-1.3622542189272697,7.4245564531405845
93,12.076625803730598,5.76704977167944,9.992860369437468,10.614825842529747,4.063938236442151,20.53656628390913,9.11162662926583,10.766679899055747,5.209535017181486,11.590876360860543,17.13706774635258,53.00248400923851,-0.8374820505348635,7.740186722101305
94,12.590011874301906,6.648587678115033,9.818673818086435,11.426544014342802,4.892067112604239,21.489201916946726,8.54890588805777,10.403173295792625,5.094100464214217,12.378299252500238,16.847368252084994,51.39283564780047,-0.2631956567689406,8.0202149592652
95,13.05326183593434,7.464167099675359,9.614401528522274,12.160672147033587,5.634340578662743,22.260529275866396,7.922016501153472,9.882669651002848,4.926812533883173,13.09574400269771,16.53640724456501,49.53431944741693,0.3477284826834953,8.249743650877432
96,13.451990379202776,8.198401167804187,9.374627936923272,12.800191779174806,6.272372126881086,22.842106538861273,7.236001403823924,9.206650006387868,4.707156772496669,13.722500587562344,16.219637965396505,47.42314778727837,0.9819195980557744,8.415631131622895
97,13.772996090826945,8.83774789452567,9.094502190608118,13.329971904452087,6.790287610607398,23.228463186551007,6.497229679215407,8.38103240631538,4.435702898569822,14.2403170482991,15.911015110591508,45.05884846605259,1.6259154878261892,8.506921316072198
98,14.00481903907649,9.370955454907115,8.770094971000422,13.737374757793816,7.175286255534261,23.417135066851262,5.713247001356823,7.41600174650762,4.1141540664606655,14.633914270000655,15.622567345424207,42.444977452934474,2.2665417133751564,8.515184617292492
99,14.138230656582442,9.78943932753574,8.398715292786477,14.012764771913844,7.418117920736572,23.408658034963864,4.892607632154187,6.325693253786267,3.7453710869978996,14.891394547824252,15.364012573983905,39.5896771345678,2.8912558718542676,8.434757154591733
100,14.166628445611757,10.087568147143608,7.97917034880239,14.14989468354548,7.513454424789852,23.206525648589647,4.044706486891512,5.1277525531028205,3.33336792362617,15.00453522216106,15.142429574026718,36.506057789564444,3.488446797519638,8.262869242686396
101,14.086313027761031,10.262839837231141,7.511953847407777,14.146149328942062,7.460135810239454,22.81711049485216,3.179622558380481,3.842795870678398,2.883274750036456,14.968959474378984,14.96200138464478,33.2123887056792,4.047681232503773,7.999659548477499
102,13.89663255244364,10.315936275377425,6.9993516424252045,14.002635567669605,7.261275122593574,22.249540942190926,2.307974184861862,2.4937917524741664,2.401265580590207,14.784178711843635,14.823847302814768,29.732093441249333,4.559894743618198,7.648077459870282
103,13.59998799934028,10.250652603477958,6.445457150912063,13.724115454437557,6.924208569329198,21.515518909879866,1.4407756360949873,1.1053827713456077,1.8944487416293752,14.453505329476117,14.72596058807747,26.093550709356098,5.017528049239026,7.213682247249582
104,13.201701195392712,10.073704972916865,5.8560927857917715,13.318788232652416,6.460282974029229,20.62906324932427,0.5892774444338359,-0.29683583688555093,1.370720291257535,13.983840527463501,14.663266794419144,22.329708105905603,5.414612540167561,6.704352684179113
105,12.70975504980027,9.794427166382286,5.238637789260731,12.79793419377637,5.884479907716262,19.606169483339343,-0.23522719147234727,-1.6870624732261255,0.8385830226781537,13.38534831282488,14.627812404643876,18.477520741302147,5.746809031256947,6.129924629838671
106,12.134422784884626,9.424372152207022,4.601768125465796,12.175439905776035,5.21488544627524,18.464389042788845,-1.0216404705701705,-3.0400383793985664,0.30693647354226633,12.67103298440394,14.609085814193119,14.577231625973376,6.011402918395709,5.50177688300386
107,11.487809480863891,8.976839206888378,3.955120421629219,11.46722988385548,4.4720248362574875,17.222346059813294,-1.7593414200731268,-4.331772717399051,-0.21515445090611132,11.856242408468214,14.594464126662702,10.671516143415513,6.207258414493616,4.832387260564004
108,10.783334130923745,8.46635062547191,3.3088984086298443,10.690634386105353,3.6780909936839223,15.899222737943829,-2.43849738035508,-5.540212693744089,-0.7187035342248699,10.95812224973367,14.569770807441264,6.804519109768862,6.334734737522383,4.1348806454799805
109,10.035182994962453,7.908104324050333,2.6734458976874134,9.86372662379668,2.8561039544644515,14.514252476570721,-3.050382342680462,-6.645827122032807,-1.1950510423008678,9.995046525719255,14.519921625759713,3.020819083731744,6.395567774463806,3.4225885234720614
110,9.257765362223411,7.317429816808466,2.0588142865663954,9.004664944400997,2.029044619841821,13.086262201217448,-3.5876730381875146,-7.632075129171934,-1.6361065183425487,8.986047635241299,14.429630041131594,-0.635640299378461,6.392721825156508,2.708636138054299
111,8.465201108676286,6.70927439840298,1.4743541567572367,8.131075332414333,1.219009279641158,11.633300798447706,-4.044693256272292,-8.485739499388501,-2.0345782899911615,7.950265115411422,14.284138790702567,-4.122609405290643,6.330217466172917,2.0055698973866662
112,7.670865732869502,6.097742937400497,0.9283589448713095,7.259505643154846,0.4464301210352223,10.172378285654176,-4.417582880909898,-9.197115940920645,-2.3841819927692116,6.906427861692037,14.069942260814319,-7.40054013862916,6.212942930255264,1.3250346317884756
113,6.88701288249257,5.495708545479172,0.42778359220032625,6.404975466464505,-0.2705990221367174,8.719321900366609,-4.704379477215098,-9.760063610869139,-2.679821056769969,5.8723805683476575,13.775464502121512,-10.433504260093589,6.046457249307862,0.6775078418486811
114,6.124487143035695,4.914504011758838,-0.0219471372205481,5.5806361007071486,-0.9168617960433949,7.288735903298542,-4.905013612965934,-10.17193539452377,-2.917732782813731,4.864662607072195,13.391660555647004,-13.189991967470158,5.836793602779803,0.0720959029406645
115,5.392532035592666,4.363697183728405,-0.4170361181867321,4.797545614887522,-1.4804044233378406,5.8940375846350745,-5.021230522495323,-10.433414987788645,-3.095594419891864,3.898146756878037,12.912513656079598,-15.64356909160382,5.590270746861397,-0.4836054115131087
116,4.698690845499567,3.8509484407128376,-0.7553226229537707,4.0645552601634884,-1.9527590536375563,4.547535360509536,-5.056457331465227,-10.548289369826717,-3.212584562241719,2.9857457420922593,12.335406809348305,-17.773380751608677,5.313318976137405,-0.9835873949327976
117,4.048791813432624,3.3819450671101774,-1.0362156292601457,3.3882961564650893,-2.3290079093200817,3.2605149160099085,-5.015635719838622,-10.523180072404461,-3.2693961821186712,2.138195478802852,11.661353294275814,-19.564498262640576,5.012324993800834,-1.4234475520981191
118,3.447004929713767,2.9604056031378474,-1.2605688006490514,2.773250387479277,-2.607698878281994,2.0433046797767873,-4.905035244387041,-10.367247295391552,-3.268198808785139,1.3639239481471688,10.895076771014509,-21.008112986792153,4.693497958005762,-1.8003606690326939
119,2.8959554754303,2.5881471017792936,-1.4305143022079159,2.221889274596768,-2.790628621836284,0.9053019157986709,-4.732054770227967,-10.091870747538653,-3.212549065071431,0.6690122696948057,10.044938127825805,-22.101584567129713,4.362757447137092,-2.113012258075868
120,2.3968792538368016,2.2652089873923713,-1.5492702614336704,1.7348628917215507,-2.8825128278520435,-0.14504652787999442,-4.505011775902259,-9.710303349632643,-3.1072512817576627,0.05724894322634067,9.122712367909479,-22.84835193404322,4.025643232114755,-2.361503643617936
121,1.94980519828196,1.9900275816366388,-1.6209336607044365,1.3112268126544018,-2.8905663261918044,-1.1003033336976962,-4.232914842224576,-9.237291173103587,-2.958173147263428,-0.46973011976995954,8.14322364686726,-23.257715143578764,3.687246164178081,-2.54723564911468
122,1.5537520375630447,1.7596545252226874,-1.6502677738255662,0.9486932795122729,-2.824018710199068,-1.954127785076521,-3.9252152267513916,-8.68865625016511,-2.772024697011202,-0.9122322215827707,7.123849864751624,-23.344495838302365,3.3521588731145697,-2.6727755589198763
123,1.206927002882302,1.5700107314909975,-1.642491250621265,0.6438945730329346,-2.693592850832358,-2.701378527008713,-3.5915387853046497,-8.080847101882684,-2.556111579960958,-1.2722528912964726,6.083910977378895,-23.12858444572572,3.0244443803049132,-2.7417101707213085
124,0.9069163515478853,1.4161660431740972,-1.6030747696367422,0.3926469591477542,-2.5109732413250883,-3.33822395654093,-3.2414073567293125,-7.430471949813226,-2.318074943939516,-1.553202581971688,5.043958418401486,-22.634383424218196,2.707620293810788,-2.7584866761816715
125,0.6508594571114326,1.2926335071820994,-1.537550969588246,0.1902041781940065,-2.288288635705587,-3.862257644421239,-2.883965656176825,-6.753837603113742,-2.065630409638822,-1.7596411905093239,4.024987231677108,-21.8901582474394,2.404655942589721,-2.728243379123346
126,0.43560003055912533,1.1936657496763299,-1.4513438423569731,0.0314899398439038,-2.037629853983248,-4.272618778755361,-2.527732571043003,-6.066519586037646,-1.8063176711516276,-1.8970406451079358,3.0475981483884746,-20.927311185655423,2.1179796435518448,-2.65663386574336
127,0.2578100409846897,1.113539825025578,-1.3496238039520512,-0.08869981146299503,-1.7706194291088218,-4.570114651903277,-2.180393050625417,-5.382985066489651,-1.5472705099852824,-1.9715862575093923,2.1311441410644316,-19.77959628662212,1.8494935087373299,-2.5496500411623324
