,AF3,F7,F3,FC5,T7,P7,O1,O2,P8,T8,FC6,F4,F8,AF4
0,-14.517706782852505,-3.1664842358518883,4.2497697339681695,5.385450248121804,-4.051441147156494,-5.732775336892143,-3.8954702001827033,-0.11604688649090582,-0.4714827934681661,-4.0462602434992965,0.6086967652694695,-3.036342258186406,-3.935197650607167,-3.971161499348928
1,-13.948101919107264,-3.799954823873449,1.4615310633130005,4.392238802366787,-4.51500312192893,-5.723924177835331,-4.761089698032489,-0.3456438494224653,-2.1321605515820017,-6.584914619751396,-1.0063229626264611,-5.472801413625764,-6.679679778981095,-6.757096524227693
2,-13.34085728731363,-4.38709593259981,-1.2677424903714303,3.4201281877904686,-4.966680920963404,-5.705650275517689,-5.6088980088882865,-0.5748652817490869,-3.7569942595462815,-9.066446090082923,-2.5339225695823404,-7.849950565178145,-9.367246906191248,-9.473147432277464
3,-12.673102684076792,-4.898269264006542,-3.884449153606397,2.4874990521496354,-5.387857774166863,-5.671313742937297,-6.420344655771453,-0.8010601921219097,-5.321296645876466,-11.444348739453577,-3.914622730159662,-10.10953814647535,-11.938057697881305,-12.059553356016448
4,-11.923621949445932,-5.305202743437915,-6.338018487208798,1.6116121046857592,-5.760594945444689,-5.614181708419748,-7.17779164520598,-1.0216369696946788,-6.801755584184184,-13.67463709675014,-5.0934052700782235,-12.19682112408717,-14.335305657899688,-14.459698158509836
5,-11.073582621301199,-5.581702822201675,-8.582329427074896,0.808160323093215,-6.068102750366524,-5.527508824993565,-7.864990294716553,-1.2341282509529428,-8.17695517016232,-15.716935183295483,-6.021628753530443,-14.06227872191316,-16.506847115539482,-16.621664130182314
6,-10.107182235253509,-5.704358166546694,-10.576991608980352,0.09084741824162895,-6.295193414473942,-5.404667786450824,-8.46752709555871,-1.4362502201958405,-9.427846871126041,-17.535463983414697,-6.658710641397979,-15.663153849235961,-18.40665652479181,-18.49964667250585
7,-9.012192188007608,-5.653223887666475,-12.28844880229287,-0.5289961806736815,-6.428705167905227,-5.239328827814495,-8.973222670692891,-1.625953789906128,-10.538153348407834,-19.09989667563158,-6.973511060624387,-16.964767054540218,-19.996058886797165,-20.05518525659346
8,-7.780383366260691,-5.412470832696524,-13.690869109380916,-1.0427470042948361,-6.457884880740091,-5.025677754683302,-9.372466124174554,-1.8014650699610726,-11.49469169108503,-20.386055980963093,-6.945367684183314,-17.94155478654129,-21.244700781760333,-21.2581721476472
9,-6.407820090302368,-4.970978134312988,-14.766793349485802,-1.4447579292308845,-6.374715084421583,-4.758655384368863,-9.658467414135385,-1.961313101815957,-12.287609157181304,-21.37643442739161,-6.564747290499651,-18.5777924466366,-22.131234294495847,-22.08760762279387
10,-4.8950110560930655,-4.32284153501364,-15.507520091662489,-1.7325490056590231,-6.174170970123528,-4.434198634809002,-9.827412924863621,-2.104344099984031,-12.910530059162902,-22.060524342297697,-5.833495288684402,-18.8679724108328,-22.643700456596076,-22.532078145676696
11,-3.246908998968966,-3.4677671776395194,-15.913212998828413,-1.9069063353090858,-5.854393973329697,-4.049464221115887,-9.878513668491044,-2.2297229031672288,-13.36061485632231,-22.434948978719913,-4.764679028086315,-18.81681824877732,-22.77961009836218,-22.589942317987774
12,-1.4727555036887017,-2.4113213830599536,-15.99272425942797,-1.971878081628131,-5.4167707560015605,-3.6030183426230953,-9.813940841632611,-2.336923405881985,-13.638531809258366,-22.503389776348907,-3.3820344107703733,-18.43892991100697,-22.54573027775914,-22.269218438657543
13,0.41422605583657934,-1.1650109817968113,-15.763137967946877,-1.9346610805002156,-4.865909733341238,-3.0949787911867994,-9.638649578545206,-2.4257102845597225,-13.748339785044523,-22.276308797397807,-1.719039118148058,-17.7580713319693,-21.957593999857455,-21.587177027523033
14,2.3972783529568553,0.2538248219820945,-15.24904947550712,-1.805377526521038,-4.209511638639838,-2.5270994491120407,-9.3600988205287,-2.496114490482149,-13.697280614606457,-21.77047121083619,0.18234979115851702,-16.806130710001394,-21.038759937428978,-20.56965195353002
15,4.456678966360516,1.822322098118978,-14.481609528016827,-1.5967477472410154,-3.4581356646812145,-1.9027910947838629,-8.987882735604762,-2.5484047784195933,-13.495482333606525,-21.00828061925417,2.2732415458617106,-15.621802055191116,-19.819857210430218,-19.250095089522343
16,6.570402937144195,3.5126014041210056,-13.49737338233751,-1.32367085422014,-2.6248678867231994,-1.227076347636855,-8.533295423467965,-2.5830569684174636,-13.155580398454221,-20.016949259068884,4.4995749355863435,-14.249051550783937,-18.33745755003962,-17.668410912917935
17,8.714846649182837,5.292470864243205,-12.337003714363844,-1.0027293273421582,-1.7249032661442942,-0.5064799543301782,-8.008854043700598,-2.600721985012478,-12.692270875847043,-18.827534264032806,6.804023612816461,-12.735442058746239,-16.632822660347703,-15.869617310604905
18,10.865578618156722,7.126305234553401,-11.04388153838929,-0.6516363532866921,-0.7750562017379807,0.25114183670822443,-7.427805637391912,-2.602193457756789,-12.121815543819562,-17.473878598055567,9.127963205090794,-11.130393129171472,-14.75057732743042,-13.902385131693128
19,12.998083649907466,8.976073429416573,-9.662681303734438,-0.28864646659179066,0.20678249939101137,1.0368271325820617,-6.80364076063491,-2.5883758981031426,-11.461522306762118,-15.99149976393135,11.413421319938811,-9.483452314526355,-12.73735799548175,-11.817511061879575
20,15.08847032197485,10.802479078697292,-8.237964878058882,0.06804879613620718,1.20222191793407,1.840781606890112,-6.149634007074296,-2.560254723694705,-10.729225071870603,-14.41647112186209,13.60493739315859,-7.842647365619754,-10.640482486784547,-9.666377162137428
21,17.1141171069329,12.566172956971869,-6.8128449746914335,0.4009177659609062,2.1929582253959667,2.6526879189884616,-5.478428496417558,-2.5188693388600623,-9.94278585071318,-12.784340482339285,15.651267486173673,-6.252979508941787,-8.506680930228505,-7.499447818049609
22,19.054238557707997,14.228992169402892,-5.427762604297951,0.6936554129917714,3.1613490110153752,3.462036366175567,-4.8016785441345755,-2.4652903988685337,-9.119638693160944,-11.129128702355116,17.506878378402405,-4.755106717605376,-6.380922161511477,-5.364851998795506
23,20.89035896046532,15.755178623977622,-4.1194156343843265,0.931698149395872,4.0909506022159485,4.258459124216115,-4.1297614574378025,-2.400602571504884,-8.27639008455381,-9.482446443292533,19.133185974739135,-3.3842532369381875,-4.305363868994243,-3.3070950201536937
24,22.606686353593776,17.11252917711341,-2.919866427028053,1.1026667048491705,4.966995425281617,5.032050268544802,-3.471565172619583,-2.325894125481812,-7.428484019935548,-7.872759332287365,20.499505675567107,-2.169368142049609,-2.318448062319315,-1.3659380283509226
25,24.19038452991493,18.27343251163362,-1.8558461318470802,1.1967202760739521,5.776789406542222,5.77365602827753,-2.8343533469879967,-2.242253904307416,-6.5899334422215174,-6.324820980872062,21.583696316644883,-1.1325425074985465,-0.4541561254023596,0.42452523751103777
26,25.63174434044144,19.215753083039804,-0.9482628196658718,1.2068094256210016,6.510014232410028,6.475123468579004,-2.223704467625765,-2.1507747762098446,-5.773115133776674,-4.859281570773183,22.37249298177854,-0.28868313738937856,1.2585695857321122,2.0365749093606933
27,26.924258425361767,19.92352958600586,-0.21191191724575542,1.1288201141020442,7.158925730392014,7.129500158473275,-1.643517783601306,-2.0525612478597246,-4.988624299422929,-3.492469717895898,22.86153598213644,0.3545685626818687,2.796237202264535,3.449344811260049
28,28.06460598443396,20.387463647346895,0.34461891636354175,0.9616061349625303,7.718446706808272,7.731181680478059,-1.0960770061913652,-1.9487384088016166,-4.245187967529434,-2.236338805203101,23.055113096567354,0.7966910613864489,4.141054675114413,4.649073972990776
29,29.05255697215019,20.60518330759083,0.7188628188057722,0.7069116991808269,8.186158791640409,8.276007437469053,-0.5821622708049379,-1.8404599954549907,-3.549640233861286,-1.0985652446686407,22.965640092467943,1.0439339749160979,5.281025398204877,5.629134983822627
30,29.890808191722165,20.581274796601292,0.9142203498926267,0.36919005365158103,8.56220239282309,8.76130780960898,-0.10120086817680884,-1.7289145036265399,-2.9069633002139184,-0.08278286048919484,22.612911034551153,1.108792530971887,6.209900772091212,6.389850042447023
31,30.58476643149774,20.327084723753554,0.9395574516075983,-0.044672054445065196,8.84909715272136,9.185907499853334,0.34855279494875474,-1.6153289823302088,-2.320393831759687,0.8110669568066939,22.02315508968411,1.0093326807958507,6.927001872510051,6.9381102727088155
32,31.142295089844655,19.8603028503837,0.8086728861391201,-0.5257106969200673,9.051497890016345,9.550091087974453,0.7698174730092681,-1.5009701958643804,-1.7915851452881515,1.5862954435793863,21.227940423093138,0.7683939248850067,7.436923877208535,7.28681768025495
33,31.573440239228187,19.20434291463787,0.5396525478180453,-1.063305686167085,9.175902590547302,9.855537254842385,1.166074400932724,-1.3871427869484265,-1.3208055374234937,2.2489686155723527,20.262968343692393,0.41269571583762676,7.74913842681931,7.454172259860769
34,31.890150055262108,18.387545346757214,0.15412729627204874,-1.6456481701465688,9.230328851252564,10.105227677900075,1.5413531588049396,-1.2751841676174593,-0.9071460377516907,2.8073860281743905,19.1668020471571,-0.028128110116911454,7.877509824807922,7.4628296008609905
35,32.10599860176711,17.44223108052958,-0.3235489240195689,-2.260236413563868,9.22397314998379,10.30333540042834,1.9000202290516264,-1.166455773218589,-0.54871036969911,3.2715695286690183,17.979573997432013,-0.5225435126132554,7.839740244438799,7.338957381100627
36,32.235921704093684,16.40364023904734,-0.8671826610675178,-2.8943817584324485,9.166864202167398,10.455095940504902,2.24657553662705,-1.0623298958087166,-0.24276648122900024,3.652789660254625,16.741714148976907,-1.0381557813264082,7.65675767826636,7.111222790669219
37,32.29596943275995,15.30879352160169,-1.4496656744418803,-3.535707738343026,9.069518852304423,10.566663022619158,2.585461835137006,-0.9641710051456354,0.01414986534904062,3.963149031577868,15.49273804055411,-1.5427497052007009,7.352059996965343,6.809746812768206
38,32.30307671733557,14.195317472121989,-2.0439163913320035,-4.172626094086352,8.94260760431704,10.644950116133291,2.9208914413582354,-0.8733107641650081,0.2261772168185879,4.215233192550936,14.270129561875299,-2.0053029983544626,6.9510300062903205,6.465063959988623
39,32.27485084115588,13.10027659158415,-2.623809397279052,-4.7947737179335475,8.79663711461581,10.697459231748136,3.2566944830475344,-0.7910169078522581,0.3981046591968994,4.421831130427355,13.108347962932818,-2.396943415077365,6.480238685330854,6.107125920825156
40,32.229371943802704,12.05905427077881,-3.1650611832068547,-5.3933947960049995,8.641657731181422,10.732099436313485,3.5961926630937158,-0.7184574333204188,0.5353645204709842,4.595719184374375,12.037982175209564,-2.691820054099914,5.966754854525661,5.764384122486128
41,32.18500003686527,11.104320201940174,-3.6460397489577763,-5.9616534602502,8.487004148960455,10.756998803329916,3.9421023939355155,-0.6566626097451383,0.6440211773944898,4.749494615706982,11.085067592712422,-2.8678621064200813,5.437478278189744,5.462980162317057
42,32.16017956549341,10.265115285340448,-4.0484675809836554,-6.494864642879642,8.341075794592388,10.780314638461007,4.296470598497951,-0.6064876483179834,0.7307363811300546,4.895440382292877,10.27057191132206,-2.907402826575947,4.918510209459793,5.226065568167746
43,32.17323095893769,9.56607836358316,-4.357991342868836,-6.990634362326517,8.211161078774758,10.810047539242824,4.6606453084074815,-0.5685782961223421,0.8026961980782233,5.045402730709857,9.610049305348662,-2.7976516819730994,4.434572152665423,5.073264764684205
44,32.24211876425006,9.02683396867956,-4.564596631441768,-7.448904637721445,8.103307199603762,10.853864864208488,5.035281520777584,-0.5433405105533763,0.8674924940255224,5.210667685627797,9.113457773929797,-2.531002814271647,4.008481427265487,5.020288697053011
45,32.38418796449748,8.661555949823214,-4.662852017983798,-7.871901992620051,8.022235281083226,10.918938323890504,5.420380777424391,-0.5309144519228929,0.9329606268700537,5.40182900747795,8.785132980722022,-2.1051728860848704,3.6606911336552,5.078701414376994
46,32.61586323307256,8.478716498707138,-4.651973529677814,-8.263991883561316,7.971299066714284,11.01179890697728,5.815360759340754,-0.5311527871744463,1.0069821507010026,5.628646361916737,8.6239119914717,-1.5231660932630071,3.408901467604543,5.25583668705684
47,32.95230931864064,8.481023059555298,-4.535709080033496,-8.631444419871324,7.952483975756654,11.138210730616953,6.219148844245959,-0.5436036546836045,1.0972654169092593,5.89989719601673,8.623400305031941,-0.7930688894320792,3.2677480401593737,5.554855255467805
48,33.407054003138924,8.66553792928352,-4.322051827174655,-8.982119416718266,7.966442232648739,11.303063927640874,6.630290927471693,-0.5674992564492028,1.2111178126267523,6.223228759036737,8.77237408662838,0.07231774449915529,3.2485706773170464,5.974926314856706
49,33.9915780340514,9.023968247447023,-4.022800771945344,-9.325081143423557,8.012559042396234,11.510285281835374,7.047064194229238,-0.6017516878557925,1.35522168995514,6.6050175761163255,9.05530583573307,1.0559946395282422,3.3592635309694328,6.511511384622632
50,34.71487926927552,9.543108007339978,-3.652994412276942,-9.670155228311229,8.089044241519987,11.762764044647014,7.467580991263396,-0.6449581200897471,1.5354228460662058,7.0502424554149385,9.452996276914085,2.137409192867353,3.6042048791289063,7.156726181470205
51,35.58302119577429,10.20540869791326,-3.2302477699703167,-10.02744218116717,8.193043509582896,12.062289645007448,7.889871310326929,-0.6954175846724868,1.7565366228607253,7.5623739917605315,9.943289375796326,3.2932025093247685,3.984263039761271,7.899756311453369
52,36.59867900630715,10.989651269557195,-2.774024614153084,-10.406803796903949,8.320763296637647,12.409498217673962,8.311933538927343,-0.7511612035199186,2.022172966457363,8.143278925502656,10.501842296235806,4.498028347461993,4.496872964044393,8.727304368014048
53,37.76069928506031,11.871689364654928,-2.3048762019593902,-10.817340071952927,8.467604207148428,12.80382584139186,8.731746457053825,-0.8099967544238095,2.334578903007503,8.793132738541336,11.102918447711335,5.725410238898846,5.136175643753168,9.624048307200676
54,39.06369163028147,12.825232043665993,-1.843676428223453,-11.266875055459494,8.628298531438352,13.24346756758206,9.147239646866323,-0.8695670662822391,2.6944960304146837,9.510330676936741,11.720170040307533,6.948601332730625,5.893209644562104,10.573093249940674
55,40.49767188994819,13.82263366512378,-1.4108815515359818,-11.761470243960114,8.797048741621865,13.725342520054427,9.55622449056014,-0.9274201463543489,3.101032880755599,10.29138833911672,12.327377781428972,8.141410850608658,6.756142166312125,11.556401226811397
56,42.047777136935615,14.835659942650569,-1.025840774101022,-12.304983670970143,8.967664984014807,14.245066738643557,9.956293453776183,-0.9810875724491236,3.5515571151782144,11.130828939432153,12.899120316472695,9.27896213134433,7.710527244211995,12.55518638469537
57,43.69407232034383,15.836203268016165,-0.7061815765036128,-12.89869176500678,9.133700760302682,14.796936985727795,10.344700383197129,-1.0281669263030446,4.041618082808702,12.021063538144977,13.411353853483263,10.338350784647474,8.739580918494205,13.550267150535818
58,45.411467717537555,16.796926581699537,-0.46729029468051153,-13.54098960503949,9.288586799865096,15.373929919917655,10.718237577489537,-1.0664039695718592,4.5649131163094125,12.952279246830573,13.841890781728953,11.299177400415386,9.824466281397102,14.522371320288645
59,47.16976471568767,17.691821829043267,-0.32190369746960823,-14.227183672614018,9.425763391645146,15.967721430816766,11.073125465978537,-1.09377057656793,5.113309831350615,13.912355992960805,14.17077354631223,12.143937223066416,10.944584609858873,15.452394433394288
60,48.933845281277605,18.49667544384452,-0.2798214821441112,-14.949389478805461,9.53881127914463,16.568730668011074,11.404928457795734,-1.1085347694490697,5.676933277243239,14.886835019642486,14.380547084266059,12.858259287395096,12.07787283393347,16.321616396663543
61,50.66401811927235,19.189439373745714,-0.3477430900570612,-15.696544089665782,9.621580873763913,17.16619288681143,11.708507618022484,-1.1093195044952324,6.244323253903632,15.858963260878237,14.456440176197471,13.4309993333235,13.201112801601708,17.11188642072263
62,52.316531712167766,19.750511791323426,-0.5292255757310923,-16.45454029000241,9.66831916913846,17.748264993673185,11.978018440881517,-1.0951474711768645,6.802663987991995,16.809836878062377,14.386471671470249,13.85420226154367,14.290262896825356,17.805790696637672
63,53.84426045643096,20.162936371400058,-0.8247529769596723,-17.206484946107956,9.673793460593828,18.302167546525215,12.206959876958315,-1.0654703198016666,7.338084844907136,17.718662874878692,14.161499903001793,14.122958195118343,15.320825106975512,18.386818907367793
64,55.19756495278194,20.41253267611616,-1.2319020013366486,-17.93307922139009,9.633410916323275,18.81436667793795,12.38827822821174,-1.0201820861208448,7.836026153502451,18.563148941566723,13.775232739845285,14.235180296875795,16.26825913297367,18.839544116217347
65,56.32532182042371,20.487972714740287,-1.745583800909295,-18.613112913411705,9.543333169015206,19.270798639934725,12.514526559175703,-0.9596175606431802,8.281658527180895,19.320019755997887,13.224213003506712,14.191333436298285,17.108450001649746,19.14982705150331
66,57.17611248768349,20.38081983496509,-2.358337254619728,-19.224059695524044,9.400585110943462,19.65713807417113,12.578077370647016,-0.88453686672479,8.660338019465225,19.965645567638607,12.507790483113684,13.994142263453435,17.818228446528,19.305051712902188
67,57.69955384012739,20.085545587502274,-3.060646325771394,-19.742754831653578,9.20315669943243,19.959108471789364,12.571383553418567,-0.7960979191875964,8.958074504439928,20.476758685509015,11.628088084141085,13.648306058211185,18.37593581936351,19.294394943008676
68,57.84774581008119,19.599538185500872,-3.841254039856029,-20.14613229196838,8.950095763060371,20.16282978585543,12.487279840065176,-0.6958188827898858,9.161988317512796,20.831226885828723,10.589966202293352,13.160245435041093,18.762018708880134,19.109127826474932
69,57.57680176522666,18.923112562498737,-4.687449326266413,-20.411994524168254,8.641588648454585,20.255194372237746,12.319314005192918,-0.5855330123705724,9.260731207549862,21.00884944598276,9.400986346444185,12.537901233435154,18.95963319693335,18.742941486182513
70,56.8484172868364,18.05952669756828,-5.585309994788257,-20.519785866157257,8.279024190017841,20.22425898818073,12.062093966980028,-0.4673381747303037,9.244852105230775,20.99214039822006,8.07137191625349,11.79059772109913,18.95523480383012,18.192284707804387
71,55.63142260513722,17.01500236076691,-6.519894111959771,-20.451339876114,7.8650351311952,20.059637908377336,11.711633773962436,-0.34354306193496437,9.107095524883128,20.76706410167731,6.613960477237877,10.928971339360395,18.739127772251706,17.45669648478885
72,53.90325488274156,15.79874188157744,-7.475381685496438,-20.191571471084586,7.403510178874593,19.75288055200651,11.26567854913329,-0.21661180691036266,8.842628865256467,20.323690410934176,5.04413801802027,9.964954923619663,18.305946438795733,16.539112961609707
73,51.651279945051016,14.422927108423696,-8.435177930928706,-19.729086339636698,6.899569817218127,19.29781631654823,10.723986407527928,-0.08910843239014545,8.449201762129311,19.656740336070925,3.3797421136978096,8.911797826545031,17.65504176469357,15.446125007678427
74,48.873889924228386,12.90268320073597,-9.381997573634317,-19.056682435247673,6.359500151393206,18.690849335324135,10.088544635838769,0.036357816481533196,7.927243823363028,18.765997260119512,1.6409184036740214,7.784095604935379,16.790747352169017,14.188159983691817
75,45.58130431719934,11.25598848986456,-10.297955665960277,-18.17172158512915,5.79064133942105,17.931186519082665,9.363698267172147,0.15718577787170998,7.279906288039317,17.656562671039914,-0.15008609637289008,6.597798903041218,15.722501429940053,12.77955993146649
76,41.79600766088377,9.503511978585461,-11.164693467605936,-17.076353725411234,5.201230126950324,17.02098384745268,8.556171888615935,0.27083452882178316,6.513049872581058,16.338938901633767,-1.9692084519596027,5.3701698365852595,14.464804452547211,11.238529186254981
77,37.55276793245489,7.668361763440184,-11.963567256666654,-15.77758225028147,4.600198915282854,15.965398902583079,7.674970509682659,0.37487515697998225,5.635177340473696,14.828925240743624,-3.790946988205114,4.119656090047155,13.036996425476998,9.586927944444282
78,32.89819672654563,5.7757311074062505,-12.675922684880348,-14.287166198773463,3.996936183041411,14.772542096262098,6.731152895375633,0.46704300604691545,4.65730662653721,13.14731905588291,-5.588838187673313,2.8656592134390033,11.462844759257234,7.849895410083163
79,27.889835883314205,3.8524347795423233,-13.283467283378815,-12.621362884738435,3.4010149396223985,13.453324384736428,5.737480725848931,0.5452907115392988,3.5927792344655303,11.319421280284812,-7.336033294629453,1.628185111452014,9.76994354521435,6.055297175106672
80,22.59478459286262,1.9263367207595294,-13.768740066361527,-10.800522609123334,2.8218973758688666,12.021204730663776,4.707958389979821,0.6078413856403962,2.4569994096058223,9.37435605841095,-9.005963827141281,0.4273805900604394,7.988938498117585,4.233005498577555
81,17.087912853500416,0.025680295484458784,-14.115662047924083,-8.848554856968935,2.2686250083988155,10.491845613338475,3.657289653756471,0.6532404098914893,1.267102760894191,7.344226383793031,-10.573073582064723,-0.7170231910964311,6.15260601143757,2.4140360864482524
82,11.449737025829341,-1.821656927400814,-14.310137527262299,-6.792291932551435,1.7495044381282712,8.88268951660061,2.6002870709316785,0.6804038134968162,0.04155878458095033,5.263139117539081,-12.013584819837703,-1.786325639810687,4.294826480238861,0.6295789891613952
83,5.764057018653935,-3.5889522780344576,-14.340665704705293,-4.660780057582567,1.2717996614130813,7.212474023384412,1.5512763368855942,0.6886612181754342,-1.2002804233589845,3.1661423931703823,-13.306259641333348,-2.7634872120876537,2.4494994255515503,-1.0900269817610218
84,0.1154697662963931,-5.251432310117923,-14.198917095842004,-2.4845290971730263,0.8414430191600635,5.500708140999019,0.5235403213686808,0.677791612291059,-2.438664390481613,1.0881259180385008,-14.433114111002523,-3.6337302912360054,0.6494513996936351,-2.716318909407187
85,-5.413120668596986,-6.787030016160988,-13.880229356787,-0.2947509332981271,0.46277839332688014,3.7671370746426645,-0.47115349110554555,0.6480504004957494,-3.653933347965808,-0.9372601267354156,-15.380041918158925,-4.385067188723443,-1.0746116357773585,-4.223673511656042
86,-10.742879210865087,-8.17706235341005,-13.38398168943845,1.8773861688258058,0.13835173108287008,2.031225438836902,-1.422903219329834,0.6001860223320237,-4.8269810714714145,-2.878610478372618,-16.13730638693108,-5.008717044772417,-2.695057354149926,-5.590153486748568
87,-15.801195940567382,-9.406788557904818,-12.713815407599181,4.0014635902886475,-0.1312356499509901,0.31168840201539794,-2.323871332775478,0.5354441485508432,-5.939663599421232,-4.707641662672504,-16.699865251824757,-5.499381531724258,-4.188139737179112,-6.798188953381642
88,-20.523533725931134,-10.465816064042482,-11.877680269844051,6.048459278277776,-0.3473974585606266,-1.37390426960314,-3.1683180746289596,0.45555747976528504,-6.975134975213092,-6.399897837886317,-17.067502376055607,-5.8553603345260266,-5.534632898897405,-7.835059440208164
89,-24.854900983223658,-11.348329992675971,-10.887700697989418,7.991319873684396,-0.5135474381051379,-3.009434277606102,-3.95247419151655,0.3627196637500687,-7.91810312315847,-7.935257326436073,-17.24475359490508,-6.078500385066601,-6.72025737404661,-8.693156718757347
90,-28.75090766877419,-12.053133273934192,-9.759870507999207,9.80544607890803,-0.6349955486720921,-4.5804434637758265,-4.6742751551590755,0.2595426921006288,-8.75501028285211,-9.298226756053719,-17.24062787674817,-6.1739861855914,-7.735881782426508,-9.370023387568535
91,-32.17838719093916,-12.583496739920186,-8.513596598763929,11.469083623329,-0.7187573533677071,-6.074246495008915,-5.332992460677016,0.14899822844978056,-9.47415056889668,-10.4780243611264,-17.068138258713397,-6.149990894350338,-8.57749608259135,-9.868175669104437
92,-35.1155902103657,-12.946830846009242,-7.171119681537114,12.963617357957792,-0.7732834801303365,-7.479956157180371,-5.928805696941775,0.03434458962354084,-10.065741162708974,-11.468467722190331,-16.743669064813375,-6.017217928957598,-9.245967257080366,-10.194731346821728
93,-37.55197691971776,-13.154201406670927,-5.756843532689241,14.273771467636251,-0.8081202589883065,-8.788435103176399,-6.4623618360558694,-0.08095774243781913,-10.52196350069017,-12.26769309930901,-16.286216116109618,-5.788369189287028,-9.746602274226984,-10.360874120102585
94,-39.48765123362882,-13.219719598421817,-4.296604235716875,15.387723662108758,-0.8335160183359261,-9.992191422096814,-6.934365792064624,-0.19333859110911897,-10.836987809050616,-12.877741737608062,-15.716543526107392,-5.477577484284939,-10.088553873376277,-10.381192068246605
95,-40.932492940673484,-13.159841296060499,-2.8169086016742235,16.297144746550153,-0.8599899716418539,-11.08523762019104,-7.345239498772571,-0.29921512732994154,-11.006990633610267,-13.304052293984865,-15.056303482620699,-5.099837619436592,-10.284110927184095,-10.27292986582289
96,-41.90505229935747,-12.992612997971333,-1.344167796521534,16.997176461907607,-0.89788252086111,-12.062933786433973,-7.69487696388916,-0.39509052106866754,-11.03017257126784,-13.554898899785885,-14.3271649611081,-4.670464432173065,-10.347917632761119,-10.05519320077681
97,-42.43127589459616,-12.736901741497537,0.09605024210328095,17.48635935545557,-0.9569074198593482,-12.921835506146566,-7.9825117506830185,-0.47765166519277313,-10.906782310202127,-13.640812821194967,-13.549994844431984,-4.204598878936022,-10.296165889217907,-9.748141305595974
98,-42.54313291020123,-12.411645121212445,1.4797266229855544,17.766519033973296,-1.045727191335451,-13.65956473826356,-8.206702863613815,-0.5438637460768218,-10.639151457925372,-13.574022647288777,-12.7441310352982,-3.716776950183804,-10.145803607958372,-9.372200775660666
99,-42.277207376629946,-12.035155032576963,2.7850317679801524,17.842615053675537,-1.1715726363202525,-14.274716908786335,-8.365436080294696,-0.5910597614804286,-10.23174051887308,-13.367942878430268,-11.92678166337737,-3.2205716989194735,-9.913798351903688,-8.947331090370673
100,-41.67331457127258,-11.62450469757656,3.992875972695407,17.722553723133302,-1.339924591474522,-14.766810160446415,-8.45633007396743,-0.6170234376124628,-9.69118966204755,-13.036733212695738,-11.112576799655587,-2.728315354416506,-9.616490273221913,-8.492368778377296
101,-40.77318931687568,-11.195022560647718,5.087348026905303,17.41696499829133,-1.554271489171816,-15.136274266626623,-8.476929274089153,-0.6200642047239927,-9.02636042546995,-12.594941088926964,-10.313288929814467,-2.250904716145085,-9.269060640672585,-8.024472307159332
102,-39.619281969212054,-10.759909133662436,6.056024558980568,16.93894407537323,-1.8159508704922758,-15.384469190837795,-8.425058235219305,-0.5990828909388591,-8.248348444954797,-12.057229271761368,-9.537726605210633,-1.797687903191672,-8.885132735186684,-7.558683680445615
103,-38.25368616862375,-10.329984583964142,6.8901401894824295,16.303759573127106,-2.124078015462706,-15.513718551929337,-8.299206373292462,-0.5536267145349115,-7.370444076045668,-11.438179876095269,-8.791793754599691,-1.376424598513889,-8.476511569946828,-7.107615868909355
104,-36.717212174290864,-9.913566465155274,7.584617402785626,15.528531864136225,-2.475560806985905,-15.5273420459612,-8.098908364922108,-0.48393203327955897,-6.408018390136672,-10.752157817601237,-8.07869653107133,-0.9933063976576291,-8.0530589339889,-6.681267656187307
105,-35.048611283397754,-9.516469123669788,8.137963889226107,14.63188681133499,-2.8651967401220353,-15.429672578359261,-7.825084892334493,-0.3909529805462379,-5.3783175065959785,-10.013212068384815,-7.3992711914705405,-0.6530200341241711,-7.622691547032425,-6.286959535248152
106,-33.283950594671936,-9.142109844526798,8.552052608812945,13.633591524466642,-3.2858455166647076,-15.226047359373794,-7.480311338920247,-0.2763734772340823,-4.300158681694599,-9.234993796066306,-6.752401031587925,-0.35883520793402457,-7.191483345320332,-5.929377380055996
107,-31.456133326762966,-8.791702728416947,8.831804827859802,12.554179427724549,-3.728669003928349,-14.922766560081463,-7.068988845863672,-0.14259936088356315,-3.193534898979915,-8.430676455817396,-6.135488424401589,-0.11270110496128183,-6.763848956213993,-5.610706788944774
108,-29.5945579195268,-8.464520158057152,8.984798373788413,11.414571815954517,-4.183429439731955,-14.527017608581009,-6.597401885665452,0.007273018167276985,-2.0791468506212527,-7.612871740335407,-5.5449494690235746,0.0846588281550899,-6.3427847134973945,-5.330841037856178
109,-27.72490847400922,-8.15820280901075,9.02082306885186,10.235702566630689,-4.638836185246115,-14.046767277398885,-6.073656972379592,0.1695150245644817,-0.9778882732163615,-6.793542763818119,-4.976702316661805,0.23365734560837242,-5.9301449814813285,-5.087647929743118
110,-25.869068614098897,-7.869100734437901,8.951404273264862,9.038152403734548,-5.0829305134406875,-13.490627152881281,-5.507506391883302,0.3398529685245091,0.08968869531466406,-5.983918684721625,-4.426624060079656,0.33575678671662973,-5.526932924325836,-4.877282823783445
111,-24.04515001096797,-7.592628993304426,8.789314433147707,7.841799054816702,-5.503496827655006,-12.867701042397604,-4.910068442984141,0.5135849370157253,1.1039051733691514,-5.194413380585809,-3.8909546507869592,0.3933800709377339,-5.133585412041996,-4.694535603457832
112,-22.26762591487699,-7.323622393188361,8.548090812750258,6.665488845946411,-5.888487798936651,-12.187425332753492,-4.293462031820976,0.6857258946741868,2.046466081323542,-4.434547949107094,-3.3666308330037795,0.4098132878454725,-4.750233081372587,-4.5331994674767015
113,-20.547559399175835,-7.0566767191780935,8.241574527846618,5.526733096157866,-6.226450523247774,-11.459414518669178,-3.6703785906399786,0.8511773501101807,2.900935399186191,-3.7128755735211856,-2.8515393587971203,0.38909423059136516,-4.376920413451256,-4.386450689674101
114,-18.892915069349947,-6.786468287005355,7.883482319681303,4.441430092395729,-6.506940777385608,-10.693323121489817,-3.0536176135426096,1.0049152691960024,3.6531647932592755,-3.0369078292611924,-2.344685452630299,0.33588270019660155,-4.013776624456989,-4.24723045093651
115,-17.308940812723197,-6.508047764661824,7.487019735145027,3.423612443392726,-6.720912450095238,-9.898731867251737,-2.4556131148164684,1.1421877448175997,4.291666309276266,-2.413042150090806,-1.8462774026205355,0.25531174867047723,-3.661134042862858,-4.108620522796077
116,-15.798602678360794,-6.217105936394325,7.064543228531644,2.4852212569385967,-6.861069051248205,-9.085061160918022,-1.887977179559697,1.258712701212518,4.807920978678639,-1.8464899817656613,-1.3577305845436374,0.15282381903498635,-3.3195946974808344,-3.964202745448466
117,-14.363052122187716,-5.9102082608189965,6.627278543012452,1.6359120091140902,-6.922163909473684,-8.261509821398288,-1.3610841003326626,1.35086543833127,5.196615114152748,-1.3412052184029306,-0.8815953895546031,0.03400015578534652,-2.990047932906765,-3.8083888219997695
118,-13.002101863778435,-5.584993002819174,6.185102341155864,0.8829003554321357,-6.901235558293822,-7.437012745972447,-0.883714852916369,1.4158457161566982,5.455794882251863,-0.8998146687675759,-0.4214150363707826,-0.0956059968751955,-2.67364334077181,-3.6367044539227185
119,-11.714685376086733,-5.240325708595203,5.746392570610417,0.23085807365464003,-6.797765344074747,-6.620208285175632,-0.4627770836079625,1.451814320985016,5.586928231579514,-0.5235568621371057,0.018478018454248683,-0.23062272977728174,-2.3717256548013967,-3.446012416848246
120,-10.499275910745762,-4.876401525729229,5.317950352272458,-0.31813054964725307,-6.613745828642654,-5.819404914181129,-0.10311068618613389,1.457989846113098,5.5948626825040435,-0.21224052670879753,0.4332145862602781,-0.36599265384470614,-2.085741460987715,-3.2346627382502273
121,-9.354243811100673,-4.494786624659762,4.90499271671785,-0.764542917371983,-6.353651212466988,-5.042537299601532,0.19261596083053864,1.4346978841743998,5.487669057584734,0.035763245899651075,0.817674118964244,-0.4970827506700506,-1.8171299039111555,-3.0025624943486577
122,-8.278135334087347,-4.098390911520978,4.511211922167402,-1.111316258202595,-6.024304752687797,-4.297103940027494,0.42391827273941013,1.3833670873004147,5.276365491576153,0.22348226721420622,1.1667849947112563,-0.6197704728657455,-1.567209749012835,-2.751161069823476
123,-7.2698619300778455,-3.6913666143545316,4.1388937963828205,-1.3636662126989303,-5.634642973576359,-3.590081989315181,0.5924184948998703,1.3064696730930465,4.974522626763848,0.3552492565747231,1.475821782879617,-0.7305075736884779,-1.3370738256762489,-2.4833496935038424
124,-6.328795507138412,-3.2789316163222337,3.7890846762570436,-1.5288266371822983,-5.195382218740089,-2.927819325345004,0.7016838013176225,1.2074076869274661,4.597758907499091,0.43654927715972003,1.740682572109746,-0.8263645987985511,-1.127500395981553,-2.203278810727891
125,-5.454772071664914,-2.8671225576230617,3.4617942329560676,-1.6157168824297001,-4.71859932320977,-2.3159087251490083,0.7569857582828418,1.090350141076913,4.163143481787497,0.4738106846552526,1.9581309656016368,-0.9050600447414554,-0.9388896133316255,-1.9161038051978372
126,-4.648012588668364,-2.4624895891880776,3.1562203084155613,-1.6345487859983852,-4.2172442079530255,-1.7590529743596846,0.764990585310318,0.9600295643715777,3.688532447340893,0.4741470516057718,2.1259901068012037,-0.9649782349959355,-0.771230992572253,-1.6276761649863067
127,-3.9089753338739617,-2.0717506419098837,2.870982242148584,-1.5963907873669152,-3.7046074560610887,-1.2609317507159024,0.733394276028819,0.8215092679388805,3.1918706941995216,0.44506289383774655,2.243280492904736,-1.0051783187670957,-0.6241040316101167,-1.3442005440671105
