,AF3,F7,F3,FC5,T7,P7,O1,O2,P8,T8,FC6,F4,F8,AF4
0,4.507265507014532,-1.8715561013204278,-0.4142161281994683,0.7474805870041182,18.5522133592915,-0.9102911812617515,-0.612003273443065,0.3979018659915413,3.2894549062078555,7.017000806195495,10.320483464006813,4.28140127863162,3.3952553117831297,4.161747282266915
1,3.9573511261895233,-1.5939096253524363,-2.887509338738533,0.7788109721603924,14.541254984045564,-0.5524623172300995,-0.8807196510599727,0.432933532990137,3.9023423786075115,7.854479236774576,10.84387198742245,3.0473742292264214,3.1944687958195073,4.332743765886913
2,3.412634027994257,-1.320867188114407,-5.306520695438554,0.8025256917573401,10.596593434151737,-0.1994258664909359,-1.1471674532266691,0.4688964528982876,4.50655213633205,8.694953936442868,11.360380570670443,1.853687872953894,3.0119385503147127,4.516169391286559
3,2.872587459577737,-1.0585164700445768,-7.634419453191235,0.8090285945886103,6.725663528274748,0.1379757350010103,-1.4041517553375535,0.505404807700073,5.092414923205135,9.52862710678092,11.847684090388237,0.7212272362432567,2.8514421934553593,4.708495606321023
4,2.3368677298321168,-0.8127357814667244,-9.836881244846406,0.7896308924563946,2.9352333101388774,0.44932086060012355,-1.644598814984595,0.5420036483936048,5.6507434355134745,10.345669095120455,12.283559092437413,-0.3309495476797136,2.71583985558373,4.905482259672685
5,1.805583691955117,-0.5890382841288848,-11.882940768167307,0.7369549221554984,-0.7685682350867434,0.7249822425807169,-1.8616694206192896,0.5781790635772873,6.173160907005248,11.136481507222438,12.646385644477132,-1.286081302983155,2.606969873052542,5.102143659751428
6,1.279530763794513,-0.39242237470785346,-13.745780889870423,0.6452749091887069,-4.380234626932854,0.9564585686769885,-2.0489006619750145,0.6133703639034643,6.652371643751152,11.891935008085502,12.915657253643401,-2.1301223988117064,2.5255835573557532,5.292732594989421
7,0.7603764185907007,-0.227231305224388,-15.403435906574858,0.5107793250421061,-7.894873545098332,1.1366490977625932,-2.200375586579314,0.6469835088833563,7.082361726889708,12.603573278656128,13.07248958691702,-2.8520965331163017,2.4713218507029304,5.470750075260568
8,0.250787844338033,-0.09702384444062699,-16.839383731366258,0.3317440294913765,-11.308202138138046,1.2600612191847897,-2.310911987627698,0.6784048960300602,7.458526641264165,13.26378115760457,13.100117941772611,-3.444370203912019,2.4427362857181043,5.628992456980601
9,-0.2455039341776136,-0.004457664023832221,-18.043000684122436,0.10861000724787122,-14.616541040334498,1.322946170987828,-2.3762553698265636,0.7070146639956421,7.777730123925594,13.865920778500184,12.984371938921758,-3.902830010271381,2.437356420711046,5.759649339425079
10,-0.7237060990621426,0.04881193385623046,-19.009853760508513,-0.15603586489870097,-17.81680289366703,1.3233633093347845,-2.3932580099225405,0.7321988677992782,8.038303554420054,14.40444224201274,12.714113275171119,-4.2269500466031475,2.451804977304493,5.85446436791281
11,-1.178032634068009,0.062213923907456045,-19.74180859918052,-0.4575739722974633,-20.906472361068875,1.2611780237034305,-2.360025671334707,0.753360273007353,8.239996701165959,14.874974245027126,12.281619062929616,-4.4197400846702655,2.481959554210667,5.904966364420667
12,-1.6018382265115085,0.036318632328151405,-20.24693684937692,-0.7895515879532582,-23.883575733450687,1.138002177931478,-2.2760154922070646,0.7699279889035894,8.383888591569239,15.274395880156563,11.68289019172877,-4.4875714339087045,2.5231559090730697,5.902769995064533
13,-1.9878139098308572,-0.027136262978705656,-20.539214079808627,-1.143957333793309,-26.7466388326416,0.9570887489492023,-2.1420725219635703,0.7813665463318654,8.472263564422203,15.60088560655352,10.917862745253183,-4.439884334238806,2.57042344037173,5.839935057141044
14,-2.328236692076743,-0.1252560905948783,-20.638008145171312,-1.5115547780176668,-29.494631723608588,0.7231944314515238,-1.9603976211899177,0.7871852022167286,8.508455147349222,15.853939906173377,9.990502418167686,-4.288787141312411,2.6187402974489733,5.70936460122828
15,-2.6152600699711503,-0.25403812050747077,-20.567367388049053,-1.882255963675911,-32.12689823384059,0.4424252586277351,-1.7344449208565487,0.7869482425544546,8.49666109419195,16.034354284629412,8.908767717700135,-4.0485623432882365,2.6632943888696006,5.505217133492684
16,-2.8412280541336843,-0.40845729739146863,-20.355127876642545,-2.245513821572374,-34.64306858040133,0.12207984643465124,-1.4687521468396776,0.7802869493071798,8.44173619538553,16.144162798050882,7.68443660842169,-3.7350975497980605,2.6997371367884853,5.223307075133214
17,-2.998993776993947,-0.5825839955780722,-20.031868851154893,-2.590713174385982,-37.04295541925177,-0.22949814683362948,-1.168711932929433,0.7669136826551742,8.348973373886865,16.186537106751153,6.332801169800689,-3.365262175533685,2.72441817243881,4.861468368005357
18,-3.0822247767418784,-0.7697279282653117,-19.629755039397782,-2.907543200421136,-39.326437176232105,-0.6030521163201005,-0.8402969248785073,0.7466380909408659,8.223886268543415,16.165650211688348,4.87224355154946,-2.956253747061038,2.7345903878344116,4.4198570929663665
19,-3.0856795218605018,-0.9626025560441358,-19.18131229747123,-3.186338575348872,-41.49333646607309,-0.9885294780784878,-0.4897557354285562,0.7193847712512674,8.07200689182983,16.086512942648607,3.323712633255943,-2.5249412084020983,2.7285755470342243,3.9011708560546805
20,-3.005442975259149,-1.1535049661568622,-18.718188106545092,-3.418380851619572,-43.5433045139758,-1.3751903628066664,-0.12330015184317901,0.6852109471768243,7.898709446276113,15.954792893512664,1.7101241619888439,-2.087234792187962,2.705881335078542,3.310766651550625
21,-2.8391130017611053,-1.3345069983919,-18.26995070155038,-3.5961554618562346,-45.47572400293204,-1.7517205866494934,0.2531938889909591,0.6443221506465262,7.709066152389879,15.776625231966586,0.055708089472280745,-1.6575120656164584,2.6672616919878553,2.656664464797379
22,-2.5859340294911695,-1.4976543458526277,-17.862980255376158,-3.7135628102168905,-47.28964235465009,-2.1063653819060755,0.6344484537326722,0.5970836104033417,7.507734509240903,15.558422159569982,-1.6146743657841442,-1.2481277924567098,2.6147136472783563,1.9494296566455358
23,-2.2468787528120338,-1.6351710147306127,-17.519502227266532,-3.7660838028394883,-48.983745101279844,-2.4271012320151857,1.0159874269136138,0.5440250899404597,7.298870188988236,15.306683551525536,-3.2762241141650126,-0.8690315654294536,2.5514056389027195,1.2019328550287045
24,-1.8246819483253736,-1.7396663212740426,-17.256806183023915,-3.750900644805252,-50.55637514079527,-2.7018599681784896,1.394265219410549,0.4858373192728535,7.086057436652381,15.02780718698183,-4.904891276055014,-0.5275119225934991,2.481534649082684,0.42899221619136324
25,-1.3238325898180912,-1.8043405150909324,-17.08668353514084,-3.6669733595965734,-52.00559909992856,-2.9188124653260337,1.7667112791295854,0.4233588990152001,6.872249498478839,14.727894515528353,-6.478041451347936,-0.22807931489907782,2.4101126432277975,-0.35309064763341064
26,-0.7505318726425189,-1.8231837563761646,-17.015106072221663,-3.515072197259976,-53.3293175240284,-3.0667105537007413,2.131690404917066,0.35755346949887085,6.659714368627864,14.41254794586693,-7.975087610521355,0.027506490376596804,2.342686760782379,-1.1270839399577506
27,-0.11262544681353757,-1.7911622032541268,-17.04215509464188,-3.2977662987857523,-54.5254115420692,-3.1352770119815108,2.488387260502774,0.28947788549797604,6.4499850587690295,14.08665837333767,-9.378073597893462,0.24006579530224406,2.285002279925761,-1.8754461621458476
28,0.5804827913825871,-1.704384583760518,-17.162199072786517,-3.019369443686211,-55.591915177892815,-3.1156260622165113,2.836629816476219,0.2202430618370491,6.2438178101542,13.754186524777454,-10.672193918146654,0.41269321946485044,2.2426223129629155,-2.5809876388306807
29,1.3179310969454723,-1.5602427424159109,-17.36430636248551,-2.6858441737002234,-56.52720001112648,-3.0006915955277886,3.1766702786477286,0.15097000765985613,6.04116528589341,13.417947382463392,-11.846233044248818,0.5503319050039547,2.2205231223274615,-3.227543468729565
30,2.0875142975994465,-1.3575203801914144,-17.632869215274248,-2.30466616332891,-57.330158101977034,-2.785637961284838,3.508943257543998,0.08274425457978003,5.841173681389276,13.079411674176598,-12.892906560000087,0.6592497682993426,2.222688238279832,-3.8006264565984016
31,2.875815028492489,-1.0964658426358869,-17.948406750388976,-1.8846516248536154,-58.00037043291225,-2.4682284504847978,3.8338195027364628,0.01657228040008428,5.642211746331905,12.738540600284825,-13.809086587464426,0.7464461421554816,2.2517273586956272,-4.288029346084243
32,3.66835528513378,-0.7788272402377537,-18.28850805945382,-1.4357517987729869,-58.53825142362738,-2.0491290027430282,4.1513700323790586,-0.04665651276389965,5.441935761468049,12.393669152693803,-14.5958958337971,0.8190218164615448,2.3085465468648847,-4.680349081023567
33,4.449770919831467,-0.4078506671681761,-18.6288722610535,-0.968819933457564,-58.945164341148214,-1.53212834232665,4.461151216955976,-0.10619924762292257,5.237389137723948,12.041450527244939,-15.258658563141944,0.8835481459100292,2.3920941410725964,-4.971410942191567
34,5.204010624621711,0.011755997574268057,-18.944400002142107,-0.4953572055517715,-59.22350591429563,-0.9242597896404312,4.7620178964273485,-0.16147832996767983,5.0251308771559815,11.67687067673988,-15.806702367904753,0.945471643042027,2.499202307477583,-5.158575970114736
35,5.91456071532705,0.47389060592906146,-19.210290143985414,-0.02724437084910507,-59.37675965839526,-0.23581370778669003,5.051970084552929,-0.21208846813594054,4.801384939734406,11.293338778237874,-16.253010923330145,1.0085895098036843,2.6245381866583233,-5.242920061001742
36,6.5646978227882355,0.971152863858638,-19.40309561461058,0.4235345908170934,-59.40951632406994,0.5197672034494621,5.328039339430999,-0.2577920960024894,4.562202276454307,10.8828562661575,-16.613734441180934,1.0746287754391581,2.760672144444437,-5.229277113010391
37,7.137772342967461,1.494967402737594,-19.501694026263067,0.8451715489222481,-59.3274581053088,1.32611433658332,5.586222159788997,-0.2985046464948278,4.303627878520702,10.43626361803847,-16.9075710924559,1.1429565594982096,2.8982641929733926,-5.126142266183416
38,7.617524459683466,2.0357331789189392,-19.488133058045268,1.2263112824773537,-59.13730264387388,2.1642820586407234,5.821467787138972,-0.3342723631382977,4.021865656872458,9.94355967407601,-17.15503903826039,1.210440847578996,3.0263628746207663,-4.945436125720867
39,7.988430879314386,2.5829988671007795,-19.3483186505984,1.5563213188364304,-58.84670423978711,3.013214929133294,6.027725499184178,-0.36524616447132663,3.713433878737214,9.394282920905649,-17.377664649987025,1.2714701950706455,3.132803508676822,-4.702137743286702
40,8.23607499351927,3.1256633157658227,-19.072524698700523,1.8255481237296247,-58.46411243089603,3.8503235767503408,6.19805282820208,-0.3916552054931299,3.375303855589429,8.777938956059913,-17.59711770098311,1.3181284694172064,3.2046853324280877,-4.413801898370422
41,8.347527987933027,3.6521992590574515,-18.655713837676828,2.0255522608841257,-57.998590946468674,4.652154085053853,6.324783109677338,-0.41378321067181034,3.0050157516394687,8.08445480849596,-17.8343281280738,1.3405096531072414,3.228901248652483,-4.099982450113282
42,8.311725358963917,4.150897923791235,-18.097668159875074,2.149315259568886,-57.459602108569676,5.395130954504984,6.399749425254046,-0.4319496626446134,2.600768267873593,7.304639879733317,-18.10862047056284,1.327150206217019,3.1926912032393524,-3.7815866160474565
43,8.119823298157126,4.6101319542962385,-17.402935532504323,2.191412140581244,-56.85676324378387,6.056349579508529,6.414561742764062,-0.44649685861477784,2.1614830452962437,6.430635087607003,-18.436900676341264,1.2655533553776857,3.084191454918187,-3.4801849758755825
44,7.765521800427891,5.018633857198254,-16.580601842232195,2.1481453907516497,-56.19958321856816,6.614390327905504,6.360933382043415,-0.4577828720778324,1.6868488890338817,5.456335762369747,-18.832925824909037,1.1427799532485858,2.892956623264335,-3.2172996163227188
45,7.245344354830306,5.3657865663512485,-15.643902684080894,2.017638159943269,-55.49718896127979,7.050122596878793,6.231050637522475,-0.46617957124940257,1.1773539854042885,4.377778636248777,-19.30668163203134,0.946082316948611,2.61043745090101,-3.0136893375002067
46,6.558866060300839,5.6419214542648355,-14.609690646498441,1.7998860484574464,-54.758053449072754,7.347463949052073,6.017975162124678,-0.47207400777540187,0.6343146132711918,3.1934867840895356,-19.863887329007806,0.6635588814715332,2.2304020938868634,-2.8886479195148165
47,5.708882540562186,5.83861719616747,-13.497777112410443,1.4967675840842967,-53.989737843640405,7.494057308950317,5.716063143259933,-0.475870815415358,0.059905591431816424,1.9047666275930164,-20.505644334806544,0.2848075916240486,1.7492908438074086,-2.8593304662928842
48,4.701511819475717,5.948990838198197,-12.330170511846438,1.1120135512605342,-53.19866100358913,7.48182934285341,5.321379609769968,-0.4779930428745183,-0.5428082847186952,0.5159478548947863,-21.22824372936097,-0.19844502092263475,1.1664939797419647,-2.940123699173621
49,3.546221377384819,5.967970911937035,-11.130235895096027,0.6511356087597716,-52.38990910672226,7.3073967373172914,4.832082040160385,-0.47887933169626634,-1.169846914930858,-0.9654475803253957,-22.023145384762987,-0.7917628827378272,0.4845418653711383,-3.142077525328187
50,2.2557734561510485,5.892541805475974,-9.921803217536697,0.12131569275428873,-51.567096387292224,6.972294430397792,4.248746285280421,-0.4789764206597986,-1.8163068976400976,-2.528624308126489,-22.87713647166331,-1.497490665590798,-0.29080291525313834,-3.472416146135755
51,0.8460831966091937,5.721948645567363,-8.72825377454428,-0.468740797680113,-50.732285211400516,6.48300984948686,3.5746101541516646,-0.478727135928147,-2.4763824385336313,-4.159536570817804,-23.77266900679082,-2.3143361256613963,-1.1505591302335674,-3.934146801464503
52,-0.6640138661639308,5.457852151812416,-7.571616072548045,-1.1089838116989377,-49.88597027653356,5.850818188127408,2.8157150816559633,-0.4785548790006754,-3.1434233069540745,-5.84102698479865,-24.688366762033272,-3.2370622827634645,-2.082649946313465,-4.525782711876415
53,-2.2530859528813325,5.104422953294508,-6.471704423807882,-1.7882246127577872,-49.0271280804995,5.091424624333458,1.9809329037971595,-0.4788460827268574,-3.810032055612243,-7.5530846310694555,-25.599682680428685,-4.256304564762552,-3.07213422330415,-5.2411941506571
54,-3.89751856198896,4.668364955250057,-5.445335435840174,-2.4943638983572423,-48.153329287142526,4.224429825381653,1.0818721014466604,-0.47993232327397223,-4.4681963259302275,-9.273217103559608,-26.47968008639959,-5.358525948106849,-4.10153950034024,-6.0695985066209115
55,-5.572011159728586,4.158858169269792,-4.5056582807202235,-3.214637130278269,-47.26090834289357,3.2726445924978202,0.13266531892394964,-0.48207380500079977,-5.109447458870752,-10.976923814091784,-27.299905828230944,-6.5261211012956934,-5.151285538620138,-6.995697252047147
56,-7.250146803963765,3.587413561493925,-3.661633182338212,-3.935872300804795,-46.345181831560744,2.2612867623376705,-0.850353496402577,-0.4854456800806783,-5.72503544166277,-12.638254163069636,-28.031322182573938,-7.737678252443176,-6.2001848103237895,-7.999965282026853
57,-8.905020413348666,2.9676363279393767,-2.9176883788358325,-4.644755537684422,-45.40070485126411,1.2170973544767016,-1.849069338421164,-0.4901281279163312,-6.3061123527710325,-14.230434241228293,-28.645266385958227,-8.968404494276992,-7.226006365577503,-9.059095843831699
58,-10.509906739472354,2.3148997236907105,-2.273578265219807,-5.3280998328542655,-44.421553111386466,0.16741393221852427,-2.8440879069887144,-0.4961005457732305,-6.843919992595635,-15.726547177383052,-29.114409631107907,-10.190715086011375,-8.206090448673407,-10.146600479048788
59,-12.038943861147096,1.64593850670641,-1.724454195934457,-5.973111446393907,-43.401617150344585,-0.8607609936144265,-3.815300813639652,-0.5032398976758611,-7.329979929491944,-17.100251850852906,-29.41368884143409,-11.374978711666571,-9.118000409535336,-11.233555978065771
60,-13.467803532928395,0.9783776006487106,-1.2611457531218129,-6.567647316764729,-42.33489416776523,-1.8416589886999926,-4.742493742849319,-0.5113233147564203,-7.756284663800297,-18.326521277807,-29.521184167894113,-12.490399456385779,-9.940194684129096,-12.289479505777956
61,-14.774317652738105,0.3302160768303057,-0.8706366848127466,-7.100455827629449,-41.21576321685372,-2.751575962299059,-5.605974682830984,-0.5200352362822925,-8.115487684740286,-19.382377420333235,-29.41891448105148,-13.506005076260683,-10.652696362863137,-13.283301699641772
62,-15.939031335232263,-0.2807117003472104,-0.5367083683732528,-7.561393370196905,-40.03923148319186,-3.5696011776899987,-6.387197622548162,-0.5289794409371821,-8.401089150147168,-20.247596053266136,-29.09352367518719,-14.391702033151144,-11.237733812870077,-14.184398624726882
63,-16.9456575058292,-0.8372764977584153,-0.2407155140707172,-7.94161049229182,-38.80114259194708,-4.278218517757318,-7.069356386727038,-0.5376960799921858,-8.607613324956322,-20.905354593556574,-28.536832723437822,-15.119351471435463,-11.680324771672755,-14.963638007195685
64,-17.78141469842833,-1.323576769490037,0.03754597748526634,-8.233703402603265,-37.49834117335151,-4.863760667950009,-7.637923442026098,-0.5456833335528835,-8.730773585755196,-21.34279702908663,-27.74623575369554,-15.663817232152551,-11.96877856410455,-15.594393031204602
65,-18.43723750084533,-1.725426051956477,0.3189207848911591,-8.431828310984386,-36.128790543391645,-5.3167041182577055,-8.081109728118209,-0.5524228207000551,-8.767620626181793,-21.551493037565574,-26.724922713095875,-16.003937644661494,-12.095095871051424,-16.05347830160627
66,-18.907856713018877,-2.03079008881724,0.6239664507113867,-8.531777139576308,-34.69164235635734,-5.6317999275840105,-8.39022461130593,-0.5574076741605896,-8.716669709162469,-21.527773176818304,-25.481916696044916,-16.12337720267925,-12.055251517453451,-16.32196746977324
67,-19.191753240615537,-2.230160896246087,0.9720542597191116,-8.531013867812478,-33.18725872730556,-5.808042121999908,-8.559920507886375,-0.5601721671473562,-8.578003556029083,-21.27292827923224,-24.031921158759616,-16.011321498174887,-11.849351792409951,-16.3858597656061
68,-19.290995746026514,-2.3168572752539123,1.3805327211199048,-8.428671758363151,-31.61718874451326,-5.848482415869446,-8.588314039870282,-0.5603215425764541,-8.353348601520882,-20.79326783039028,-22.394980866081006,-15.662987667023442,-11.481663287193088,-16.236571836280376
69,-19.210976675589396,-2.287243072199256,1.8639830422454464,-8.225513058767927,-29.984102573915706,-5.75990656071022,-8.476983281584149,-0.5575600375604974,-8.04612358684317,-20.100037955123934,-20.595969140164556,-15.079931740781745,-10.960515012553047,-15.871240475305143
70,-18.9600641383923,-2.1408556376958257,2.4335914464846433,-7.92385406397567,-28.29168766483949,-5.552393911442425,-8.230847405547742,-0.5517143192717948,-7.661460374741868,-19.209203908180708,-18.663920913517746,-14.270142667577863,-10.298079289832167,-15.292830266922582
71,-18.54918839874163,-1.8804380578883206,3.0966589358969556,-7.527459411386955,-26.54451320799389,-5.238787388461437,-7.857940421947807,-0.542749180207461,-7.206196807916812,-18.141104607142722,-16.63123542456668,-13.247920115415296,-9.51003931824396,-14.51004778867548
72,-17.991382065900996,-1.5118707659933495,3.85626488720134,-7.041410444443487,-24.747871172800817,-4.834105141851596,-7.369094916962495,-0.530772847833394,-6.688839944528694,-16.919988233443426,-14.532774829637404,-12.03354000079311,-8.615152812090521,-13.537070876199504
73,-17.301293008512342,-1.0440016531460887,4.711096488893493,-6.4719537551427155,-22.90760462171402,-4.354926960851832,-6.777554751074138,-0.5160307636999903,-6.1194955699784375,-15.573438942641024,-12.404886590599398,-10.652718467150594,-7.634722496925568,-12.39310726658168
74,-16.49468880082348,-0.48837880128385186,5.6554512965610355,-5.826337501783783,-21.029935772714108,-3.818787161017599,-6.098537184435078,-0.49888859351012915,-5.5097579010727085,-14.131706035703456,-10.284378875044252,-9.135891670052173,-6.591986277860056,-11.10180145638209
75,-15.587970981223,0.14110412602042893,6.679414561888106,-5.112644294171108,-19.12130678908979,-3.2436012067466327,-5.348764514559652,-0.479806620951248,-4.872553116787908,-12.626949337290753,-8.207479749402225,-7.51733481383074,-5.511443063183599,-9.690512357019267
76,-14.597716298398245,0.8286342782265483,7.769205920768256,-4.339629633785771,-17.188245227523144,-2.647146266789641,-4.545983230851805,-0.45930823399796133,-4.2219320013774375,-11.092418326834578,-6.208812573669885,-5.834149088287502,-4.418134438372875,-8.189488102271692
77,-13.540260126289128,1.5569586507295707,8.907681821626698,-3.5165734639970196,-15.237263414509268,-2.046607618772131,-3.708485515005466,-0.4379452837530246,-3.5728098686810776,-9.561587079626964,-4.320420976897738,-4.125149206093141,-3.336906556994109,-6.630967925292394
78,-12.43133414559414,2.3078956133267243,10.07497189568054,-2.653149341615273,-13.274796923284164,-1.4581950708253093,-2.854644316867486,-0.4162629651295402,-2.9406548808241517,-8.067270887054521,-2.570876397170639,-2.42968725969749,-2.291679462821885,-5.048243128471747
79,-11.28576662976452,3.0628596216773922,11.24922024736176,-1.75931212078564,-11.307182372122167,-0.8968276592015727,-2.0024699784665927,-0.39476654175638504,-2.3411279584123306,-6.640752526893178,-0.9844992551217183,-0.786451383755544,-1.3047521535697129,-3.474709144172059
80,-10.117250323315469,3.8033810055752024,12.407396595139435,-0.8452023694693898,-9.34066989194722,-0.3758812145902003,-1.16919437016958,-0.37389178960695957,-1.7896789052557114,-5.310946471379507,0.41927878329508167,0.7677192337394072,-0.3961711674304964,-1.9429390769808632
81,-8.93818059235405,4.511603565885125,13.526137665917258,0.07893522883095684,-7.381461693265823,0.0930082916276214,-0.3708881455985449,-0.35398064391661643,-1.301105260134468,-4.103627979924173,1.6263898137295527,2.1989591349157895,0.4168120800690283,-0.48380654067265977
82,-7.75956447360113,5.170743713058699,14.582577373293432,1.0028222134623939,-5.435765668838913,0.5000929770515196,0.37788267133924824,-0.33526322518363005,-0.889083343157528,-3.0407507556367452,2.628428340961735,3.477397977595254,1.1201753534764824,0.8743180623368142
83,-6.590998127449241,5.765497013592638,15.555126184780441,1.9162084124709209,-3.5098520418119117,0.837619665091681,1.0643541434138781,-0.31784704230696814,-0.5656843683336342,-2.139871666802291,3.422769060971376,4.57804028377351,1.7034390428366961,2.1062785513311835
84,-5.440705973984128,6.282381412950978,16.424165391552812,2.808929541629819,-1.6101017861536089,1.099900624092745,1.6778096039800607,-0.30171366573884884,-0.34089146330178266,-1.4136951430565472,4.012507813295424,5.481473460628806,2.159855129539002,3.190737381771294
85,-4.315631098739465,6.71001013184763,17.172628895763733,3.6709646057649734,0.25696217229416957,1.2833525027362676,2.2097670219423433,-0.2867226891719016,-0.22213591422097326,-0.8697452760032297,4.406236134071318,6.174382722920638,2.4864738001148368,4.11066413532208
86,-3.221565030136495,7.039290304802907,17.78645179086619,4.492496779642127,2.084666748952878,1.3865054292747911,2.654103958468726,-0.27262250682299716,-0.213873485277876,-0.5101716987188448,4.617663340296782,6.649858979438771,2.68409318156185,4.853701650266528
87,-2.163305596748334,7.263545844033822,18.25487125007588,5.26398025738224,3.8662062827626418,1.4099822785101186,3.0071168549319305,-0.25906723877202326,-0.3172242128492305,-0.3316953071811935,4.665101384982253,6.907492043700917,2.7570997361183687,5.412405064442739
88,-1.144832683664777,7.37856544532731,18.570572243778454,5.976214649271428,5.594686826076746,1.3564467867400503,3.2675134211017074,-0.24563879132807165,-0.5297004836700386,-0.3256997812117958,4.570828576406133,6.9532477932923245,2.7132087827826616,5.784350700736349
89,-0.16949229724900622,7.382579376617389,18.729679050120943,6.620428030681524,7.2631969976535835,1.2305183986228305,3.4363394408449666,-0.23187240545702434,-0.8450471674942378,-0.4784733398279576,4.360349886078325,6.7991345777477346,2.563116216871351,5.972113695425533
90,0.759820284155695,7.2761713186321,18.73160276932355,7.188369323146187,8.86490405571357,1.038651102298936,3.5168436818203888,-0.21728336888404218,-1.2532138691025567,-0.7716023264666244,4.061573964653795,6.462671147230853,2.3200734775492804,5.983115012654907
91,1.6404869689197783,7.062133723865669,18.578764146533928,7.672410313310396,10.39317222498379,0.7889731652973466,3.514286340846854,-0.20139244804550843,-1.7404737660384417,-1.1825142573325929,3.703929678658692,5.966175929354163,1.999398930057144,5.829339821743476
92,2.47001119407002,6.745277003466177,18.27621928470116,8.065657713686061,11.841698832536636,0.49108522436628427,3.4356978322776883,-0.18374837268225322,-2.2896968037415535,-1.6851624806481185,3.3174477667831344,5.335905794647738,1.617940902070179,5.526931024567396
93,3.2458883250208976,6.332204465225495,17.831222399208748,8.362076274430429,13.204662899996555,0.15581600391150296,3.2895962339420843,-0.16394689276619115,-2.88077753299789,-2.2508375317327483,2.9318358406473517,4.601080317372099,1.1935101384890354,5.095665204059255
94,3.9655102629069545,5.831066059101813,17.252763327998256,8.556624408719435,14.476880285918199,-0.20506225576168322,3.085673500919675,-0.14164671563611664,-3.4912096860792587,-2.8490825512594777,2.575576700889528,3.79283282728051,0.7443011810516243,4.558323520161463
95,4.626112021834512,5.2513039612580785,16.551116973963005,8.645403219005013,15.65395880352677,-0.5791535870510024,2.8344623312096457,-0.11658282472033869,-4.096791174246695,-3.448683255530451,2.2750796987667496,2.943131013878123,0.2883224872856417,3.9399755999627017
96,5.224766770719991,4.603401208174545,15.737437019715067,8.625817687278792,16.732445663378446,-0.953785821393027,2.546996693963423,-0.08857764059124605,-4.67243545635016,-4.0186982244789835,2.053911782853389,2.0837079521051867,-0.15714598158911147,3.2671984377345855
97,5.758433244097979,3.898641214950013,14.823418043615572,8.496745333616076,17.709958200064772,-1.3163768800695055,2.234478896187955,-0.05755039366911971,-5.193058712309701,-4.529492881006816,1.9321293853574424,1.245040709818705,-0.5760510985002228,2.5672543400905696
98,6.224055574544812,3.148882337365824,13.821040201805252,8.258703811679332,18.585287703165445,-1.6548099989202922,1.9079645039699278,-0.02352485250522919,-5.634506863191647,-4.9537393312084586,1.9257264864312997,0.455409735328498,-0.9540066913711391,1.8672529597596053
99,6.618711074950752,2.3663489144626304,12.742400392279885,7.914005814378692,19.358466043567503,-1.957807216606723,1.5780738054222003,0.013364726152553765,-5.9744825039335545,-5.2673434628886175,2.046210048013619,-0.25993133748725705,-1.2786633753943826,1.1933232207242666
100,6.939796995982784,1.5634387647466892,11.599624245195916,7.466887928910899,20.03078612133231,-2.2152892946221954,1.254735282840486,0.052869697216007525,-6.193430361943436,-5.450261412757775,2.3003115123445474,-0.8794495443082894,-1.539997725062535,0.5698213840489199
101,7.185243382746313,0.7525465065859662,10.404845191438113,6.923599785898096,20.6047699531101,-2.418708998689635,0.946963217808705,0.09462553141089101,-6.275341676866414,-5.487171228020481,2.6898406004459487,-1.3858691014276525,-1.730512589424091,0.01860134517564286
102,7.3537363226755605,-0.05409825203195741,9.170231008960833,6.29244078590764,21.08408212404109,-2.56134373583022,0.6626688659381271,0.1381533239884787,-6.208442327897489,-5.367972213777678,3.2116841489113908,-1.7665362913872527,-1.8453437847528684,-0.44162772563351665
103,7.4449343963527115,-0.8445795332665421,7.9080349458074215,5.583733492230318,21.4733907774946,-2.638533026231933,0.40850354253163423,0.18286518977579894,-5.9857354029058145,-5.0880927449965325,3.8579485314359068,-2.0136069022098093,-1.8822729292957985,-0.7958335831342305
104,7.459660988383164,-1.6074336564922376,6.630647546822416,4.809725110186534,21.778182663442674,-2.6478463951350437,0.1897326619770601,0.22807436939037687,-5.605375334826847,-4.648596143336995,4.616240002767627,-2.124059926717134,-1.8416508635321802,-1.0330644220491716
105,7.400055885810973,-2.3317832593617487,5.350626361690094,3.984411234073672,22.004542397271166,-2.5891686601664476,0.010141432274437966,0.2730104388575936,-5.0708573998488875,-4.056083214103906,5.470073152674158,-2.099550464345585,-1.726240312917395,-1.1467115146786973
106,7.26967081767223,-3.007473623790874,4.080683718300455,3.1232793284177656,22.158908306328446,-2.464692949305164,-0.12802548054257043,0.3168395699963319,-4.391013264050801,-3.322399192054581,6.399393531840351,-1.9461219896939839,-1.5409904925671676,-1.1346260955568197
107,7.073495530729647,-3.6252184093138715,2.8336178619018937,2.2429733673148156,22.24781759712386,-2.278817053524414,-0.2240867520508675,0.35868950654330145,-3.5798103222746644,-2.464161976708553,7.381196980535573,-1.6738021112972985,-1.2927602400540366,-0.999092325661204
108,6.8179048549203785,-4.17675956421881,1.6221801297263985,1.3608858693510435,22.277652492730727,-2.037945026756655,-0.27890509700248967,0.39767855442546196,-2.655959460689204,-1.5021367177802696,8.390226086748209,-1.2961063662398558,-0.9900085324538039,-0.7466630874151821
109,6.510523884228152,-4.655040981850614,0.45888003227201324,0.49468926700242205,22.25439763086401,-1.7502022837551536,-0.29482075347702497,0.4329472796249306,-1.642342201242045,-0.46048736846727906,9.399723912683495,-0.8294720136177586,-0.6424700249474133,-0.3878680497440851
110,6.160017085963775,-5.054388399669793,-0.6442603111913184,-0.3381754126326306,22.183418184109783,-1.425078181410566,-0.27553319712724933,0.46369104774008124,-0.565273886546441,0.634062493882943,10.382226429197921,-0.2926392965939392,-0.26082837885075577,0.0631960437070434
111,5.775815584380046,-5.370681353106348,-1.6759831329698598,-1.1210294386159356,22.069267692069033,-1.0730149274025509,-0.22592871596666553,0.4891913542577129,0.5463751495598084,1.7531291661413044,11.3103771215887,0.29400707877496934,0.14360641723529202,0.5893839125238707
112,5.367802760008935,-5.601498983548941,-2.626079856169279,-1.8384808343515648,21.91553376618253,-0.7049654795833501,-0.15185521320592837,0.508844059957022,1.6621734536483663,2.867602077544441,12.157748643344,0.9091264387727955,0.5592162401259428,1.1711209987299245
113,4.945980552127372,-5.746221306144567,-3.4856599777887096,-2.4769164397270376,21.724728289791823,-0.33194551547390744,-0.0598502255983184,0.5221829851688199,2.7512056400722096,3.948588243058702,12.899656318981954,1.5311306946726202,0.9743912778643348,1.7871138765788332
114,4.520137726173379,-5.806070825572543,-4.247382930926851,-3.0249382077703135,21.498227013092258,0.035395140095971486,0.04316718055898309,0.5288977877921874,3.783196702375779,4.9683478475156235,13.513946922706168,2.1389002573294724,1.3778476794455383,2.415137377106388
115,4.09953791327261,-5.78408494113379,-4.905636775916895,-3.4737244442666557,21.236262304578794,0.38715858775427703,0.15022581722046724,0.5288456399134253,4.729642938889478,5.901200439161693,13.981743765500243,2.7124904198899986,1.7589464255792184,3.032876408474281
116,3.692640452810595,-5.685016298257726,-5.456654341580843,-3.8173012591149913,20.937972134032638,0.7145241583258487,0.2546348884485718,0.5220567579325339,5.56490462567761,6.724377198584072,14.288125163400698,3.233806416223666,2.1080077005071427,3.6187916704688456
117,3.3068618573045425,-5.515165341582789,-5.898565478843937,-4.052714103140125,20.60150719807909,1.0100010484874773,0.35029910049140095,0.5087341201826308,6.267211480186393,7.418788517264723,14.422707712419152,3.6872202096709827,2.4166081525257943,4.152970011180877
118,2.9483812612716354,-5.282155833040931,-6.231391551730615,-4.180093861282904,20.22419594112291,1.2676033589077271,0.4319952927510378,0.48924773422442364,6.819529475146547,7.969670769266767,14.380100435054525,4.060098084241453,2.677843113222174,4.617913966819719
119,2.6219907707201813,-4.994668706645043,-6.4569930311960695,-4.202616398582411,19.802764334655677,1.482948977408562,0.4955916127131936,0.4641238270369836,7.2102388106446,8.367074823075937,14.160194077475492,4.343207465674792,2.8865341750614153,4.999223401303576
120,2.330991657103091,-4.662151391503381,-6.57898207370888,-4.126358286370791,19.33360405283806,1.653288284904278,0.5381954158075852,0.43402944614702904,7.433579544186412,8.60616312800905,13.768253932784685,4.530975590864196,3.039364911184823,5.286126660467027
121,2.0771392194615808,-4.294518729520911,-6.602609434289293,-3.9600543176559264,18.813079361240476,1.7774709154062767,0.5582234213643106,0.39975301420156517,7.489833553663784,8.68729207508049,13.214794713614248,4.621581771171635,3.1349333939942565,5.471828970733394
122,1.8606416231666911,-3.9018587499695503,-6.534629983687529,-3.7147643992204245,18.237859905146816,1.8558593508310857,0.5553952718638853,0.36218123763997967,7.385227426641935,8.615870505469692,12.515230423480933,4.616877645178,3.173718455417005,5.553660026861605
123,1.680219643050987,-3.4941528887874282,-6.383145442779107,-3.403458927523676,17.605264007523257,1.890197887923388,0.5306577402245679,0.32227259455513446,7.13155814657705,8.402001295480071,11.689307886480119,4.522143211033229,3.1579653396422094,5.533018162544414
124,1.5332336186710533,-3.081016728112878,-6.157419125602699,-3.040533468474611,16.91359535077043,1.8834451577989222,0.48605071115352494,0.28102764598587926,6.745560153616612,8.059927768260394,10.76034667115788,4.345697588336903,3.0915031010322096,5.415122645923379
125,1.4158802602795357,-2.671464967645703,-5.867657082920327,-2.6412661642022632,16.162455122141584,1.839578243877204,0.4245279015480708,0.23945665213145312,6.248047250959892,7.607317875853682,9.754319118531795,4.098390836056443,2.979509398649335,5.208596798455282
126,1.323455352734462,-2.2737036995369366,-5.524753287479529,-2.221235254270037,15.353011779357717,1.7633765323684858,0.34974552497140166,0.19854535777018684,5.662875222069934,7.064426088931083,8.698812310726241,3.7930070273386054,2.8282384916592953,4.924912198163755
127,1.2506700365115846,-1.8949536987769047,-5.140002524011376,-1.7957192381232154,14.488211453662654,1.660193602288194,0.2658313410448611,0.15922028840659164,5.015780648214303,6.453176511397453,7.6219201138077315,3.443610335081649,2.644726582497482,4.577728527924789
