,AF3,F7,F3,FC5,T7,P7,O1,O2,P8,T8,FC6,F4,F8,AF4
0,-3.853510954426931,-4.690087949471616,0.2650333029837379,-3.8785207212142367,0.330896237623881,0.6494590535550183,-4.16248301723876,-7.671737589572575,-5.0543093487649156,-7.10058860111748,-3.7787779645570048,2.433841565148761,-9.420781897808663,-6.180708737048299
1,-2.345332234270404,-4.885965433658079,0.01760925552238211,-2.8272041632557134,-0.2053925783363495,-0.3717417468680597,-5.132885065465187,-6.6960594426819515,-3.9951970443117415,-5.328967808077881,-1.9066076479813616,4.579150784855819,-8.181717986344529,-4.245031863588125
2,-0.8862559800378731,-5.108098058488471,-0.22382299156989527,-1.8184027194327865,-0.7354210534744351,-1.3761562409592236,-6.1106351583432925,-5.756034894219736,-2.967672417762609,-3.606635317700742,-0.08358290733355113,6.65179546112939,-6.974585513240672,-2.3718267186521356
3,0.4936834505110951,-5.360198923395067,-0.4560912595526145,-0.8780372881486436,-1.2583764472272185,-2.346139807137657,-7.07620631417449,-4.858378306058456,-1.9839027773804188,-1.9589946335111186,1.654267504643297,8.613809000884967,-5.812709559561854,-0.5889753933945019
4,1.7669724978440313,-5.644348295139656,-0.6762564352775754,-0.029541371697205755,-1.7733259561718926,-3.265585787219478,-8.011383624517967,-4.009170389301704,-1.055282515427719,-0.40947949619662394,3.2737525532225202,10.43006612123615,-4.706475534325421,1.0784027779773642
5,2.909467445017334,-5.960715015249606,-0.881675508783953,0.7069045662324126,-2.2791441394453438,-4.120534509372034,-8.900154519799237,-3.214028990436171,-0.19229149914188542,1.0209820644199206,4.7454405450677015,12.069161584754907,-3.662598732176082,2.608612681013091
6,3.901113791328331,-6.307359461922861,-1.0700558162331673,1.3150183739031636,-2.774447586903947,-4.899637625622026,-9.72936004284916,-2.4781840533200166,0.5956978342562043,2.3144703498952475,6.044444361428431,13.504190621556042,-2.68360104568185,3.9839238029480644
7,4.726492852516305,-6.680141043425955,-1.2394991094518528,1.7829078370154596,-3.257542836976854,-5.594459481221384,-10.48907523181554,-1.8064616674991363,1.3006432402677282,3.4565080982488836,7.15102669827737,14.713395221203628,-1.7675467918816714,5.190954309846119
8,5.375159495167847,-7.072750528513179,-1.3885346572838266,2.1033808008290427,-3.726394771575616,-6.199613896756077,-11.17271646842218,-1.2032011921149242,1.9160495456223634,4.436385976011135,8.05098987420377,15.680643742055079,-0.9080739836016304,6.220870503635907
9,5.8417504319832805,-7.476879970844004,-1.5161409878485366,2.274056001776218,-4.1786222474292325,-6.712748385607189,-11.776899011068261,-0.6721380359248246,2.4371414569437535,5.247346614729616,8.735831878301529,16.39572150324184,-0.09473269068446448,7.069388013778947
10,6.125863314907699,-7.88253086183238,-1.62175617991308,2.29727021715584,-4.61152601397217,-7.134397426167163,-12.30108707575115,-0.21628295559230515,2.86096270860779,5.886610901713741,9.202672743459443,16.854424677513947,0.6863872700059844,7.736580474323791
11,6.231728645439346,-8.278446110757555,-1.7052769038085829,2.179792094478991,-5.022151387167745,-7.467731911695116,-12.747091063495164,0.16217978277643008,3.18638745962062,6.355250355684915,9.453977665624226,17.058465203270472,1.4517852953908146,8.22652119140691
12,6.167715118632423,-8.652636856467229,-1.7670467876339373,1.9323667127704038,-5.407385022178904,-7.7182337505988325,-13.118471761396647,0.461964259553887,3.4140471407134427,6.657927541276094,9.497120466073353,17.01520719638752,2.219503634172173,8.546799167912454
13,5.945720643658273,-8.992964866275381,-1.8078351667128343,1.5691251444674665,-5.764081954566419,-7.893323164662082,-13.419910053769586,0.6827246896251298,3.546190754240382,6.802538776722026,9.343839469395347,16.73726298680492,3.0079864340329423,8.707959369330183
14,5.580503439605712,-9.287738139664368,-1.8288076117799674,1.1068982995198489,-6.089216545650153,-8.00196206146331,-13.656594082385528,0.8250759321321753,3.5865060564181372,6.799797957991979,9.00963624760699,16.241978115074495,3.834926787323144,8.722916314393121
15,5.089000673929814,-9.526281470923369,-1.8314894178743635,0.5644738775525695,-6.380049505614883,-8.054251174177192,-13.83366559790601,0.8906065154691443,3.539931693191291,6.662797310734597,8.513157257830704,15.550829929239292,4.7161760180405805,8.606380608328397
16,4.489669490883171,-9.699452263249148,-1.8177224637969807,-0.03816896492290595,-6.634302419694341,-8.061033028018537,-13.955755417578576,0.8818979723046054,3.4124864115918823,6.406572478425148,7.875583181616906,14.688756556563188,5.664774319124767,8.374323519929053
17,3.8018713431543567,-9.800080805239737,-1.7896151001126102,-0.6806179290438403,-6.85033035951307,-8.033508330150298,-14.026626646525346,0.8025592952525018,3.211132372238674,6.047688412983935,7.1200356889187155,13.683425716617133,6.69014474093743,8.043489901884858
18,3.0453085041590824,-9.823321264503344,-1.7494846157176074,-1.3427543812746667,-7.027282008286873,-7.982870779955228,-14.0489354960127,0.6572764665212782,2.9436772709955097,5.603850904697044,6.270999668314511,12.564448730318585,7.797476940939414,7.630958068537612
19,2.2395132246400413,-9.766904781760964,-1.6997924816531014,-2.005428410251815,-7.1652358771205975,-7.919964846832312,-14.024113598212633,0.4518663627154595,2.6187066329508877,5.093537512837709,5.353751813605437,11.362544803397787,8.987314312083322,7.15373808803522
20,1.4033862564441932,-9.631289443909884,-1.6430735981578928,-2.651065277098038,-7.265301140971181,-7.854972082127511,-13.952371513536082,0.19331488417245266,2.2455261015210226,4.535633397590846,4.393784461686651,10.108663802244948,10.255348564776048,6.628397826846587
21,0.5547829377361345,-9.419703194460148,-1.581861708467049,-3.264187814904214,-7.329672117777124,-7.797132525686855,-13.83281892859902,-0.1102259188686155,1.8340871058658184,3.9490552224156064,3.4162176041972354,8.833082155736891,11.592420100160178,6.07070927259982
22,-0.2898489643779748,-9.138075121946867,-1.5186137683970238,-3.831838341399009,-7.361626034044236,-7.7545076489475795,-13.663691567557942,-0.44950551529861427,1.3948704573443163,3.3523516311806993,2.4452019593864853,7.564496254168442,12.984720503398677,5.495315673311993
23,-1.1157672408800703,-8.794849354957632,-1.4556363737752451,-4.343881604542035,-7.365454837080184,-7.73378994758123,-13.442667576570374,-0.814322810498706,0.9387114464496514,2.7632805336119093,1.5033295734607672,6.329149402731571,14.41419349009803,4.91543074645719
24,-1.9101497741212585,-8.400675800480785,-1.3950173254789244,-4.793169626055574,-7.346324521764601,-7.740162085124478,-13.1672476349478,-1.1937560348146836,0.4765644897690998,2.1983777636704627,0.6110812655291367,5.150038329310443,15.85912949330212,4.342590738768468
25,-2.6622045659707396,-7.967975346683421,-1.3385650424629942,-5.175552463669421,-7.31006051105844,-7.777205759786134,-12.835165040011079,-1.576460519226073,0.019221190593871913,1.6725439805011262,-0.2136523655062408,4.046249045839097,17.29494373845385,3.7864843120143474
26,-3.3631597864537537,-7.510385779796252,-1.287758041298764,-5.48972735932548,-7.262864778665381,-7.8468577589235435,-12.444786755621694,-1.9510067270108395,-0.42299166999765714,1.19868311992563,-0.9559405995755529,3.0324671206145823,18.695117100506398,3.2548820893234676
27,-4.006130630440047,-7.042108136801335,-1.2437063622611952,-5.736931948648343,-7.210978464640261,-7.94940857075646,-11.995465612820663,-2.306223328321765,-0.8405016564806645,0.7874244789709725,-1.6040463818774375,2.118694815654416,20.032264934970623,2.7536783015633546
28,-4.585875541254111,-6.577188089136988,-1.2071265520629855,-5.920502343131225,-7.160311131693944,-8.08353770080612,-11.487808176423437,-2.631510100892362,-1.2247367321238785,0.4469524616894091,-2.149512552203173,1.3101899622536246,21.279284723163084,2.2870441096070353
29,-5.098469544678148,-6.128778892018137,-1.1783312693406767,-6.0453303104749505,-7.1160629117466305,-8.246379365990542,-10.923831892392883,-2.917092385387334,-1.56830432990231,0.18295587039742703,-2.5871054157633155,0.6076226072105422,22.4105221200005,1.8576785117057255
30,-5.5409332788622105,-5.708438534017191,-1.1572336596325863,-6.117262923065965,-7.082367516012409,-8.43361236341701,-10.306997826652811,-3.154200631315894,-1.865090497792947,-0.0013045765944952477,-2.914635241053863,0.007428797248451193,23.402889268546286,1.4671304528304547
31,-5.910860434358108,-5.325512697200348,-1.1433656482805015,-6.142491866324274,-7.061982471422997,-8.639568865479546,-9.642119869706383,-3.3351723582352637,-2.1102775700733325,-0.10482371497939601,-3.1326834163922936,-0.4976712396112654,24.23687031537569,1.1161571283561835
32,-6.206083641464147,-4.9866469686867045,-1.135908598886807,-6.126977918949496,-7.056048924617705,-8.857359145858423,-8.935165611096272,-3.453486518394029,-2.300289272802989,-0.12859639793010458,-3.2442699419352556,-0.9180298095761148,24.89735714161344,0.8050807440543037
33,-6.424410957615245,-4.69545802615591,-1.1337345080785937,-6.075949516146294,-7.063937861967198,-9.079012644514384,-8.192975940895609,-3.503749282468024,-2.4326798966895535,-0.07530539025405328,-3.2544921356548464,-1.2663439824321625,25.37427270262991,0.534110058465617
34,-6.563453697664907,-4.452377177270523,-1.1354558924474332,-5.993504188612258,-7.0831931520622,-9.295639102254878,-7.422937986727734,-3.481654374081635,-2.5059878909411943,0.051021023508671125,-3.1701570583067635,-1.5568813396136993,25.6629582666692,0.303602625103191
35,-6.620552956874456,-4.254663651520573,-1.1394825209152364,-5.882329749394435,-7.109574749485128,-9.49761526379301,-6.632648228903421,-3.3839400960928243,-2.519574067853927,0.24535908517207888,-2.9994193459053062,-1.8046924086514655,25.76432116065894,0.11425581070238007
36,-6.592799179872459,-4.096571781872117,-1.144083051049318,-5.743549957566549,-7.137198132063525,-9.674802231537917,-5.8295993366511345,-3.2083598949667436,-2.4734618363953387,0.5020297850746106,-2.7514269729483907,-2.024837631891898,25.68475733894174,-0.03277408490898334
37,-6.4771294478653925,-3.9696474614479746,-1.1474495497940966,-5.57668856858046,-7.158759260895045,-9.816796156456663,-5.020916106239921,-2.9536752241583577,-2.3681929051763633,0.8150164060635186,-2.4359729797995833,-2.2316525519121457,25.435874843426898,-0.1358177245809725
38,-6.2704826681861965,-3.8631258459159703,-1.1477629836834982,-5.37973777469072,-7.165829025486563,-9.91321110700759,-4.213154549897526,-2.6196706299543857,-2.204707639423451,1.1782494389245852,-2.063151877319748,-2.438073148631509,25.034049145000772,-0.192693997097225
39,-5.969993616351714,-3.7644035861866674,-1.1432580584285903,-5.149313347139814,-7.149198184573661,-9.953988435559653,-3.4121661663493423,-2.207183628711273,-1.9842553012737594,1.5858500921553933,-1.6430237836464425,-2.6550442766421765,24.499840971699943,-0.20075827283482206
40,-5.57321139925173,-3.659563351675634,-1.13228609693241,-4.880879656068295,-7.099253482085583,-9.929722771957234,-2.623019543596353,-1.7181379733847506,-1.708336260054199,2.0323237765318813,-1.1852954989730695,-2.8910368732593548,23.85730366510081,-0.1569928939586843
41,-5.0783340493377285,-3.533934290429072,-1.1133747985492397,-4.569031842836011,-7.00636737605384,-9.831991848405597,-1.8499661682528756,-1.1555691802221622,-1.3786764301617611,2.5126948169674637,-0.6990341339880946,-3.151701818143324,23.13320189188176,-0.05813947789204877
42,-4.4844562286321015,-3.3726775952016843,-1.0852837032182299,-4.207827007041433,-6.861286894259951,-9.653676301698317,-1.0964376808619374,-0.5236352148390245,-0.9972339459993714,3.0225737543469835,-0.19243383991655919,-3.4396877523021576,22.356158029398753,0.09912374825876519
43,-3.791830100225864,-3.161389792547405,-1.0470540697249484,-3.791158709837484,-6.655510728530015,-9.389256512534608,-0.36506680001239666,0.17238854348406235,-0.5662390368098075,3.5581495975122186,0.3273422152381728,-3.75464554552949,21.555738583888036,0.31795488168100644
44,-3.002140058115318,-2.8867164505114324,-0.9980517292227465,-3.3131681758503877,-6.381646761299161,-9.035075771966373,0.34226883275430897,0.9261248438535546,-0.08826887576976927,4.1161023364513545,0.8542254086571301,-4.093433167481159,20.76149257567272,0.6010687330685703
45,-2.1187896925219785,-2.5369652104456835,-0.9380013220233805,-2.7686814857328628,-6.033743800251194,-8.589561349432671,1.0243746211074574,1.7301121657565839,0.43364217662487675,4.693437055227429,1.3831992849666572,-4.450521589450715,20.001958121585723,0.9504075490243288
46,-1.1471932094633752,-2.102700376945678,-0.8670102089587216,-2.1536559426554156,-5.607591127990395,-8.053396380446713,1.6806310822545272,2.575817624650053,0.9958614463897667,5.287250246837582,1.9101517819106957,-4.8185855936626,19.303662159924723,1.3667739412042712
47,-0.095054131529389,-1.5772945192697363,-0.7855803564046823,-1.4656125365096966,-5.100978090264899,-7.4296359011640485,2.3108444336753315,3.453644739528282,1.5939981269462493,5.894449780420986,2.4316370438222608,-5.189244829160921,18.690149407833925,1.8494486159686994
48,1.0273954667557015,-0.957408415954247,-0.694606731191701,-0.704026857299948,-4.513904227908302,-6.723760593614457,2.915055775603641,4.3529438162868015,2.222744356370066,6.51145935897611,2.9445753319190366,-5.553903488623238,18.181086863603365,2.3958251445490806
49,2.207228219635079,-0.2433696214203899,-0.5953612525483729,0.1293510391103269,-3.848729335834985,-5.94366257393126,3.493315981758597,5.262039783360668,2.87574104114972,7.133943498087299,3.4459288389989333,-5.90462519013341,17.79149598894945,3.0010996013105617
50,3.428761551642976,0.5605791998681354,-0.4894620854365625,1.0302759852204522,-3.1102531100651434,-5.099559037683204,4.045440179823914,6.168296801278902,3.545492688091391,7.7565890603456,3.9323946144101294,-6.2349750687768735,17.5311640057741,3.658052961715459
51,4.673634902151558,1.4461880380969314,-0.37882888654137675,1.9919096265030667,-2.3057161931664,-4.203831600163551,4.570761375725698,7.058240168463157,4.223352788550235,8.372974655115586,4.400153125874239,-6.540763869321163,17.40427798670186,4.356958867743398
52,5.9210449947732755,2.401282357795144,-0.2656253282629107,3.004859949319645,-1.4447184071644277,-3.2707916406212485,5.067906379524033,7.917752871696079,4.899595819736244,8.975550340079161,4.844702759299242,-6.820638277520896,17.409311107488897,5.085639354649936
53,7.148145755251532,3.4100283518190713,-0.15219071793323274,4.057362307076143,-0.5390550030360117,-2.3163749585843285,5.534617369232431,8.732355736238738,5.563583472456925,9.555737433523797,5.2607981966252355,-7.076476652839351,17.539171347507846,5.829677372404394
54,8.330602637697027,4.453373535065064,-0.04096291829732902,5.135593289136105,0.3975235388744753,-1.357772386991208,5.967638520005001,9.48756751462832,6.204021766211672,10.104143330903211,5.642496697987357,-7.313567592855573,17.781602484005724,6.572779582363991
55,9.443275287514632,5.50964138899963,0.06560480417166013,6.224096811427914,1.349619483686625,-0.4130059345797305,6.362680031543849,10.169327582243508,6.809294402661688,10.610872318773676,5.983303723764275,-7.5405674527004045,18.119809224493725,7.297268807501077
56,10.460990460764835,6.555247653300444,0.1651300384753205,7.306292381026691,2.3005534673718233,0.49953802480909587,6.7144636256007715,10.764452988034575,7.3678490430565615,11.0659039849574,6.276399821674364,-7.7692494093683795,18.53326506138475,7.984674741095045
57,11.359360012665897,7.565499153331593,0.25538755157176174,8.36502964319746,3.2327769131201958,1.361605528761049,7.016846207642844,11.261095898315299,7.868609061361529,11.459507139621579,6.514924562974963,-8.014069211642244,18.998653271694042,8.616384897415028
58,12.115596753425457,8.51543374758306,0.3343927407905385,9.383151262844024,4.128319496405721,2.1555868479266804,7.263013233042071,11.64916743168877,8.301383527326228,11.782658079692789,6.692290472311646,-8.291580543754527,19.490888021424325,9.174315552626696
59,12.709284176345522,9.380661750699984,0.40047940048690633,10.344028208864394,4.969259128911987,2.8650262263567527,7.445730772465455,11.92069875533558,8.657251448441954,12.027436203660885,6.80250088603385,-8.619735712344184,19.984163822354095,9.64156478791221
60,13.123063962873033,10.138174576145465,0.4523690937110842,11.232037928296238,5.738201912242437,3.4751112483821642,7.55764488105754,12.070118864854711,8.928901483471513,12.187376526859412,6.840450708982753,-9.017105734192798,20.452987666325807,10.00301651644952
61,13.343215849878366,10.76709401056985,0.4892296090469146,12.032965784969825,6.418760099000178,3.97312425256481,7.5916177676027505,12.0944390209376,9.110914282917074,12.257765991741195,6.802196435527127,-9.502049543514104,20.873157365116185,10.245873993411703
62,13.36011529974343,11.24934339314081,0.5107202479544909,12.7343208958475,6.996016561945252,4.348840426686809,7.541091478959436,11.993344159090874,9.199979900541077,12.235876381974743,6.68518844565138,-10.091857308682934,21.22265849366211,10.360110775785786
63,13.16856342393229,11.570228149666784,0.5170219236572007,13.325566264944221,7.456964344668328,4.594860071089897,7.400470341814624,11.76919944053713,9.195046320118516,12.121129907853641,6.488462261762547,-10.801889817994853,21.482458007771488,10.338833511854018
64,12.767989668682215,11.718916551407512,0.5088502234253405,13.798268259790444,7.7909096230819355,4.706865378465162,7.165512220570714,11.426984120906907,9.097397128351215,11.915194660855747,6.212786074743525,-11.644735535965378,21.637174750742506,10.17855324065872
65,12.16253043124917,11.688812501558074,0.4874498080514938,14.146172022568635,7.989825882545415,4.683794642744646,6.8337152810599235,10.974165407796173,8.910657630557923,11.622007468000087,5.860760691290084,-12.629408791216228,21.675607359732698,9.87936116992018
66,11.360986639366283,11.47781231625646,0.4545689866592428,14.365208766037298,8.048646825861741,4.527929051029674,6.404682073251216,10.420523422640787,8.640730047756355,11.247722337561365,5.436866654764954,-13.760615039882348,21.591100824893644,9.445003417091897
67,10.376662377031142,11.0884385999296,0.4124141122490334,14.453440031837815,7.965486346615054,4.244889230424831,5.880438063124968,9.777936088289934,8.295660109120139,10.800584282405158,4.947452943400176,-15.038110500676966,21.38173607149661,8.882849000572122
68,9.227086998010805,10.527846693245262,0.3635844747443525,14.410944178054722,7.741775805726441,3.843540515635292,5.265679100080888,9.060130482419675,7.885439268668956,10.290730835806961,4.400662961974157,-16.456182737718862,21.05033306654712,8.203747389314355
69,7.933625446763306,9.807702041418457,0.3109893808573475,14.239651723928922,7.382310859494229,3.3358074153411943,4.567922912135222,8.28240549345057,7.421748724643137,9.729926522300591,3.806296243395227,-18.003275874444416,20.604266048946727,7.421775871205524
70,6.5209850817707995,8.943929641975297,0.2577499996537921,13.94313821438313,6.895201876012556,2.7363991300721136,3.7975439180758164,7.46132975972839,6.917653134222576,9.131238304891399,3.17560773530112,-19.6617793140001,20.055097858315477,6.553882069555022
71,5.0166316250329475,7.956339509037066,0.20708939725997405,13.526385527110264,6.291724327245877,2.062449583726965,2.9676779279601635,6.61441847316551,6.387253098586042,8.508662272759064,2.5210502841807636,-21.407992825404296,19.41804804775608,5.619432347653514
72,3.4501315298411046,6.8681352426133735,0.16221500439704775,12.995524717729403,5.586068904051214,1.3330775568098023,2.093992353576151,5.75979196849989,5.8453059076259795,7.87671343862302,1.8559694141274325,-23.212274981604757,18.71131633765164,4.639681810511509
73,1.8524422445769133,5.705316861656183,0.12619842670258027,12.357575317149603,4.794994940543711,0.5688750860331704,1.1943265079266683,4.915817782711415,5.306823599849299,7.249991303002144,1.1942619970187585,-25.039377403694367,17.95528879942218,3.6371853992168512
74,0.2551747769816639,4.495994176535101,0.10185789338348546,11.62019726218483,3.9373946190740234,-0.20866490411118507,0.2882138499126365,4.1007364283976715,4.786656361203867,6.642733698379005,0.5500115594569489,-26.8489640922431,17.171658662926248,2.635171939904311
75,-1.3101456700660636,3.269632254275609,0.09164867025463973,10.79147210699401,3.033779398511603,-0.9777678006991743,-0.6036967798943697,3.3322702213258846,4.299068286021211,6.06837066324558,-0.06288691841079068,-28.59631238667968,16.38249681765217,1.656904179238668
76,-2.812795867441853,2.0562543008512124,0.09756634792932017,9.87972921936151,2.1057037714323013,-1.7170262457052523,-1.4603001281120571,2.6272146348240817,3.8573121367054526,5.539089287484681,-0.6311005884224085,-30.233189063108547,15.609308694336429,0.7250476289763526
77,-4.223525737008345,0.8856282216133778,0.12106702735648928,8.893429473970784,1.1751441393402473,-2.40605858237891,-2.2607498380560838,2.001012878392538,3.473210061776448,5.065419885262704,-1.1422206147670126,-31.708891718718096,14.872113336092733,-0.13893134637194832
78,-5.515168224984628,-0.21353874528323052,0.1630072181384901,7.841113432513636,0.26385263114314295,-3.026153524589352,-2.9852034382732,1.4673169173439857,3.156748187393848,4.655853538762144,-1.585105609424883,-32.971441932276804,14.188576744410609,-0.9153224009747792
79,-6.663177142991334,-1.214376198886066,0.223604988795915,6.731414443517496,-0.6072919416252679,-3.5608748597189126,-3.615567432543102,1.037542588778863,2.91569481843817,4.316501360794782,-1.9502030426101926,-33.96891230246586,13.57322656516123,-1.5866724940438761
80,-7.646086572679673,-2.0925793949759175,0.3024227518388902,5.573130966645013,-1.4189113568217704,-3.9965978646849454,-4.136209917845712,0.7204328897012605,2.75525482400636,4.050807091562608,-2.2298461384282717,-34.65086392207599,13.03677100885206,-2.138224934395501
81,-8.445889341402665,-2.827074429879629,0.39837116353680707,4.375346794682016,-2.153708021684425,-4.322949211055555,-4.534605923915004,0.5216506282066121,2.6777761184643967,3.8593264873354958,-2.4185223391175,-34.96986442799483,12.585542201453189,-2.5582915342456776
82,-9.04833657741285,-3.4006045389750206,0.5097330822345596,3.147582145899515,-2.7969742594702067,-4.533125404396758,-4.801880211337035,0.44342757671129013,2.6825270685081657,3.7395884463881397,-2.5131063388580928,-34.88305013470943,12.221082339635716,-2.838553921129095
83,-9.44316420132928,-3.800222949675777,0.6342063758462262,1.8999535435481831,-3.337011344601401,-4.624070724403363,-4.933214263743203,0.4843005408572173,2.7655653828964724,3.686053268587521,-2.5130469135524645,-34.353689208371264,11.939889772474265,-2.9742896632340403
84,-9.624253186126436,-4.017678211747653,0.7689644488444656,0.643317779578442,-3.765443227058159,-4.5965030284302575,-4.928089402873467,0.6389641775286998,2.9197189666435563,3.6901826877441772,-2.420493103762877,-33.352696556646606,11.733341371615962,-2.964517346654028
85,-9.589728094823315,-4.049678196134026,0.9107334024945931,-0.6106238310276741,-4.077413509820526,-4.454783914679888,-4.790346850637932,0.898265402082433,3.1346968801778883,3.740634406278698,-2.240342702778965,-31.860045891146548,11.587806526424552,-2.812052819431451
86,-9.34199428599712,-3.898019153380167,1.0558844584435834,-1.8492804057072951,-4.271656832189565,-4.206638222924971,-4.528057222400002,1.2493556720357775,3.397343675419769,3.8235906031210116,-1.9801955099590915,-29.86602143249875,11.484965543178747,-2.523467813845664
87,-8.887710075318543,-3.5695668638738556,1.2005395006677582,-3.0591983878845443,-4.350437973931537,-3.8627362039259676,-4.15320419574579,1.6760070528709348,3.692042721664584,3.923224387672505,-1.650196450004335,-27.372251763141378,11.40233994659516,-2.1089431726717605
88,-8.237687635254535,-3.0760792230563587,1.3406864590207355,-4.226165704955111,-4.319355014916048,-3.4361595010888637,-3.68119835130482,2.1590868413433713,4.001263458806071,4.022299235066272,-1.2627603283807574,-24.392471657384952,11.314033083939051,-1.5820125980649529
89,-7.406716755398399,-2.433865376652434,1.4723001692730406,-5.335393049592864,-4.187008436974898,-2.941779064198873,-3.1302468235964533,2.6771740639397543,4.30623446026087,4.102883934652651,-0.8321806713890941,-20.952964188188705,11.191666065200357,-0.9591993067924859
90,-6.4133088541491805,-1.663286520065544,1.5914636789517256,-6.37176982099165,-3.9645467937876053,-2.3955786120110596,-2.5206116809038375,3.2072906099619636,4.587710871188278,4.147151399902144,-0.374137922818903,-17.0926443701589,11.005477967193535,-0.25955614263232873
91,-5.279363415589603,-0.7881157029183271,1.6944848919613356,-7.320191437752719,-3.665109755273187,-1.8139602496705993,-1.8737940405559281,3.725712228064895,4.826794017292641,4.138217003592524,0.0948659059200449,-12.862756210624612,10.725543858793596,0.4958725413397112
92,-4.029763212858139,0.165215380496093,1.7780039862728736,-8.16595276038134,-3.303198144541515,-1.2130686847666259,-1.2116820233075212,4.208821340608591,5.005754814438991,4.060963783242779,0.5581108981722845,-8.32616688850025,10.323052889896662,1.2846435333085675
93,-2.6919064367992718,1.1684480022353838,1.8390881522715055,-8.895198319360553,-2.8940068920150788,-0.6081674254533407,-0.5556996372055605,4.633964003316247,5.108811882061497,3.9027995437638583,0.9992628521510094,-3.5562547163552902,9.771582986990076,2.083536250974942
94,-1.29518266250881,2.1923689840768352,1.875311632974145,-9.495414452848673,-2.452760921583778,-0.013095258219511805,0.07400885362794424,4.980275908305935,5.1228198482958405,3.654295033520002,1.4029406321776237,1.3645987188249722,9.048308749987893,2.869178750319346
95,0.12960305161727825,3.2076869878849137,1.8848203151893494,-9.95594178565419,-1.9940949800432834,0.5601747252460209,0.6593277456564739,5.229445755846719,5.03783203995728,3.309662323775928,1.7552176911994464,6.346887394595064,8.135084370882623,3.618657768963893
96,1.5508553297476657,4.185878261966052,1.866380834834901,-10.268479772600488,-1.5315144249457888,1.1018572803368472,1.1848230414050513,5.366387424419426,4.847512301102032,2.8670462635475342,2.044037659166969,11.29619048649612,7.019352548165478,4.310097168703423
97,2.9368597523259425,5.099973075865974,1.8194143015838622,-10.427550530734411,-1.0769650034497256,1.6045476466132174,1.6382721973605916,5.379794445243693,4.549380676717302,2.328616537372052,2.2595338242765632,16.11565665066648,5.6948418134664,4.923193759817832
98,4.256494396571237,5.925260804142972,1.744014477978225,-10.430888585225581,-0.6405282810640557,2.0632794866689737,2.0110438959107193,5.262551796460646,4.144885895856487,1.7004611127433285,2.3942508134357263,20.70869120667505,4.162027065490507,5.439703050120877
99,5.479971405290603,6.639898379871807,1.6409497758444644,-10.279726237656622,-0.23024832364983297,2.4754489621049762,2.2983047177525844,5.011982643020699,3.639304504182098,0.9922930684236767,2.443272857847201,24.98176020804957,2.4283405167676566,5.843869429803974
100,6.579592665921717,7.225412964491041,1.5116482588717604,-9.978949960135651,0.14791434927494926,2.8406125391765404,2.4990369584561067,4.62991341406207,3.0414738009974815,0.21699260955806768,2.4042667430172475,28.8472133847503,0.5081319915224798,6.122795702659452
101,7.530497730903643,7.667094724822374,1.3581655318753714,-9.537110683868486,0.49001342459954894,3.160173447754983,2.6158632896530483,4.122550684937148,2.363374617079235,-0.6099848951697509,2.277449503571917,32.22601959500385,-1.5776118965453685,6.26674660811913
102,8.31137721040961,7.9542790709405535,1.1831367846591023,-8.966279441579648,0.7939500494791635,3.4369791572112622,2.654688215883728,3.5001768269371203,1.6195896942117265,-1.4712963239817487,2.065491791346779,35.050305314535215,-3.8017709089461738,6.269381164328252
103,8.905121685654205,8.080519230684262,0.9897154059872372,-8.281749170196838,1.05923080527079,3.674858985643707,2.624180990154107,2.7766853718232607,0.8266716041232028,-2.348450368794543,1.7733679014875912,37.26558964626758,-6.131790393142517,6.127909500726765
104,9.29937482858159,8.043650044479808,0.7815007971213347,-7.5015933756867,1.28667463588755,3.878136006063843,2.5351372824566507,1.968988156969089,0.002458489377226803,-3.222555694245006,1.408162684377279,38.83261827704887,-8.5305450715578,5.84317077748329
105,9.486960564682468,7.8457439660963315,0.5624574202716989,-6.646101805699818,1.478093154067352,4.051149837929321,2.399765500234432,1.0963328260324938,-0.8346240830046319,-4.075038396307838,0.9788443731190967,39.7287134281154,-10.957333118478672,5.4196298155778475
106,9.466159020421946,7.492962155945094,0.33682625312784664,-5.7371203443757075,1.635967459026555,4.197826112483755,2.2309473421448436,0.17957152935375784,-1.6662397663592923,-4.888296162222712,0.4960115912574043,39.948576676747045,-13.368964966966656,4.8652919627597955
107,9.24081463930763,6.995307258986387,0.10902917394127881,-4.797325777118741,1.7631423116787415,4.32132414314786,2.041521067700887,-0.7595791806720875,-2.4747650985490823,-5.646262779421196,-0.02837716493899566,39.50450521757098,-15.720911134368633,4.191538620703417
108,8.820270027125883,6.366288309681661,-0.11643325856785446,-3.8494664958505305,1.8625554320476294,4.423786891042906,1.8436308001989767,-1.6992508296259192,-3.2438328520285404,-6.334861466612329,-0.5812832278583604,38.42600747433194,-17.968474626154553,3.4128885676654646
109,8.219127845224982,5.622510654648666,-0.33508948886730505,-2.915599548922402,1.9370157898194662,4.506207525354628,1.6481766400746365,-2.618078082833165,-3.9587728471398194,-6.942330607200451,-1.148869402179764,36.75882898627694,-20.067956252414277,2.5466912428017507
110,7.456848565798531,4.783204146119423,-0.5426078561876672,-2.016354606126599,1.9890400289688563,4.568415869924019,1.4643890399962025,-3.495776393703376,-4.606935469038624,-7.45941318350163,-1.7167794476858513,34.56342274721086,-21.977785238077175,1.61275665881077
111,6.557193947634515,3.8697008604686687,-0.7349075409365666,-1.1702571758272236,2.020750778200382,4.609177036467874,1.2995379621104584,-4.313634142699223,-5.177893609210466,-7.879412215080121,-2.2704169636511042,31.91291820420593,-23.659593068823984,0.632922634612835
112,5.5475260161345,2.9048698420334578,-0.9082661782037507,-0.39314549218185735,2.033835118739628,4.626385043678462,1.1587750561049963,-5.0549227452000025,-5.663531092779239,-8.198127397223463,-2.795232629329937,28.89065898056711,-25.079215482250046,-0.36944496401193383
113,4.457971593662196,1.9125129190824313,-1.0594210489759295,0.30228500022816795,2.029556755615122,4.6173277538979285,1.0450980063180464,-5.705236266995678,-6.058037042651069,-8.413700243081097,-3.277035048590637,25.587392012055524,-26.207614033675966,-1.3700265599197519
114,3.320465457038495,0.9167246335834519,-1.185661182066731,0.9067810396079697,2.0088121046958363,4.578996867250221,0.9594217516145819,-6.252774048155791,-6.357833090221698,-8.526403300458703,-3.702342149473353,22.09820258277637,-27.02171196865301,-2.3442042818158892
115,2.167692153373533,-0.058778433857687815,-1.284907985849614,1.414656731797115,1.9722186782188451,4.508417617782366,0.9007411926574371,-6.688575255099051,-6.561462165224289,-8.53841097932549,-4.058785149087479,18.5193024626602,-27.505137359024292,-3.267798287442512
116,1.031957111165311,-0.9913481626066909,-1.3557820316205549,1.8237402878986302,1.9202236705748856,4.402975999229856,0.8663724190853367,-7.006705402485218,-6.6694636962072025,-8.453584305221147,-4.335565503678182,14.94479170724371,-27.648859116936947,-4.117871541759359
117,-0.0559694255077403,-1.8600959747763885,-1.3976531864900414,2.1351532364529873,1.8532213866009795,4.260725407201089,0.852261771729377,-7.204385469718547,-6.6842515929467945,-8.277290577907491,-4.523948828154611,11.463526441635699,-27.451689585935743,-4.873574077156302
118,-1.0679796207512255,-2.646555597618466,-1.4106705769732137,2.3529472713004007,1.771669790772032,4.080658193463355,0.8533520031186427,-7.282047529104217,-6.610000561348679,-8.01626413021694,-4.617762128753598,8.156231398386536,-26.920614147158894,-5.516980446226186
119,-1.9796620933688616,-3.335281117694003,-1.395768420389059,2.483634752871509,1.6761983092411885,3.8629298141816686,0.8639916548743362,-7.2432985169158135,-6.452536016899253,-7.678499670098441,-4.61384661937944,5.092992985483699,-26.07089881729262,-6.033860949074915
120,-2.7711774887346716,-3.914341573838584,-1.3546441633765665,2.535654438661204,1.5677005443171703,3.6090239659715366,0.8783682817729845,-7.094776460172468,-6.219215562466947,-7.2731584175662185,-4.5124118369225386,2.331253609945824,-24.925925973715287,-6.414322384424799
121,-3.427917612408022,-4.375676736541038,-1.2897067574519097,2.518813936406157,1.4474066858644452,3.3218472764138984,0.89093997630897,-6.845890897304535,-5.918786588035115,-6.810461651846938,-4.317239320817301,-0.08559880868135464,-23.516718304947624,-6.653259000772612
122,-3.94090461402293,-4.715286686963816,-1.2039950424741808,2.443745747185325,1.3169311845334617,3.0057429945893297,0.8968347270527323,-6.50845019558511,-5.5612048474106075,-6.301547072308966,-4.035695173733542,-2.1289878192217913,-21.88113081781195,-6.750568119519386
123,-4.306906182373598,-4.933238948853111,-1.1010686633544033,2.3214060929043545,1.1782917027451176,2.6664157508830253,0.892185319946096,-6.096190731940093,-5.157402745388532,-5.758269899494415,-3.678528464613481,-3.785233926510664,-20.062716903535716,-6.711105296996716
124,-4.5282648484876304,-5.0334904919841765,-0.9848761471756143,2.16263629408955,1.0338956749862576,2.3107643803336773,0.8743701036192955,-5.624233756793363,-4.719003254721385,-5.19294115357053,-3.2594538592563125,-5.0549914443868245,-18.109302755677867,-6.544377646003366
125,-4.612461486580777,-5.023536994398457,-0.8596062276107724,1.9777965964908673,0.8864913806509348,1.9466265875728983,0.8421372717348101,-5.108502826254894,-4.257984326616864,-4.618007512260169,-2.7945386506273846,-5.952097035530435,-16.071330553688373,-6.263997122706578
126,-4.57145158250136,-4.913915856176701,-0.7295291108673251,1.7764738742801336,0.7390818679105623,1.582446569629526,0.795601559284034,-4.56513649148127,-3.786306805651382,-4.045687758540976,-2.301433092710018,-6.50192060989201,-14.000051001069705,-5.886934334552406
127,-4.420824785640269,-4.717598883735441,-0.5988344927491958,1.567259727157613,0.5948033176136522,1.2268836714971072,0.7361162393344115,-4.009927158684337,-3.3155243776964194,-3.4875877492745038,-1.798495789258924,-6.739329420006115,-11.945657202618968,-5.43262502129923
