,AF3,F7,F3,FC5,T7,P7,O1,O2,P8,T8,FC6,F4,F8,AF4
0,5.442511812648545,3.5124796821501425,-0.4877608305728065,-4.402109111805854,-1.2124246545337407,-2.6661731857125472,-2.9250184343980363,-0.36655581723003183,-3.1195201770033725,0.2586726619493544,-3.0714655321752,-0.8695333166329198,-2.459574982766221,0.8433726228142687
1,5.920043031806126,4.359599178371128,-0.8214092728726997,-3.5047118611053283,-0.6847748101673896,-1.6304957081410447,-2.6880347458784235,1.0530306142805426,-1.4577113043402423,2.2464337764829323,-1.5434108540494247,-0.27837556352998105,-0.551908103807393,2.1453043442721893
2,6.468164908069986,5.235242065774538,-1.0725698669756,-2.581625124506561,-0.13656762455618507,-0.5715192886060347,-2.4077285598441858,2.4761268281628284,0.20485402868644487,4.238184981965359,-0.010401675167176813,0.3573866134054464,1.3628300426858069,3.4913819122460517
3,7.0887845842390345,6.129260429312132,-1.2232584414322858,-1.6376698649185115,0.4236334486897431,0.5002103209769027,-2.0836014090755444,3.8857329688058564,1.8423581378371376,6.201518924548177,1.5049828567358545,1.0353055029811153,3.262493181128961,4.879815228991027
4,7.781424307530984,7.030693131232231,-1.2585019971532243,-0.6785253391629212,0.9865865268819407,1.5737604599093913,-1.7164861403668097,5.265163620019673,3.429872882627951,8.105278292337486,2.9810430750928547,1.7518146763912574,5.125749981039466,6.3074618912462235
5,8.542958819374654,7.927953644773637,-1.1669527166776124,0.28931246713171815,1.5426585292519621,2.6381349841050645,-1.3085391543498606,6.598457943474992,4.944201338564118,9.92052542890967,4.397599671379252,2.5021812097422194,6.932551471893219,7.769649174025525
6,9.367420851560187,8.809031485984315,-0.9413887520405777,1.2586013732847423,2.082114052012613,3.682572126889565,-0.8632061572305756,7.870766240209691,6.364622240861912,11.621408828864627,5.736567766570102,3.2804722857398207,8.664551957953922,9.260063638213396
7,10.245886298447376,9.661699370831096,-0.5790808379595294,2.2214486704719247,2.5953911348011287,4.696800962074642,-0.3851648475374084,9.068699710629378,7.673501988167204,13.185885668568478,6.9824384239672055,4.079536109883631,10.305465590455265,10.77071815716883
8,11.166447515239764,10.473716086296616,-0.08201100361936046,3.1694265223337466,3.073349735515135,5.671242687100019,0.1197507103304237,10.180630240187227,8.856745024270854,14.59626212537855,8.12264266401818,4.890995433810196,11.841339152364313,12.291997235919963
9,12.114282476281895,11.233016865617843,0.5430654255782089,4.093702671771189,3.5074827069892884,6.597148722492361,0.644641134108986,11.19692963087374,9.904064433230044,15.839522922224242,9.147779070601377,5.705254348166373,13.260725102055067,13.812775229069493
10,13.071828050270698,11.927887814608498,1.2847204266192136,4.985184746378312,3.8900854115026924,7.46667668444132,1.1816495799916091,12.110142301836715,10.80906921188147,16.907437593929497,10.051696790236978,6.5115243700566765,14.554747544215317,15.320599684673782
11,14.019064558559421,12.547125714481732,2.1271189992423554,5.834679354904589,4.21438661121017,8.272914482963555,1.7220915754479198,12.915090080746952,11.56917885890731,17.796449387246316,10.831437728681378,7.2978807124782,15.717064506984448,16.801931662673404
12,14.933914780642853,13.080187684134335,3.0504471872383143,6.633069083967826,4.474648520983138,9.009869293053859,2.2566132662364455,13.60891092265653,12.185386834674926,18.50736951624239,11.487052144201323,8.05136134710328,16.743739268396816,18.242434201590644
13,15.792754646389609,13.517336928031309,4.031492820171515,7.3715110084399065,4.666247553621477,9.672441327355038,2.7753835884072537,14.191035325269985,12.661902214426084,19.044912634557246,12.021309745199638,8.758119988351776,17.633039753816355,19.627298599845744
14,16.571026035962312,13.849790808121206,5.044362127830205,8.041659093291063,4.785748621292244,10.2564025292042,3.2683237298561774,14.663105194117316,13.005703757067847,19.417117498966835,12.439333297782115,9.403640452676465,18.385187735513064,20.94159626947275
15,17.243934705963614,14.069874747782661,6.061308119550474,8.63590970292531,4.830983847557433,10.758397433242946,3.7253741393233195,15.028839842310392,13.22604136936542,19.634698796517284,12.748182730960385,9.97301473816242,19.00207883448391,22.170642013840325
16,17.787209470394743,14.17118076592129,7.053640469190787,9.147664930548512,4.801141358865411,11.175977667188576,4.1367955334492725,15.293853049775517,13.333915996103176,19.7103725763658,12.956415028856432,10.451281553452919,19.486991220816403,23.300353482719395
17,18.17789422954799,14.148725362351806,7.992683049119806,9.571603714831149,4.696862986791612,11.507673845191192,4.493496627892085,15.465424810872818,13.341562423784131,19.6581910426926,13.073640639641022,10.82381710520352,19.844297071340524,24.31759234928682
18,18.395142971949515,13.999099622776008,8.850744560058738,9.903946607736282,4.520342874073204,11.753100143320198,4.787378201715316,15.552232452937835,13.261953510629747,19.492914982508267,13.110092580269315,11.07676643143796,20.079187313824878,25.210475654529265
19,18.420988815886137,13.720604282248672,9.60206919464191,10.142697338526967,4.275413517521207,11.913079025967455,5.011680672044469,15.564048250162827,13.10834055264169,19.22944521830463,13.076221053564144,11.197501781525936,20.19741739285087,25.96865007017063
20,18.24106081352941,13.313363197284517,10.223737361390524,10.287843787385693,3.96760298051629,11.98976819122905,5.16132096272754,15.511414103552708,12.893842546136076,18.88232922636754,12.982325191526103,11.175095070928222,20.205080475697958,26.583526920157613
21,17.845225905118703,12.779409943173714,10.696490764401837,10.341502879478004,3.604147420386329,11.98677008751015,5.233204479914409,15.405307500384179,12.631095963882725,18.465356084499543,12.838234763206975,11.000794193637963,20.108415349177434,27.048481102607496
22,17.228136602577262,12.122743756765843,11.005460612878752,10.307997502479854,3.193946003769345,11.909205921595937,5.226498834914044,15.256815300574535,12.331975271087368,17.991251327757347,12.653056763758068,10.668495913762385,19.91365836346891,27.359021117135285
23,16.389666410636657,11.349352300184162,11.140781182600188,10.193857829649257,2.7474495937491126,11.763739455189658,5.142856261671697,15.07683154322865,12.00739185546584,17.47148079425765,12.43500203191458,10.175208285280428,19.626949906149978,27.51293833890042
24,15.335215258429304,10.467199715486833,11.09807289960232,10.007743953591888,2.276479766553049,11.558540023895569,4.986571023227656,14.875792380381302,11.667174947244918,16.916167573418168,12.19130390327281,9.521492051123085,19.25430455934561,27.51044111105855
25,14.075868159380002,9.486179526947877,10.878780050505346,9.760291427278538,1.7939805894642333,11.303178812120914,4.7646573702520065,14.663456522557928,11.320032825630356,16.334119315694295,11.928234915403934,8.711864749340764,18.80165056795292,27.354274783078647
26,12.628392480558055,8.418032818774753,10.490348479317781,9.463885539154244,1.3137113022833877,11.008457056424925,4.48683363762785,14.448734203247874,10.973586538205181,15.732955560697109,11.651219677705324,7.755144940341445,18.274938959040476,27.04982386845491
27,11.01506130120486,7.276231642963192,9.946227798218432,9.132372620159648,0.8498919900649626,10.686168583277306,4.1653986893840615,14.23956204910168,10.634461415117842,15.119316274743968,11.365032287752967,6.664707197680719,17.680315144207878,26.60518651040328
28,9.2632919223466,6.075825549005132,9.265681104925836,8.780716879751838,0.41681578219683874,10.348801423307563,3.814988081559018,14.04281600508232,10.308414554712288,14.499123641731465,11.074055734965926,5.458611707554158,17.02433644737755,26.031204160792285
29,7.405091729137206,4.833247331589105,8.473385607443841,8.424610573225017,0.028441387227292468,10.0091851299775,3.452200288034767,13.864250915700865,10.000471784591369,13.877861980062699,10.782571352971813,4.159568302597817,16.314210294193614,25.341423328849526
30,5.476310628293062,3.5660745916704157,7.598812851482315,8.080045562371392,-0.30201929680351647,9.68009330451646,3.0950898332315115,13.70845453584994,9.715047868875532,13.260838777708107,10.49504183019596,2.7946969835038553,15.558022642594835,24.551964883024485
31,3.515709816777661,2.292746082307756,6.675387434312368,7.762855783493998,-0.5625023076123493,9.373814756494355,2.762534329413019,13.578805352384816,9.45602863721879,12.653393673178641,10.216352250105285,1.3950562887435534,14.76492523743835,23.681280175106437
32,1.5638684217669367,1.0322342927441375,5.739435775945977,7.48824195620346,-0.7424648691535191,9.101710603482003,2.4734946096493156,13.477426760051607,9.226800986181164,12.061029573136347,9.951978372637152,-0.005074566029662866,13.945252483330938,22.749779985670926
33,-0.3380387628777703,-0.1963218230792932,4.828950086396136,7.270292029833844,-0.8332150947804655,8.873777977923973,2.2461995661157896,13.405134733686728,9.030225048793904,11.48944939425555,9.708058596758592,-1.3691558960532453,13.110543866460995,21.779330723505762
34,-2.149547853181207,-1.374016440554778,3.9822068208730443,7.121513842173233,-0.8281837469493721,8.698244120199167,2.0972985037225347,13.361382303897248,8.868552263017422,10.944493017110831,9.491355807245451,-2.6595659854040377,12.273456197681446,20.79262317822984
35,-3.832242161756607,-2.4825965648410078,3.2362927251621705,7.052399633075047,-0.7231250686924362,8.581216865890132,2.0410319923641986,13.344210678615202,8.743302944117469,10.431981298908605,9.309107210290081,-3.8389529937589497,11.447560653636675,19.812432442194652
36,-5.3510569475309975,-3.5048855301751938,2.6256031464929452,7.071043885765963,-0.5162362059197377,8.526417361332943,2.0884754134344465,13.350221500938934,8.655125331538613,9.957485379606107,9.16877258843221,-4.871697347655312,10.647030731955688,18.860801178969027
37,-6.675489478268168,-4.425191764367012,2.1803849851325166,7.182835449907243,-0.20818882743853026,8.535017386368212,2.2469069273727156,13.374586055891019,8.603662905573852,9.526047914123673,9.07770213019431,-5.725408195763756,9.886237267784272,17.958189361752375
38,-7.780654367916461,-5.229684419140451,1.9253992964752662,7.3902419502470345,0.19792826029605293,8.60559714388909,2.5193441250920108,13.411105364874155,8.587456919762804,9.141887161083748,9.042752618231056,-6.372370194983634,9.17927475042244,17.122640176369526
39,-8.648132111882543,-5.906720340187405,1.8787751585554655,7.692699546425344,0.696751117864246,8.734230552076044,2.9042821801851098,13.452330909493549,8.603906632711698,8.808114962359221,9.069884602191589,-6.790856370263067,8.539448599421899,16.369013553867298
40,-9.266570712470473,-6.4471120882635224,2.0511171472425187,8.086614986657452,1.2808576312943651,8.914695207171254,3.3956519467869017,13.489750131180843,8.649301937426863,8.526496407000865,9.163773709083697,-6.966228787210722,7.978755474782842,15.708336356936744
41,-9.63201428511504,-6.8443324377867985,2.444915444509547,8.565480571258677,1.9410456289448077,9.138794931958824,3.983000954025745,13.514034781731596,8.718933884237346,8.297273930461284,9.327467665966937,-6.891759921713646,7.507388719189591,15.147312683743895
42,-9.747946470839809,-7.094654797287713,3.0542924573627763,9.120096773013229,2.666655969900659,9.396775374840832,4.651886022266748,13.51534448577885,8.807279523967116,8.119072898444207,9.56211749911811,-6.569122470291548,7.133299447126557,14.688029655185725
43,-9.625049560710268,-7.197230608982019,3.8651037529701355,9.738892008880004,3.4459237214146197,9.677807728887794,5.384454902450157,13.483673137009522,8.908249548429806,7.988899311971254,9.866806236026413,-6.00851318510538,6.861840547978349,14.327883088327253
44,-9.280692642197923,-7.154104564418283,4.8553940051936495,10.408324606821473,4.266341148491549,9.970512301886641,6.1601860886703035,13.409222482599075,9.015481288676705,7.902232907186496,10.238491040373397,-5.228396222496116,6.695515697345441,14.059733701206476
45,-8.73817357472351,-6.970167045540784,5.996191042902772,11.113348935463264,5.115017835543281,10.263492665081689,6.956750186195211,13.282785754985719,9.122656558476823,7.853211556560751,10.672066122425315,-4.254871615970709,6.633849083388764,13.872289692077558
46,-8.02574945492778,-6.6530413579707615,7.252604455512703,11.837926179549084,5.979025556997956,10.545852355908044,7.750952372377792,13.096124202132133,9.223823554983971,7.834896803793031,11.160545371463796,-3.1206932910500806,6.673384935687113,13.750697818901536
47,-7.175498179230004,-6.212902677024741,8.58518061229166,12.565559568892033,6.845718012121173,10.807668715685825,8.519713166807062,12.842320116601847,9.313703423119357,7.8396054673224045,11.695355700880524,-1.863978517847126,6.8078189037420795,13.677312839093736
48,-6.222059888946809,-5.662227506451925,9.951453895634984,13.279833299969395,7.7030178148336805,11.04040171958528,9.241043832304722,12.516091137995303,9.387964002993442,7.859287678624592,12.266724174899565,-0.5266669467191707,7.028255315609887,13.632603819758852
49,-5.201311187401038,-5.0154763938039135,11.30762529474871,13.964934447356898,8.539665174599081,11.237219932571213,9.89497355022029,12.114052471250886,9.443445592112463,7.885927914116163,12.864134496084443,0.8471990718380744,7.323576192627218,13.5961463624287
50,-4.149026714801096,-4.288717234903147,12.610294827377048,14.606138521859817,9.345424602290278,11.393231341615607,10.464388178180313,11.634916254595515,9.478326749745396,7.911943827687209,13.476822424728647,2.213291991741585,7.680901090721589,13.547644138648822
51,-3.0995824038757154,-3.4992009438694054,13.818172708782688,15.190241488843371,10.111247501376372,11.505613091500342,10.935744434779636,11.079620062287306,9.492222223085967,7.930558204656812,14.094275782796661,3.5288286573780665,8.086111765612834,13.467921891471827
52,-2.0847529223888657,-2.6649049669220517,14.893694700327007,15.70592324937984,10.829389399994291,11.573639974462736,11.299628155992096,10.451378929878306,9.486209293499261,7.936121298217115,14.706703161934728,4.754325024365742,8.524412161136274,13.339834526232414
53,-1.132651839928014,-1.8040620050506584,15.804470043239343,16.144029987506084,11.49348088216987,11.598616096615698,11.551130669452188,9.755657250159453,9.462782480471985,7.924363598033432,15.305436786175965,5.855191737986692,8.980892700140723,13.149042591986888
54,-0.2668564091151546,-0.9346911541490924,16.524496867758188,16.49776581194179,12.098551190912108,11.583717028820857,11.69002360955292,9.0000584996586,9.425739144599826,7.892562523595968,15.883239203015313,6.803093215061192,9.441068406414077,12.884613003163981
55,0.4942497308396143,-0.07414782435398597,17.03509012127587,16.762787602718078,12.641003349280359,11.533751278832497,11.720720158045989,8.194132379481028,9.380000091021696,7.839610515959734,16.434489803087526,7.577003716815389,9.891362233955714,12.53941460601612
56,1.1378921412631609,0.7612917068305881,17.325480474217393,16.937200765459018,13.118540209681845,11.454851508879301,11.652020274299735,7.349101416585485,9.331370477490513,7.76597686091895,16.955234980195712,8.163908425260026,10.319507929826239,12.110290709783216
57,1.6570662349799248,1.5567961394008312,17.393059057726635,17.02145798236162,13.530042872493535,11.354108784958376,11.49664896972459,6.477513085087525,9.28624822994696,7.673561916542757,17.443095127204423,8.55911586030772,10.71485175156252,11.598004729425302
58,2.0504417871067835,2.2992827100735194,17.243261380342673,17.018168074543333,13.875406336013993,11.239166762404434,11.27060901401417,5.592828767869815,9.25129010964228,7.565450011374696,17.897032468476866,8.7661693617463,11.068539878970737,11.006969507704776
59,2.3220229757674895,2.977649237959199,16.889102483871927,16.931827235207496,14.155341100778863,11.1177954862797,10.992380951474875,4.708966125131418,9.233048796690403,7.445574972128833,18.31699491819192,8.796367886401827,11.37358753593276,10.344783901842623
60,2.4805881117565614,3.5829293198019108,16.350392723127385,16.768489592483544,14.371153006600752,10.99746560578657,10.682012653895987,3.8398154927221335,9.237596985827254,7.318319203179328,18.703461516176542,8.667928172819321,11.624835464188646,9.621611010969364
61,2.538944467569295,4.108369435977727,15.65267891809884,16.53539781617776,14.524516574813173,10.884943561335918,10.360147052182061,2.998753415807081,9.270156332069021,7.188073382031248,19.056923752237996,8.404840211035028,11.818808472322937,8.84944134906533
62,2.5130427973125986,4.54943082831843,14.825968395805056,16.240596375325865,14.617258825800207,10.785926977728263,10.047039335140612,2.1981773920451806,9.334750082398571,7.058788669644147,19.377343428161172,8.035484552112912,11.953497997084222,8.041291216607151
63,2.4210018555458777,4.903722434950832,13.903302221755848,15.892549085207872,14.651169713506853,10.704736987103761,9.76161324548559,1.44908523552881,9.433898097301055,6.933555554160923,19.663630488607453,7.591091427226511,12.028094621309977,7.210390280109396
64,2.2820944936000527,5.170873422557635,12.919247874889825,15.499778974520334,14.627851749091738,10.644080695109217,9.52060095246353,0.7607199512602624,9.568371750448456,6.814242187619264,19.91318289130653,7.104126827790799,12.042697124350802,6.369411858118034
65,2.115744471392475,5.352355235811424,11.908381694690124,15.070544036349004,14.548616448928065,10.604893240195652,9.337804297061824,0.1402968147603511,9.737024409021558,6.701220820098948,20.121525847203824,6.606690380623398,11.998023052374826,5.52979471920263
66,1.9405789557211763,5.45126428476299,10.90382944266173,14.61255892645428,14.414430566729092,10.586265629388656,9.22350840647922,-0.4071757723691012,9.936711020898034,6.593204751035784,20.282081144413386,6.129005714492182,11.895143347684677,4.701197410462911
67,1.773577188967349,5.472077765391009,9.935929918069071,14.132770402367635,14.225911253110178,10.585461783073967,9.18407151998182,-0.8789753053148028,10.162307047002843,6.4872105554570885,20.386089492200924,5.698076779830378,11.73526071579655,3.8911163469951457
68,1.6293506564538505,5.420396189048088,9.031080515984955,13.63719212747479,13.983365971827798,10.598025060226837,9.221706227818661,-1.2746428670974985,10.406831270744009,6.378650723218513,20.422699109833143,5.336572491744978,11.519547329175026,3.104687044174787
69,1.5195827998067488,5.302685866374986,8.21081331463878,13.130801342332056,13.686869744173203,10.617969897660833,9.334456781963109,-1.5958638512725511,10.661668279661324,6.261549910978867,20.379221203751268,5.061986418654417,11.249051030619837,2.3446732431218043
70,1.4526463264201268,5.126032246751907,7.4911359928706895,12.617495927255206,13.33636943912985,10.638048355762425,9.51636584884926,-1.8462621888116844,10.916876447242673,6.128865501581531,20.24153884017118,4.886099343862738,10.92467089671608,1.6116323865946978
71,1.4334049698039677,4.897911670057734,6.882156137335653,12.100106672330657,12.93180370535434,10.650076282199256,9.757814253347375,-2.0311238559668854,11.161560113775089,5.9728842945997185,19.994643998238573,4.814753599009779,10.547195642695367,0.9042318875236319
72,1.4631965768801671,4.625986541942606,6.387992943320651,11.580457285007151,12.473228840679958,10.645301301343055,10.046010510961391,-2.1570682713656515,11.384283415833488,5.785665273662003,19.62327173395848,4.847931706700985,10.117394590498966,0.21968253483212505
73,1.5399867329737955,4.317927830164884,6.006967539260446,11.0594640227409,11.960944616918818,10.614794716209687,10.365602887832077,-2.2316864896525934,11.573506726233163,5.559502466751882,19.11259994947407,4.980118099861297,9.636150523196653,-0.44574702282694945
74,1.6586763354456604,3.981268349918061,5.7320512811467,10.537267176174819,11.39561742151924,10.549850075598966,10.69938373728078,-2.2631642589131786,11.718030746857314,5.287387547539087,18.448984719267262,5.2009102710465305,9.104624155308784,-1.0961706102875293
75,1.8115420027227778,3.6232897805149618,5.551540001852937,10.013387152786501,10.778399267828627,10.442371421245964,11.029052945869164,-2.2599072048881705,11.807434608279662,4.963455434846541,17.620701636314575,5.495834675004443,8.524439344490466,-1.7355150481788646
76,1.9887845090814729,3.250945217516062,5.449911893513043,9.486897995264837,10.111040345063682,10.285233758302528,11.33600457655514,-2.2301850141719077,11.832492465318747,4.583396669562005,16.618662753985536,5.847314211125162,7.897876415326688,-2.366975490460056
77,2.1791566316768733,2.8708165199443,5.4088178681986605,8.956610246688427,9.395990807323257,10.072597272562506,11.602098626144588,-2.1818114534296242,11.785549471792928,4.14481795998932,15.437077042093332,6.235728503762611,7.228058138887383,-2.992529180424621
78,2.3706371724292907,2.4891013788396057,5.40814621997672,8.421253001602796,8.63648524279624,9.800156260786753,11.810378993000525,-2.1218767546171438,11.660834471724481,3.647527945544622,14.074020579824705,6.640505032576476,6.51910898243016,-3.612540378999013
79,2.5511133192966042,2.1116199696766995,5.427099298875354,7.879642526594176,7.83660139522968,9.465305379738268,11.945700807215928,-2.05654711906287,11.454685310472208,3.0937215591289635,12.531882272436215,7.041178726018212,5.776264395287733,-4.225487954659399
80,2.709031004631894,1.7438271560751095,5.445220351270748,7.330823428465789,7.001283906097173,9.0672106850949,11.99523657591568,-1.9909419875045935,11.165665530573257,2.4880370500586375,10.817653645012703,7.418361123481524,5.0059057873447514,-4.827843093201722
81,2.8339743377261697,1.3908150245327093,5.443314778397844,6.774169368990312,6.136324599865267,8.606780472397338,11.948841032691684,-1.9290934555087453,10.79455943929489,1.8374671399899034,8.94303884869895,7.754568653514633,4.215501050282433,-5.414115311766973
82,2.917141353579995,1.0572929744488448,5.40422165331112,6.209434454268288,5.2482934926212526,8.08653988732565,11.799267491216705,-1.8739846639061295,10.344245005553361,1.1511194394216515,6.924373528072863,8.034872957420461,3.4134406744411354,-5.977070151414338
83,2.951693693199337,0.7475386863247516,5.3134068430053265,5.636753058314476,4.3444193422028645,7.5104224732142235,11.542241432553405,-1.8276563698957344,9.81945788721691,0.43983813614944944,4.782356581440816,8.247353018257,2.608773795647197,-6.508104323691604
84,2.9329702436842924,0.4653212920194115,5.159365740576987,5.056592944097971,3.4324243361318865,6.88349974226583,11.176407388320676,-1.7913647847353167,9.226471657638003,-0.2842852384869839,2.541613241524036,8.38334610663181,1.8108628261997661,-6.997748312209506
85,2.8585661643715987,0.21380479077833547,4.9338382943002665,4.469671741553472,2.520322595504393,6.2116744917578055,10.703170906457391,-1.7657707579378477,8.572725993049788,-1.0084736695623904,0.23011734331946546,8.437508657871438,1.0289853361111019,-7.436256532905571
86,2.728286959702755,-0.004557225368447116,4.63184958355155,3.87684904118467,1.6161949706783034,5.501363725953963,10.126458204360073,-1.7511410919465356,7.866434777215138,-1.7198579543324566,-2.121496642090176,8.407706943701701,0.27191525090740143,-7.814242310029029
87,2.5439923461035394,-0.18812498392027896,4.251595544645252,3.2790062720211646,0.7279530930618883,4.7591933907520865,9.45241384176063,-1.7475460219861758,7.116201068379096,-2.406063686936029,-4.480703395675391,8.294761417700377,-0.45248669074896897,-8.123316753377992
88,2.3093483039717717,-0.336165307615091,3.794197352102549,2.676925688393029,-0.13689485388900402,3.9917218091082955,8.689054104372536,-1.7550403733269528,6.330659230585757,-3.055759872717353,-6.813912709773272,8.102070771358468,-1.137647469535308,-8.356693179461711
89,2.029509433425534,-0.4489258330928516,3.2633514272390705,2.071179340469338,-0.9714644412730175,3.2052038213251377,7.845892569852994,-1.7738178308895305,5.518159550902997,-3.659141473385449,-9.087326049073429,7.835144612087286,-1.77859883233211,-8.509719828960058
90,1.710757289418349,-0.527682325803556,2.6649056419092574,1.4620390415050288,-1.7696890918675143,2.4054042185199864,6.933554607559559,-1.8043281509566444,4.686508105296258,-4.208320762100135,-11.267795639218942,7.501077487918884,-2.372216228605953,-8.580304406181046
91,1.3601219619485558,-0.5747504533391475,2.0063947605834023,0.8494182993461784,-2.5264761150568513,1.5974668465237745,5.963398150228269,-1.8473475165703663,3.8427730253660015,-4.697605174952905,-13.323655470362084,7.107999873170335,-2.917361047397976,-8.56919726525838
92,0.9850122259346237,-0.5934548485113743,1.2965675685533047,0.23285573460730125,-3.237814711817204,0.7858435908483399,4.947157374247643,-1.9039941823333728,2.9931656985604986,-5.123644673123396,-15.225493689912971,6.664541403594084,-3.4149118057456596,-8.48010804574234
93,0.5928742454463428,-0.5880519623681044,0.5449335030723718,-0.3884539777396825,-3.9008295159825606,-0.025715741352712363,3.8966229883145838,-1.975685719392726,2.1430006212998323,-5.48544049294051,-16.946839838580367,6.179336956588554,-3.867677273690855,-8.319643292331277
94,0.19089184586769198,-0.5636081530916575,-0.23865100393477395,-1.0155805085490257,-4.5137777055519885,-0.8341158048157534,2.8233682022286164,-2.0640401166775373,1.2967307854690595,-5.78421864161129,-18.464747625162598,5.660597961902139,-4.280193998692796,-8.097067974974347
95,-0.21426503931137922,-0.5258391232794459,-1.0443443268451584,-1.6497334332188003,-5.075992006161603,-1.6368175977432178,1.7385247489463247,-2.1707295534052884,0.4580480283690771,-6.023183241888467,-19.76026238190697,5.11576204683648,-4.658420145142143,-7.823908713570781
96,-0.6166415492520569,-0.4809199659067987,-1.8626237359390907,-2.2921007824630513,-5.587775254785992,-2.431700115617781,0.6526097549170432,-2.297301396536029,-0.3699685818287169,-6.207174595191725,-20.818769969001043,4.551226345087116,-5.0093451920216205,-7.513428511848396
97,-1.0111486067381332,-0.43527625461241265,-2.6845296558344223,-2.9436612526499806,-6.050254471311712,-3.216894062740808,-0.42459818022351137,-2.4449846159147324,-1.184677337198329,-6.342263379247379,-21.63022962281568,3.972165058648012,-5.340540236807405,-7.1800108657932835
98,-1.3936633103610716,-0.39536586938297363,-3.5018494838908194,-3.6049824155106975,-6.465203790605181,-3.990601178602874,-1.4841370618029432,-2.614500614717689,-1.9836936339076738,-6.435315043283773,-22.189296464199398,3.3824303470731074,-5.659676448458441,-6.838494779826791
99,-1.7610783727579333,-0.3674589910517356,-4.307240374129371,-4.2760178139205625,-6.834846324415603,-4.750913131486298,-2.5178983581407484,-2.8058955388628637,-2.7647251383565243,-6.493556914433522,-22.495339819209118,2.784536277812615,-5.974039599009808,-6.503501560661056
100,-2.111299031002659,-0.35742093964269106,-5.094289809682335,-4.955915426809642,-7.161645293006461,-5.4956431360296945,-3.518628121200558,-3.0184072876213985,-3.525438060807824,-6.52417542122936,-22.552361960902303,2.179726601242667,-6.290066810823194,-6.188790281146645
101,-2.443185254318915,-0.370500416872072,-5.857512370915977,-5.6428488285356595,-7.44809486598224,-6.222181382657819,-4.479898139118187,-3.2503757439030876,-4.263363599643502,-6.533963525293957,-22.36881998141687,1.568127074349558,-6.612928295719475,-5.906672689820156
102,-2.756436905215903,-0.4111247253779962,-6.592281244532802,-6.333880555719133,-7.696521132431306,-6.927382203505151,-5.396052128389319,-3.499200017874836,-4.97584589756383,-6.529030204415308,-21.95735235621071,0.9489815631600346,-6.946172627067962,-5.667510615658637
103,-3.051420406880635,-0.48270391736130286,-7.2946943044905375,-7.02486513997137,-7.908903391026516,-7.6074872960219775,-6.262130281222299,-3.7613424422217614,-5.660025864472601,-6.514576013192514,-21.334411839107972,0.32096807468402894,-7.291449819234096,-5.479310458347255
104,-3.3289389286019073,-0.587448123228569,-7.96137817360822,-7.710397873036481,-8.086725596353457,-8.258086463009665,-7.07377418290556,-4.032376296516466,-6.312851284278438,-6.494733144742423,-20.519808299786064,-0.3174145960378891,-7.648323326440996,-5.347422174759172
105,-3.5899549535313238,-0.726206433972259,-8.589240201151817,-8.383815211877746,-8.230867451308095,-8.87411608342926,-7.827114737758016,-4.30707306679143,-6.931103765541406,-6.4724662601574705,-19.536169565593017,-0.9674073928602247,-8.01418067611498,-5.274346122503806
106,-3.835282982025351,-0.8983400492123412,-9.175186878518371,-9.037253201388525,-8.341544041307442,-9.449895712590694,-8.518648606675745,-4.579525133371834,-7.511436055933926,-6.449531073886263,-18.408334680041857,-1.629526802053111,-8.384251943030623,-5.259650281569588
107,-4.065278109603646,-1.1016448050574739,-9.715835753530717,-9.661769999369952,-8.418301351315543,-9.979203903083734,-9.145112572178506,-4.843300202298577,-8.05041641384256,-6.4264889925257025,-17.162700285447208,-2.3031131164652376,-8.751743346457774,-5.300000910529081
108,-4.279550745040956,-1.3323375202086338,-10.207254013097524,-10.247536489593385,-8.460071778638946,-10.45539461237803,-9.70336832342958,-5.09162350090526,-8.544578013872037,-6.402775488213687,-15.826544614036978,-2.9859328419356004,-9.108087718784404,-5.389308980670252
109,-4.476737900831366,-1.5851170547698534,-10.644758638288195,-10.784095009478165,-8.465288783614003,-10.871554845970866,-10.190311118079778,-5.317582334315871,-8.990470458528225,-6.376816554935191,-14.427353298773516,-3.673875057335727,-9.443304158897135,-5.518991091018408
110,-4.654357865335975,-1.8533054766967996,-11.022809526355248,-11.260681136323058,-8.432053980033855,-11.220702504778126,-10.602814839783603,-5.514345708775954,-9.384709038156704,-6.346183199835845,-12.992167499173105,-4.360773929045391,-9.746448079753808,-5.678337410641639
111,-4.808768857856656,-2.1290683953746408,-11.335019035333037,-11.666598320768406,-8.35834472218776,-11.496021441705485,-10.937724341796061,-5.675390623822474,-9.724018030321501,-6.307771276280394,-11.546970302517119,-5.038378822653879,-10.006123873465105,-5.85497260766261
112,-4.935244725239664,-2.4037075684232985,-11.574291260495693,-11.991630852131118,-8.242246871764896,-11.69112913451793,-11.191904390484957,-5.794727107647129,-10.005268642225031,-6.257995022332172,-10.116124871479272,-5.696482629628737,-10.211028797812496,-6.035390977877741
113,-5.02817261457004,-2.6680141220930356,-11.733093895173491,-12.226477502606427,-8.082196219609257,-11.800370821515433,-11.362352220607278,-5.867115669061167,-10.225518780110598,-6.192987134151797,-8.721878167851694,-6.323209622280098,-10.35049881480938,-6.205544843733415
114,-5.081368581901299,-2.9126667852313344,-11.803854830354656,-12.363185802007974,-7.877212100255339,-11.81913119638541,-11.446375864278947,-5.88827212177599,-10.382066594532095,-6.108803430438712,-7.38394529432755,-6.905455475803978,-10.41503196751542,-6.351464353973252
115,-5.08849661338482,-3.128655473631142,-11.779464020460972,-12.39556482080877,-7.627106999851389,-11.744150040355375,-11.441832121375603,-5.855054550830065,-10.472529325015062,-6.001632909579609,-6.1191887309865205,-7.429462219995865,-10.396768847515675,-6.459885231524697
116,-5.043565174970493,-3.3077066444958456,-11.653849424239139,-12.319553102912726,-7.3326565792462475,-11.573822389390248,-11.347407943541885,-5.765625778452417,-10.494953731459795,-5.868013075457495,-4.941403014653304,-7.881499642634317,-10.289911974852844,-6.518858913273704
117,-4.941465484883295,-3.4426849063204976,-11.42258628290566,-12.13351923093151,-6.995716745684831,-11.308459379012652,-11.162920388444421,-5.619583374474882,-10.447957494872224,-5.7050473279492895,-3.8612098811136715,-8.248613941935323,-10.091068192365876,-6.518318530306217
118,-4.778509378748264,-3.5279467899636363,-11.083493018969394,-11.838476012646455,-6.6192788697862515,-10.950485086984031,-10.889605526374512,-5.418049148367904,-10.330894963594641,-5.510617993610579,-2.886062980300695,-8.51939615203121,-9.79950143168959,-6.450574816925653
119,-4.5529222505728475,-3.5596266159584196,-10.637164286265053,-11.438194496366508,-6.207460198512333,-10.504548153267654,-10.530366044349053,-5.163711108541668,-10.14403598904533,-5.283585604174915,-2.0203554691533006,-8.684717766252678,-9.417286270761982,-6.310717184197712
120,-4.265247377956596,-3.535839152614161,-10.08739174597919,-10.939209337566043,-5.765432459225583,-9.977533545287859,-10.089950103670214,-4.860812181256618,-9.888742736670569,-5.023961783569073,-1.265618244225911,-8.738379394511309,-8.949354304237893,-6.096896284018757
121,-3.918621974363092,-3.4567882632097224,-9.441426850128556,-10.350711700182291,-5.2992962015814635,-9.378467787308127,-9.575039662443483,-4.5150809110311885,-9.567625988604417,-4.733040071340112,-0.6207918784886507,-8.67762118549489,-8.403426125957251,-5.810466721135244
122,-3.5188932203226564,-3.3247751931114595,-8.710048435087328,-9.684330185945257,-4.8159107694804355,-8.718318856596552,-8.994234137953805,-4.1336001754709475,-9.18466012375953,-4.413467698542782,-0.08255220414001675,-8.50345202058652,-7.789823481942309,-5.455973763836741
123,-3.074553984369418,-3.1441047614133417,-7.907410972560329,-8.953804616372562,-4.322690050750329,-8.009698798159185,-8.357923508919924,-3.724611446119082,-8.745235847913131,-4.069242661758938,0.35433171537255864,-8.220767457201992,-7.121159985147429,-5.040976017423274
124,-2.596491252762743,-2.920892286302932,-7.050665271484373,-8.174561849076534,-3.8273732808334406,-7.266482433515419,-7.6780524773337175,-3.2972550791590858,-8.256132988496157,-3.7056242905378842,0.6966277523246335,-7.838241899478942,-6.411914618081874,-4.575705883216618
125,-2.097553894049732,-2.6627785567962583,-6.1593607384261615,-7.363207215991066,-3.3377792949464204,-6.503359399208069,-6.967783872511172,-2.8612518105124036,-7.725402576511156,-3.328951598448251,0.9522770780481296,-7.36799658473307,-5.677899573677131,-4.072580237871086
126,-1.591959990081804,-2.378564929614405,-5.2546560656092565,-6.536949928199525,-2.861552441268103,-5.735339590927458,-6.241075559990746,-2.426536553216316,-7.1621571847119965,-2.946372068189499,1.1300510048017751,-6.825060898237861,-4.935642231055436,-3.545584618017751
127,-1.094577801629913,-2.0777860158070283,-4.3583824592479665,-5.712986164954899,-2.4059091131033994,-4.977234361813539,-5.512191160312507,-2.0028616455567296,-6.576279360503501,-2.5654939059195296,1.2392380680092183,-6.226659809647296,-4.201709564953139,-3.009564573503888
