,AF3,F7,F3,FC5,T7,P7,O1,O2,P8,T8,FC6,F4,F8,AF4
0,8.595889537193518,2.299573102674058,4.7697104957217,-2.6693338728315297,-1.3786787686615227,0.7946403869104817,0.6369914319365,2.543280543687155,1.627769686000975,1.3980396249653173,2.0005525542943547,2.910798102360753,2.290387838510023,3.6871600225100134
1,9.15931363984604,4.045050493356575,5.532990769366345,-1.0158660132887318,0.10839793316962437,1.089744357069398,0.6953358123966825,2.8956454136157244,1.3613371419400575,1.8361252609380052,2.875849130729203,5.319289468102998,2.22578037267098,3.2512672566655394
2,9.763432563107905,5.7682929156531495,6.313650059345303,0.6094301237669355,1.5684208989051869,1.3828042498902136,0.7719774748115225,3.259452298777755,1.1139503980807075,2.2804511968040773,3.741162043684403,7.693392946871084,2.18467819503231,2.846156657558628
3,10.412329249902704,7.448701537968245,7.104022387093026,2.1889668097793047,2.986769998932777,1.6705181406464424,0.8690076305910026,3.6247287877630923,0.8878405721312129,2.7254130384752795,4.582632524680799,9.983494501850423,2.1732927790737624,2.483707461382278
4,11.10842002968926,9.066277020014173,7.896299649669883,3.706213621013631,4.349789975868304,1.9494486027756595,0.9878430100818121,3.98143176331375,0.6838193212815521,3.164665271620684,5.3864693575801725,12.14142561800137,2.195923454544992,2.173745605405383
5,11.852393015988003,10.602116545802575,8.682971165932608,5.146135885842907,5.645107174215184,2.2161115507966223,1.129187627455343,4.3198354356228625,0.501260597353512,3.5912210126357125,6.139278903597338,14.121880539562847,2.2546787037427496,1.9237495410015901
6,12.64317163044882,12.038879679678958,9.457191682582739,6.495587695272211,6.86191393076867,2.467082208544053,1.2930130522790042,4.630878108074335,0.3381724914947816,3.9976123093555462,6.828413373227587,15.883720565710584,2.3493147639503342,1.738649950416049
7,13.477906217134496,13.361212350819384,10.213057576226323,7.743647076536001,7.991213162527483,2.699112569912666,1.4785588374977292,4.9064525604113145,0.19135935563148265,4.376110432031656,7.442331565207645,17.39112354890688,2.4772073531603382,1.6207345009079073
8,14.35200011221435,14.556122930389437,10.945781543408312,8.881885544342511,9.026017987050135,2.9092537954320212,1.684355038764329,5.1396293828779225,0.056667246592260655,4.719000115611394,7.970963510136861,18.614547118659633,2.633465430370549,1.5696651620093482
9,15.259177092520627,15.613306105006705,11.651765826146427,9.904567713924626,9.961502560824766,3.0949779469595,1.9082687712630517,5.3248074159022485,-0.07070014093247252,5.018896312186044,8.40606622249655,19.531483973994582,2.8111864888918454,1.582610131310576
10,16.191594230334967,16.525408400961318,12.328581334729844,10.808778265894988,10.795100494342112,3.254294741510664,2.147575922139136,5.4577902654660075,-0.19581308031327568,5.269086328116381,8.74155258044033,20.12699540031654,3.0018414041501975,1.6544853627887985
11,17.139999575425286,17.288225486483167,12.974864970753213,11.594473728380454,11.526546583497646,3.385859300494828,2.3990574026337095,5.535792589367374,-0.32361782742382933,5.463875122075524,8.973771316882958,20.394015288615453,3.1957654660983414,1.7782937540774328
12,18.093930544263486,17.900818509535906,13.590151222316651,12.264456471542598,12.157857084755719,3.4890661590908225,2.659117185961508,5.557384308524365,-0.4585357405062749,5.598909014825032,9.101715545975571,20.33342299878121,3.3827234724350856,1.9455449625843595
13,19.041947914204634,18.365536767503787,14.174657590667968,12.824269192871185,12.69324445566373,3.5641241267806594,2.923917440897659,5.5223845899996595,-0.6040873298771275,5.67145476622623,9.127141095704692,19.953890507653107,3.5525123179499594,2.1467358774609897
14,19.971901159706366,18.687937480825358,14.729046303534602,13.282010308036726,13.138964938117587,3.6121067918914087,3.1895247741549393,5.43171990190668,-0.7625659536487562,5.68061688117451,9.054583324974669,19.271516948661706,3.695564514198509,2.371870034476309
15,20.87122166298247,18.876599404324345,15.254185800580249,13.648073241721224,13.503101025768629,3.634974422379642,3.4520612147158043,5.287261682445096,-0.9347788055874438,5.627484133478271,8.89127007022987,18.30927044027646,3.803519259251687,2.610992896808648
16,21.727239832053122,18.942833784785904,15.75093362120211,13.934814820973088,13.795284600156265,3.6355642252154987,3.707854048357579,5.091659498808189,-1.119864174996677,5.515203763598564,8.64693657711708,17.096261789744975,3.869732479376,2.854718899064075
17,22.52752037280985,18.900302383467906,16.219957802261032,14.156159918329761,14.026369574472419,3.61754714318044,3.953579347805921,4.848184883531952,-1.3151865936501639,5.348986474989874,8.333553958764611,15.666877059427248,3.8897026037732148,3.0947258827079605
18,23.260207548873478,18.764557241023585,16.661607895463614,14.327151637078131,14.208064939531381,3.5853505222450655,4.18639435472148,4.56059883923594,-1.5163070575748965,5.136046785396411,7.964985332457747,14.059796979551836,3.861393999722872,3.3241934569501015
19,23.914369932466307,18.552520200944905,17.075840644264087,14.463458681613007,14.35254003091602,3.54404705511051,4.404053695441149,4.233052338113752,-1.7170238785332872,4.885482470663768,7.556584036156547,12.316932013566289,3.7854445717835383,3.538164074557347
20,24.48033254567676,18.281921571401934,17.462200307588347,14.58085383377043,14.472013883079073,3.4992115633304,4.605004348030365,3.870024871532287,-1.9094797694524328,4.608095239305524,7.124747549592839,10.482303137742747,3.665248179673941,3.733808878232607
21,24.949983620285426,17.970716663126918,17.819849709837364,14.694679451035412,14.578340452150885,3.456748676703466,4.788454894731872,3.4763019761939935,-2.0843315219787644,4.316153510060696,6.686439960671751,8.600899549198715,3.5069067285619937,3.910583760859838
22,25.31704279305489,17.636497032658767,18.147644264696677,14.81931734188193,14.682601883074506,3.4226963299879434,4.954415915007902,3.0569885857518373,-2.2309796305088256,4.023097715531465,6.258695219117773,6.717544205888938,3.3190511617144027,4.070263821402066
23,25.577276572917924,17.295911389383694,18.4442364557929,14.96768094164407,14.794722727635985,3.40301192749227,5.10370988255209,2.6175506908398565,-2.337856212188442,3.743189067168874,5.858112779549722,4.87579520046174,3.112535004175903,4.216846794280061
24,25.72864569380882,16.96411034128794,18.708193219926727,15.150747415778982,14.923118444699732,3.4033495841297947,5.2379499106440734,2.1638734436818767,-2.3927702510350093,3.4911043493312413,5.500356658804178,3.1169057278635104,2.9000087409162845,4.356319614509036
25,25.771368875928886,16.654229686084275,18.93810538868135,15.377146509320513,15.074391155000747,3.428837653153508,5.359486696624829,1.7023203725065688,-2.383309105245659,3.281482205778565,5.199668849465209,1.4788596419538478,2.6953885524494416,4.496288659824446
26,25.707889575663398,16.376928298508385,19.13266829306078,15.652821866511816,15.25308443374006,3.483865589077106,5.471322190809739,1.2397764750208538,-2.2972937810752803,3.1284303859642373,4.968408607704258,-0.0045046059653756545,2.5132387272580927,4.645483522427111
27,25.542736587817945,16.139998011945977,19.29071590246844,15.980779000930163,15.461507174437395,3.5718881508492646,5.576987573869505,0.7836579740589672,-2.1232820635214202,3.0450079812957247,4.816630152614271,-1.3042706914415374,2.3680928678276594,4.813154824334758
28,25.28227579434361,15.948063628959606,19.4111970263411,16.36093188715647,15.699634628206008,3.695253519686092,5.680383064650444,0.34187374983642116,-1.8511078126891423,3.042701141187435,4.751712593008718,-2.39711070600729,2.2737443922155336,5.008396764481301
29,24.93435913529484,15.802391107042176,19.493090848915358,16.790057339991908,15.965092711118428,3.8550607990490264,5.785578686780433,-0.07727189122262185,-1.47243709993708,3.130914621184533,4.7780572683225335,-3.265828212648183,2.242541698299343,5.239433840905001
30,24.507887525837024,15.700820729516444,19.53526938252176,17.26186312464324,16.253229133250656,4.051051879136701,5.8965784752668675,-0.46523903586343013,-0.9813143628137491,3.31650423870642,4.896868472190848,-3.899762567281658,2.2847270289212918,5.512917692930356
31,24.012314901690555,15.637838901814069,19.536324117863717,17.767172071232736,16.557271375239356,4.2815424024206585,6.017055074070266,-0.813471854518297,-0.374667138645699,3.6033760586287866,5.106032622235261,-4.2950368492021616,2.4078588327372863,5.833282623955214
32,23.457128275121914,15.604796675205572,19.494381124448733,18.29422019071037,16.86856730087392,4.543396082077148,6.150066536584392,-1.113669755546655,0.34726226537015364,3.9921762605213917,5.400107841480313,-4.454631889793691,2.616353748525531,6.202205967056415
33,22.851342297743464,15.590275702695182,19.406932367577287,18.82906186061093,17.17690004543231,4.832045837428347,6.297771866239152,-1.3580968408033602,1.1805860891455593,4.480091236520684,5.770431140052896,-4.3882717702208,2.9111764623694993,6.618212892885797
34,22.20304621272883,15.580593643109248,19.27071109461597,19.35606962060497,17.47086520250998,5.141564201571264,6.461165642138714,-1.5399124048833295,2.1175629840300094,5.060770938024465,6.2053445699059475,-4.112111235662209,3.289695016445494,7.076456119875113
35,21.519036176934403,15.560431232357276,19.08163556938829,19.85851015415234,17.738295195193018,5.464784134436724,6.639853781557106,-1.6535023394206914,3.1465259244736394,5.7243802539262845,6.690535047572337,-3.6482225925191893,3.7457068571486882,7.568689627783539
36,20.804556955620324,15.513553276629404,18.834838098290383,20.319172238098357,17.9667131269913,5.79346959549784,6.831891269889498,-1.6947905560533572,4.251951097503195,6.457774451641921,7.209475435513196,-3.0238889493584993,4.269628084261136,8.083441660827296
37,20.06316524217557,15.423587654770223,18.524786284206147,20.72101791214373,18.14379666517667,6.118532864067903,7.033698648234232,-1.6615111060113272,5.414665473272423,7.244787523038466,7.7439480657323205,-2.270721611169032,4.848826848958483,8.606377024784964
38,19.2967143637698,15.274821421195325,18.145492935148305,21.04782580176138,18.25783162737435,6.430292482631105,7.240067933843098,-1.5534247560503518,6.6121862283766815,8.066618032194707,8.274627200883375,-1.423630736699718,5.46807345927148,9.12082409630927
39,18.50544882234465,15.05297120584726,17.690802077414453,21.28479565948389,18.298134719241144,6.718761939670211,7.444261485435267,-1.3724671488410651,7.81918313150161,8.902295435791537,8.781694378070794,-0.5196882429893781,6.110075076915908,9.608430224676797
40,17.688188602379498,14.745885815096514,17.15473208388363,21.419085506416064,18.255425696446,6.973955495144014,7.638200440899425,-1.1228183104015186,9.008054207297027,9.729209982589088,9.245460452170683,0.4030715039917154,6.756061862100211,10.049902045031343
41,16.842578508546943,14.344142297794189,16.5318530930767,21.440256948612177,18.122132013230683,7.186194994379087,7.8127339667867375,-0.8108850310527532,10.149604394601624,10.523690923190555,9.646970582310578,1.3068654630368552,7.386394089451954,10.425785617944161
42,15.96537690515377,13.841503107565167,15.817674309654722,21.3406100051095,17.892613877666495,7.346401156142439,7.957976908319849,-0.4451896289191682,11.213815617493074,11.261620386293373,9.968572575600072,2.1553439205533276,7.981165418141066,10.717244632473678
43,15.052760100313773,13.235211194984023,15.009017051203934,21.11539565361505,17.56330337894565,7.446355226261372,8.06370077637167,-0.03616232313931285,12.17069376501561,11.919072362499357,10.194433189771306,2.914698323290131,8.520784078992756,10.906801026403611
44,14.100622320881339,12.526110841452336,14.104351329071601,20.762901714575918,17.132756915624373,7.478921766583157,8.11976075503971,0.404159595948186,12.991173236006052,12.472966256444744,10.310989930990987,3.554657976613554,8.986519211513178,10.979009264842224
45,13.10485643447416,11.718593472732904,13.104077325097608,20.28441518055811,16.60162552148196,7.438229295646686,8.116539802643405,0.8625152819907992,13.64805388805095,12.901722538976937,10.307327907579504,4.049345711563826,9.361003547738198,10.921042450928736
46,12.061606975815772,10.82037872501891,12.010738204756645,19.68407126551107,15.972552797711177,7.31981050236496,8.045390510193908,1.3248686796673164,14.116939849672262,13.18590581703629,10.175473817986397,4.3779710644581264,9.628686790792933,10.723175360085273
47,10.967493539182412,9.84215098522512,10.829156456177804,18.968605745969057,15.250013942502381,7.120706421805991,7.899056269960881,1.7768977070403242,14.377145419302405,13.30883946817306,9.910602798116678,4.525348178924134,9.77623648968914,10.379155686365573
48,9.819807499492423,8.797079209694314,9.566490897593548,18.14703166111596,14.440110770931387,6.839539261176508,7.672054958470517,2.204496351561922,14.412530155609241,13.257175340738359,9.5111575210281,4.48223291686621,9.792884237377685,9.886458964157091
49,8.616687003095809,7.7002517091632035,8.232214444312296,17.23026308994892,13.550336911205397,6.476557436042017,7.361009998257057,2.594260816624546,14.212223473347569,13.021400385358795,8.978880995262928,4.245478495951616,9.670714308824719,9.246424404187707
50,7.357274099232683,6.568057729123577,6.838013494955357,16.230707267579945,12.589325748001468,6.03365489428004,6.964914973785869,2.933933150921506,13.771199585361826,12.596259226455867,8.318764642512892,3.8180116497997134,9.404890174620661,8.464269511458188
51,6.041854711015864,5.4175454719736,5.397609098092195,15.161842814900327,11.566592062753129,5.514365539217949,6.485319177654777,3.212780952766537,13.090667541900775,11.981069315965579,7.538912572327548,3.208633121021871,8.99381269983497,7.548982363738647
52,4.671978259936907,4.265783359698669,3.9264990098449304,14.037798053999778,10.49227681208057,4.923832337638071,5.926422897266144,3.4218987251163067,12.178248520728486,11.179905424730396,6.650322748641355,2.4316483948410004,8.439202830026227,6.513092375052266
53,3.250550533762619,3.1292488311597215,2.4416197174910623,12.872940467937154,9.376902795709393,4.2687490674524025,5.295073001427159,3.5544236769558997,11.047922581804912,10.201633606548773,5.666586698077202,1.5063374920476669,7.746101609266529,5.372323411403767
54,1.7818918624009639,2.023267143783871,0.9609297727883781,11.681486712377348,8.231146957825798,3.557270808653546,4.600651600070246,3.605664675665462,9.719738873670918,9.059781170047662,4.603511950034031,0.4562766210806707,6.922782056054248,4.145137578820432
55,0.2717531921362454,0.9615210673968236,-0.49707917479069136,10.477142019022638,7.065633006051517,2.798888136820269,3.854853781226539,3.5731469694263827,8.219295999188768,7.772237921636998,3.478675320081619,-0.6914703632960854,5.980570843394912,2.8521834251868583
56,-1.272715110622052,-0.04435010325954385,-1.9139300383113198,9.272777766783276,5.8907463772001964,2.004260306310061,3.0713553318573688,3.4565777182569812,6.577011896052391,6.360793872454511,2.310919415624012,-1.9072666934470883,4.9335820476144905,1.5156672820268582
57,-2.843043485285071,-0.9850478769431895,-3.2717448972024066,8.080155715430372,4.7164726368409235,1.1850045085085414,2.2653780485663715,3.2577393814049946,4.827213731681251,4.850528335709687,1.1198083262119212,-3.1598932021015083,3.798369484603317,0.158670199705536
58,-4.429569972005229,-1.8537991606673345,-4.55383713647477,6.909706503006048,3.5522602487523582,0.3534412730512819,1.4531680315700353,2.9803203530013693,3.007086806159705,3.269073965911009,-0.07493872726005434,-4.4175780803456695,2.5935082876899576,-1.1955640076364236
59,-6.021606338091864,-2.6464244629387217,-5.745275838913037,5.7703685992469484,2.40690922497982,-0.47769975149535815,0.6514100905892282,2.6296950222532947,1.1555272742523601,1.6457867055642665,-1.254014360112863,-5.649024168164358,1.3391209401286337,-2.5243408203298094
60,-7.607631567516436,-3.36129102506637,-6.833384153263311,4.669492281445332,1.2884881348886632,-1.2956042388134958,-0.12339185048029676,2.212668352776588,-0.6880526383219344,0.010858718989249111,-2.3990664240443462,-6.824388505554845,0.05636792258524539,-3.8061949798979073
61,-9.17549745624125,-3.9991568806978974,-7.808134386734217,3.612811397430546,0.20428249754396474,-2.087713448013865,-0.8555335001856557,1.737202428351887,-2.4849162728069754,-1.6055846054293985,-3.4931916336588493,-7.9161679362021955,-1.2330726929206297,-5.0215038210023355
62,-10.71263115044549,-4.562916768409311,-8.662408806744413,2.6044831819313186,-0.8392232886378249,-2.842062684070382,-1.5306913717085204,1.2121431087424381,-4.198141316711216,-3.1743617126082397,-4.521353746271486,-8.89994787531217,-2.5075108558131145,-6.1530001475936755
63,-12.20622414945573,-5.057266328290945,-9.392107001319859,1.6471924627578047,-1.8363309520720983,-3.54759961488268,-2.1364322170269436,0.6469630999368446,-5.793660735470179,-4.668047116845864,-5.470705260941984,-9.754980374414526,-3.7457123220335355,-7.186156622564598
64,-13.64340561710213,-5.488306708499378,-9.996096756778341,0.7423113315874565,-2.782084423395947,-4.194465487206801,-2.6626236052871173,0.051533415286919855,-7.241168946092931,-6.061686436996415,-6.3308002137840775,-10.46457192109086,-4.927313014368727,-8.10942500137504
65,-15.011406616422105,-5.863116329141223,-10.476022428611902,-0.10989976931738785,-3.6722045665984213,-4.774225261112162,-3.1017283229977357,-0.5640706236945839,-8.514866318175745,-7.333390656943228,-7.093696226698429,-11.016278184204024,-6.033174514692442,-8.914328465345406
66,-16.297727372897263,-6.18931827987293,-10.835998507561188,-0.9100666884178678,-4.503012339371188,-5.280037130668583,-3.448975363366312,-1.189728556201478,-9.594025513500691,-8.464795298220224,-7.75395376605588,-11.40191844492305,-7.045684588268947,-9.595419834684911
67,-17.490319642103863,-6.474669183723383,-11.082223279286648,-1.6594691745048855,-5.271350367506438,-5.706757238472228,-3.702408710602324,-1.8154033152582276,-10.463372981958647,-9.441378428993849,-8.308547303517186,-11.617433983969013,-7.949012068406278,-10.15012855365106
68,-18.577790734941594,-6.726688435993015,-11.22254729495863,-2.3598159722883207,-5.974511013649532,-6.0509802208930505,-3.8628209037826484,-2.4312458253607847,-11.113287433407136,-10.252638265837904,-8.756705725571358,-11.662621054176944,-8.729326098416008,-10.578523134049236
69,-19.549626737352902,-6.9523376716500325,-11.26602554843459,-3.013037256679066,-6.6101758945945575,-6.3110194892776175,-3.9335814833976053,-3.0276833900235958,-11.539823905669182,-10.892136875397224,-9.099698759119873,-11.540770589973384,-9.374987186346385,-10.883014371002828
70,-20.396423331702533,-7.157752316050034,-11.22247413168995,-3.6210990765388824,-7.176369019824541,-6.486833150527664,-3.9203719340026164,-3.595499865813861,-11.744577205470378,-11.357421528052202,-9.340584714088582,-11.258245068123022,-9.876714260441744,-11.068021180452702
71,-21.110106776445182,-7.3480225329882884,-11.102045064352577,-4.185840521637753,-7.671424259839734,-6.579903094861861,-3.830840297227238,-4.125915151835452,-11.734402468104506,-11.649839790439747,-9.483934436021574,-10.824019827985177,-10.227729569748764,-11.139617982792435
72,-21.684126499000495,-7.527020214622961,-10.914828922020583,-4.708832771032205,-8.093967527862166,-6.593076307793504,-3.67419148115509,-4.610670100813069,-11.521013659129581,-11.77426828838742,-9.535547035042752,-10.249212810533168,-10.423881981017663,-11.105180907262731
73,-22.113603612945358,-7.6972706482606235,-10.670493998646503,-5.191259956234566,-8.442914244479542,-6.530378576527732,-3.460733410905172,-5.042120988867659,-11.120482813866005,-11.738777612626746,-9.502173558872638,-9.54662347365822,-10.463748360872486,-10.973049062712983
74,-22.3954252348476,-7.859870670120161,-10.377972107442698,-5.633823983956925,-8.717482950295361,-6.396811390211144,-3.201403321192566,-5.413345815778359,-10.552663325031467,-11.554256495625427,-9.391264432202421,-8.730298916113457,-10.348711975443333,-10.752215976259619
75,-22.52828211640351,-8.0144584972442,-10.045203436288636,-6.036678157340349,-8.917226113615659,-6.198143364851829,-2.9073011594091533,-5.718262990881581,-9.840559475601648,-11.23401692402476,-9.210754616976626,-7.815143055822969,-10.083016103717702,-10.452064628137249
76,-22.51265565744822,-8.159243132568513,-9.678954533204616,-6.39939666837048,-9.042079030546603,-5.940708123522314,-2.58925733182481,-5.951760891002545,-9.009661577328878,-10.793398029541246,-8.968896349789468,-6.816582098673887,-9.673789832632613,-10.082156668895689
77,-22.350767357859542,-8.291102018310372,-9.284722913102485,-6.720987784295186,-9.092427068807622,-5.6312207864090675,-2.257459709197895,-6.1098339544152624,-8.087261785446122,-10.249380215081006,-8.674142745917218,-5.750295024836161,-9.131040478883117,-9.652081547257145
78,-22.0465068734444,-8.405753255602463,-8.866738209057516,-6.999957116385629,-9.069190250917476,-5.27662440844632,-1.9211601307208583,-6.1897175717285675,-7.101761058084869,-9.620212774782923,-8.335077419645108,-4.632011162930483,-8.467603103498556,-9.171364464329558
79,-21.605353398840734,-8.498002870870192,-8.428063659233167,-7.23442362590616,-8.973922201979356,-4.883975275515527,-1.5884740550406178,-6.190010921390253,-6.08197427625547,-8.925050310881657,-7.960377250541553,-3.4773697609556296,-7.699033120473578,-8.649424835767938
80,-21.034299981727802,-8.562059244812984,-7.970793877517253,-7.422285363401173,-8.808917872132314,-4.460371488255302,-1.2662791093768464,-6.1107752349229205,-5.05643891323219,-8.183587819442891,-7.5587893831269675,-2.3018308471827957,-6.8434248041362045,-8.095571188261015
81,-20.341783261668034,-8.591897874462347,-7.4963360499689395,-7.5614254080642365,-8.57732163042854,-4.012922949649024,-0.9602097389086334,-5.953595478988258,-4.052732689824431,-7.415682721516905,-7.139101038679264,-1.1206233040780689,-5.921138341564885,-7.519015074732706
82,-19.53761395155444,-8.581652262059796,-7.005752830597624,-7.6499428393634155,-8.28322499218426,-3.5487541746332596,-0.6747367747534716,-5.721596035867005,-3.0968071044921333,-6.640954354249069,-6.710082348765502,0.05128571307267978,-4.954421742102707,-6.928885545244616
83,-18.63289769410741,-8.526002481546577,-6.5001375878806025,-7.6863903379733625,-7.931741917289163,-3.0750261465903606,-0.4133136283996527,-5.419404980499473,-2.212346345614617,-5.878356502995725,-6.280387520958381,1.1992168169629864,-3.966920699479769,-6.334226422405276
84,-17.639932716050016,-8.420532577157346,-5.980987778931647,-7.66999946278782,-7.529049546808878,-2.598960747751694,-0.178566075550621,-5.053066015182631,-1.420164446683723,-5.145725245573899,-5.858406960050924,2.3088167029484654,-2.9830781679564757,-5.7439607597361135
85,-16.57207056922934,-8.262031462810628,-5.45054122831876,-7.600876163375127,-7.082383519965016,-2.1278510167839286,0.027499297201953873,-4.629901103589486,-0.737657169481301,-4.459311989364153,-5.4520714595443085,3.366124188576492,-2.0274354577147786,-5.16681060774289
86,-15.443529131694385,-8.048718772344342,-4.912043033571191,-7.48015194848909,-6.599979551898278,-1.6690421947015026,0.203292315056272,-4.158329849351411,-0.17832865875080786,-3.8333195604782797,-5.068618234569677,4.35767667129624,-1.1238577962423237,-4.6111658309920145
87,-14.269151939296385,-7.780385450979057,-4.369916628078754,-7.310079747168191,-6.090956310749799,-1.2298717314586163,0.34746420052523064,-3.6476536695034407,0.24858422971342437,-3.2794663696632047,-4.7143358874777395,5.270665944186066,-0.2947181978009791,-4.084902618848394
88,-13.064113534384168,-7.458446461439741,-3.829819865695782,-7.094067345183603,-5.565138225564127,-0.8175607069934624,0.45877905548192793,-3.107813946690412,0.5383661486524881,-2.8066083269323157,-4.394309876346076,6.093147688363005,0.4399179964238498,-3.5951592907597996
89,-11.843576209507937,-7.085908341947964,-3.298575229179483,-6.836645103449677,-5.032820547304351,-0.4390542974523992,0.5360458703160053,-2.5491337057989103,0.6909345546892162,-2.420448929653254,-4.112191200381536,6.814303128401323,1.063061028960607,-3.1480832315882115
90,-10.622309382763428,-6.667257787887611,-2.783972505796804,-6.543368603960922,-4.5044831106521706,-0.10081504991008368,0.5781185478798714,-1.982052155619971,0.7107921300842643,-2.1233644280435966,-3.8700094756749825,7.424744115857061,1.5614703467080475,-2.7485680674240505
91,-9.41428892582936,-6.208280239945716,-2.2944525460938987,-6.220661141365754,-3.9904639585740957,0.1914203942879552,0.5839631989720449,-1.4168610016262073,0.6068122123086443,-1.91436377639871,-3.668048265098775,7.9168449481515095,1.9261918089735894,-2.4000040234158138
92,-8.232299342283724,-5.71582052393186,-1.8386913646132477,-5.875605416542685,-3.5006088795033206,0.432903882897266,0.5527832097178962,-0.8634509957684866,0.3918586020557107,-1.789193132273373,-3.5047958531719074,8.285077016516318,2.1529245533456765,-2.104065848234587
93,-7.087565371686097,-5.197500781989307,-1.425113708464211,-5.515697742235066,-3.0439171467393384,0.620135673855909,0.48418491619677967,-0.33107671626056145,0.08225192274908248,-1.7405829093556073,-3.3769787307803005,8.526317524802895,2.2421939878752766,-1.8605609865863195
94,-5.989440388023606,-4.661413756259434,-1.0613733602781004,-5.148580858659421,-2.628206390157255,0.7510979951051526,0.37836137244326934,0.17185304466303566,-0.30289434959858913,-1.758623428381824,-3.2796785493627705,8.640101870850756,2.1993186586997076,-1.6673561213778558
95,-4.945176960025144,-4.115811556106304,-0.7538431866554692,-4.781772835249825,-2.2598198415836057,0.8254396454533267,0.23626921487661728,0.6379527144748235,-0.7424360345594762,-1.8312455182393412,-3.206527577905992,8.628790675210945,2.034170004874677,-1.520394345697201
96,-3.959800521756518,-3.568810713606343,-0.5071601798777164,-4.422409538431271,-1.943397005549494,0.8445920555109016,0.05977423956580966,1.060999739538796,-1.2140209264699637,-1.944776889694564,-3.1499736558336098,8.497626610746652,1.7607348384492778,-1.4138095850601577
97,-3.036099946532574,-3.0281324797248206,-0.32386776566721426,-4.077016614614369,-1.6817244201864932,0.8118014992798823,-0.148254889803992,1.4360329616986431,-1.6949328590236095,-2.08454358376414,-3.1016029226269204,8.254663505207699,1.396500610781989,-1.3401392847844569
98,-2.1747387183071196,-2.5008923028676513,-0.2041885336602153,-3.7513236136090926,-1.4756770509524502,0.7320675170365873,-0.38391877282843195,1.759408055215963,-2.16292006765562,-2.235486701687907,-3.0525063501595313,7.91056080783178,0.9616929495745858,-1.29062948987574
99,-1.3744788517777968,-1.9934452345729847,-0.14594660323207787,-3.450128006000362,-1.3242535936294264,0.6119840831790845,-0.6423308375891906,2.0288109014115587,-2.596975303828311,-2.3827668093121526,-2.993674047834278,7.47824890275151,0.4784032474772491,-1.2556182701852414
100,-0.6324995555270913,-1.5112868828416304,-0.14464323296064072,-3.1772113623810947,-1.224701386222708,0.45948745137724206,-0.9177293187065076,2.2432316062337243,-2.9780409212860595,-2.5123318571235984,-2.91639987524649,6.972482076214237,-0.030349357333820694,-1.2249760558014413
101,0.055214108734362694,-1.0590044730354125,-0.1936751804290385,-2.9353049942171308,-1.1727196675796496,0.2835223235463291,-1.2036474121771898,2.402902924490539,-3.2896183042079974,-2.611429229129735,-2.812678541151689,6.409304068785748,-0.5415734977620048,-1.1885771188971348
102,0.6934404744658637,-0.6402700920943053,-0.2846745998322153,-2.7260986941294107,-1.1627243364721194,0.09364506532907028,-1.4931268009869885,2.509207574903342,-3.51826689103362,-2.6690477866476328,-2.6755781255095594,5.8054557232975155,-1.0332305777651674,-1.1367758800598862
103,1.2872767699957721,-0.25786758282283107,-0.4079425731338622,-2.550284138334105,-1.1881537576660115,-0.100411673157257,-1.7789581329372361,2.564559810628149,-3.653982753658776,-2.676280212015677,-2.499572448603649,5.177755958664823,-1.485085475530235,-1.0608641800084888
104,1.841707802329465,0.08625508474176978,-0.5529454474561208,-2.4076239010129123,-1.2417940022828577,-0.28918484005366557,-2.0539328071546095,2.5722676878800876,-3.6904496547737233,-2.6265988322837526,-2.2808194403960176,4.542486936052773,-1.879446610026146,-0.9534897205166004
105,2.361212088853182,0.390915619474637,-0.7088428787752961,-2.297037503011987,-1.316103239756242,-0.4639079356961792,-2.3110926292333844,2.536383344887943,-3.6251572470453577,-2.5160394546611498,-2.0173733426421845,3.9148126305050854,-2.201767892720264,-0.8090198183770897
106,2.849426191449468,0.6556170928480093,-0.8650173733105669,-2.216697021132266,-1.4035182228347816,-0.6168912047816282,-2.5439665378253813,2.46154873670473,-3.4593829016794184,-2.3432883077619837,-1.7093202557060543,3.3082578458660716,-2.441093646554688,-0.6238369668697376
107,3.3088839201392903,0.8804656340143178,-1.011576417264876,-2.164126236103981,-1.496730127846847,-0.7418317720333416,-2.7467857986821427,2.3528433136605464,-3.198036940569154,-2.109668436019662,-1.3588286509559908,2.734272142525114,-2.5903351906622536,-0.39655337419031306
108,3.740842491372354,1.0660936551149836,-1.1398004322888173,-2.1362991338470936,-1.58892184524697,-0.8340371107769868,-2.914670213619432,2.2156381759208608,-2.8493765658968955,-1.8190253281043107,-0.9701095799680515,2.201899373514653,-2.6463749482448358,-0.12813225446095253
109,4.14520274454346,1.2135933853067675,-1.242513526147501,-2.129735893313529,-1.6739634567676398,-0.8905530525186964,-3.043778155974115,2.05545895519624,-2.424600915588396,-1.4775171304941246,-0.549285615507023,1.7175677747971663,-2.610001144400133,0.1780940558012012
110,4.520525547642802,1.324461603911082,-1.3143592480209365,-2.1405969604612047,-1.7465660326519044,-0.910195588882945,-3.1314137039151766,1.8778579518902034,-1.9373464388584005,-1.0933205903815901,-0.10417258040732708,1.2850085363206751,-2.4856831280358715,0.5165149507322387
111,4.864142088789217,1.4005536018489069,-1.3519694563845681,-2.1647775862605196,-1.8023953367198415,-0.8934928478238895,-3.1760859365614245,1.6882953488526096,-1.403106272112836,-0.6762677490315362,0.3560170238245134,0.9053044481353021,-2.28120337544888,0.8794424597055335
112,5.1723519335270955,1.4440437403201334,-1.3540201696703218,-2.1980055161106464,-1.8381467875281685,-0.842548655330035,-3.177518545659506,1.4920295088873927,-0.8385990799029776,-0.23742968055203176,0.8210361432567933,0.5770656541225326,-2.0071669662954656,1.2574189271805585
113,5.440699131594095,1.4573909639765552,-1.3211736377689514,-2.2359432291917467,-1.85158187815078,-0.7608416585752902,-3.1366111809169315,1.294017129823758,-0.2611127193853549,0.21133693501379697,1.2800157807181667,0.29672566169245457,-1.6764129419062017,1.6396238004624335
114,5.6643127936962525,1.4433087678075982,-1.2559112354231394,-2.2742939834015283,-1.8415251592357047,-0.6529748205766714,-3.055356556575234,1.0988249809041843,0.3121530124889106,0.6578653942354016,1.7219118294183555,0.05894561021561159,-1.3033549173945536,2.0143663583677656
115,5.838293876077599,1.404738893066929,-1.1622680909004912,-2.308909362996032,-1.8078211163499365,-0.5243903473302317,-2.936719545939944,0.9105553385317227,0.8647216163771142,1.0901612213177359,2.135968425718908,-0.1428923580488042,-0.9032811430971055,2.3696441989115646
116,5.958124122074357,1.344825895717953,-1.0454882264763548,-2.335896252427701,-1.7512528004172492,-0.38106551279555845,-2.7844869513955017,0.7327863667838241,1.3814308567670555,1.496873154632426,2.512177087384,-0.31613019781194995,-0.49164710007941687,2.693739664445667
117,6.020067307767051,1.2668868901163863,-0.9116272910139582,-2.351722785725132,-1.6734282810467556,-0.22920530451847843,-2.6030993107272824,0.5685268011794374,1.8489569545852529,1.8677315169266193,2.84170674400476,-0.4682533143944451,-0.08339604618759247,2.975819679276146
118,6.021529785443952,1.174369363809657,-0.7671359709886729,-2.3533239219448707,-1.5766447706945554,-0.07494765830908481,-2.39747790695936,0.4201826517652207,2.256249383186686,2.1939305266883555,3.117276840310677,-0.6063260547755237,0.30765672143730477,3.2065000933621346
119,5.961349296461065,1.070791270386248,-0.6184583588556553,-2.338206262989865,-1.4637416733872959,0.07590420513725907,-2.1728597548742035,0.28953340995440074,2.5948554027660506,2.4684323567030435,3.33344668545413,-0.7364869251657206,0.6693433283965408,3.378334809602003
120,5.8399885549425985,0.9596614014908048,-0.47167524975716774,-2.304548571362695,-1.3379523018115413,0.21811026832556243,-1.9346501495767363,0.17771667890673312,2.8591184963884366,2.686176034978457,3.4868005997836597,-0.8635427646439282,0.9915416077040868,3.486194031386528
121,5.659621318723885,0.8443832286874091,-0.3322137180920426,-2.2512903341698265,-1.2027604331504531,0.3471745425467862,-1.688296925764644,0.08522267314380433,3.046243467603322,2.844182917220376,3.576019629673219,-0.9906909702577849,1.266438784346019,3.52750541328491
122,5.4241106022633545,0.7281505797203218,-0.20463362155447143,-2.178197228780569,-1.0617639996382844,0.4594741559952362,-1.4391843124719716,0.011902606541546942,3.156231644591781,2.9415603828424697,3.6018438205045458,-1.119385154610813,1.4886599833317522,3.502345261296753
123,5.1388888713483185,0.6138471096366236,-0.09249139570559851,-2.085891095528311,-0.9185459151936479,0.5523369392139957,-1.1925389321239508,-0.043003532842254166,3.191699418783384,2.979413819098025,3.5669401118200406,-1.2493450567233153,1.6552720316366916,3.413381060130751
124,4.810757351752355,0.5039623510502582,0.0017261671771985547,-1.9758339667023699,-0.7765522234651925,0.6240709021551103,-0.9533376844547562,-0.0808147518372671,3.157599687394072,2.960681931371961,3.475696831732224,-1.3786985015929163,1.765680255842937,3.265678362622659
125,4.447625670348968,0.4005349898764259,0.07660927939074115,-1.8502604240048952,-0.6389797107051166,0.6739506475448799,-0.7262079840312141,-0.10332978572589521,3.060868310296207,2.889911984729003,3.333966426582991,-1.504233631956897,1.8214392199936738,3.0663927241902966
126,4.058213650142306,0.3051297038851097,0.13178494840125501,-1.7120586626206569,-0.5086770792772014,0.7021662947214916,-0.5153150608198804,-0.11272211907048807,2.910017760681874,2.7729910474092088,3.1487755432826163,-1.6217345083069372,1.825998414631319,2.8243709100055385
127,3.651734288608479,0.21884853853426242,0.16783833905480178,-1.5646068088602951,-0.38806420214852533,0.7097404848843053,-0.3242376433702831,-0.1114146789388756,2.7146990392751253,2.6168478432666684,2.928017899589778,-1.7263719684903132,1.784401691612879,2.549686405080109
