,AF3,F7,F3,FC5,T7,P7,O1,O2,P8,T8,FC6,F4,F8,AF4
0,-5.332772199426221,1.5052950955825228,-2.6628534299783615,1.0254167303034878,5.257638268697103,2.157850912913184,2.172140972509425,-0.2948107509536258,1.8290965289415917,1.3740231906347988,-0.20251030736438913,1.126300260451352,-0.32872170780381343,-3.165447127524619
1,-6.1388842382769395,1.249882388916227,-2.7323443966499963,0.9331963025298677,5.475769254251107,3.081204849129964,2.618476944121724,-0.8356941331435668,2.894297193922076,2.1647867921724653,0.15338915324977642,-0.08765910320556669,-0.44716199476471485,-3.5178994498595366
2,-6.955800845940593,0.9916002004635297,-2.8168066848385243,0.8225727794997243,5.695831802138064,3.986772975379569,3.051489383613557,-1.3650866567921796,3.934822635109354,2.9347944877541736,0.48826755466243443,-1.3218929244940723,-0.586210199088926,-3.903622378586697
3,-7.768492920320558,0.7395422554682392,-2.9139141417290446,0.6999560112560178,5.920686126556498,4.864090173812979,3.464224513170033,-1.865582821619646,4.933014031997191,3.668150483395438,0.794412885731802,-2.583293082005878,-0.7556256045195645,-4.332503132727532
4,-8.561682964612643,0.5028595223774882,-3.0209270527945984,0.5720114168065414,6.152882646395285,5.7035236349540135,3.8503518653588387,-2.3206194208981366,5.87253158719239,4.35004272270907,1.0650647872161778,-3.8779757921628573,-0.9639540201284276,-4.81289200339624
5,-9.3201305343655,0.2905250453314222,-3.1347635309397575,0.44545279656544234,6.394503396441397,6.496472765430051,4.204310254035518,-2.714990181099634,6.738851429365778,4.9672152288828055,1.2946734326642568,-5.210993261863291,-1.2181561303422404,-5.351156319241495
6,-10.028892828320242,0.11109880042075587,-3.252045008278846,0.32684610337436365,6.647016983519552,7.235519536553932,4.5214415358331035,-3.03530047034339,7.519674357112217,5.508365964767685,1.4791101852430906,-6.586048095734063,-1.5233020749424273,-5.951291373140001
7,-10.67355412891169,-0.027501463277769617,-3.369111421680724,0.2224308632887046,6.911153378068455,7.9145270581304406,4.79810975105363,-3.270344910694444,8.205233952823164,5.9644578635330845,1.6158229658594696,-8.005215555755392,-1.882345038663232,-6.614605179841863
8,-11.240422316427741,-0.11821708190897286,-3.482007535892987,0.13796470959977353,7.186804953416708,8.528689457007044,5.031801668124794,-3.4113948507814604,8.78849973251201,6.328937211411118,1.7039336020935012,-9.468682487094318,-2.2959816381453546,-7.339491529499113
9,-11.716695924763965,-0.1550473828992192,-3.5864484653219537,0.07859446574698394,7.472959684696899,9.074539447543758,5.2212025667817406,-3.452387764750345,9.265276509855518,6.597858184950416,1.7442771533103458,-10.974516154050711,-2.7626024639914473,-8.121303525224643
10,-12.09061016283605,-0.1332262035936745,-3.6777784315338167,0.048754709734379634,7.767671202592968,9.549920911321017,5.366239234132199,-3.390015991525565,9.6342045447629,6.769916026585558,1.7393849773024643,-12.51847971080066,-3.278332208056004,-8.952337730406274
11,-12.351573503078036,-0.049372653869082905,-3.750940596056726,0.052092261885557975,8.068068533072744,9.953932748418099,5.4680817079768484,-3.2237171005226464,9.896667512142075,6.846394897129677,1.6934147264714956,-14.093912196494355,-3.837155027094271,-9.821936399451157
12,-12.490306943300643,0.09838662265874391,-3.800476572453872,0.09141311788417146,8.370406078680203,10.286848430321978,5.5290969109971515,-2.955572578912591,10.05661710708732,6.831039436337611,1.612031472548974,-15.691689398594685,-4.431117356354954,-10.716711156152279
13,-12.498995786430129,0.31032620598530747,-3.820571751022884,0.1686474535524357,8.670151963702017,10.55001436131684,5.552750788159401,-2.5901257362616192,10.120323767676293,6.729860483994218,1.502244534901138,-17.300277997052838,-5.050597866659657,-11.620885606949804
14,-12.371458879302159,0.5850643299799659,-3.8051570287929786,0.28482860775660984,8.962110586790644,10.745729851668587,5.543460043225826,-2.134133389959715,10.096062889351277,6.550885071247561,1.3722045178789462,-18.905889595147247,-5.684632589835078,-12.516747138801588
15,-12.103333303994347,0.919542065841882,-3.748069845886402,0.4400831016476904,9.240573459446068,10.877111757324396,5.506398983062687,-1.5962683235332746,9.993745954034937,6.303859453016218,1.2309649454243934,-20.49273439992463,-6.3212816969737355,-13.385190850990243
16,-11.692265199725266,1.3090426622775746,-3.6432694717597998,0.6336301417625131,9.499491254753082,10.94794677812253,5.447270401605067,-0.9867903234145252,9.824506539124144,5.999912537837204,1.088212898690806,-22.04336780545011,-6.948022712813972,-14.206332891140313
17,-11.138091818247696,1.7472540925999962,-3.4850950314921842,0.863790137516273,9.73265916248164,10.962533739619655,5.372051476005736,-0.31720281691089086,9.600252311509026,5.651186435630373,0.9539732778547054,-23.53911802736549,-7.552153724816088,-14.960167150730257
18,-10.442997267646675,2.2263764927571073,-3.2685503674928467,1.1280022955050557,9.933906876969468,10.925517587530123,5.28672644977018,0.400090174809845,9.33319658043801,5.27044182465384,0.8382919686984693,-24.960579152441525,-8.121190333299804,-15.627237726387923
19,-9.611624546538058,2.737273921796215,-2.989597193700083,1.4228512640432516,10.097283967746442,10.841717164593557,5.197017764897306,1.1521156881577708,9.035387141883714,4.87064854460197,0.7509045835452367,-26.288150959066805,-8.643242073586556,-16.18929897239466
20,-8.651128679316102,3.2696672308158545,-2.6454369021978015,1.7441022106343715,10.217231328328676,10.715950299129128,5.108126588129579,1.9256452084960918,8.718254467641536,4.464575034996739,0.700899445372324,-27.502604923200266,-9.107357322536796,-16.629935415175115
21,-7.571159494165154,3.812362332232444,-2.234761887034065,2.086743018281679,10.288729926751014,10.552861785169824,5.0244926588489855,2.7074864974309527,8.39220295658742,4.064392107859573,0.6963853803388311,-28.585655843226224,-9.503829309736465,-16.93511612841629
22,-6.383767617519297,4.353506003958463,-1.7579593752690135,2.4450318733041403,10.30741896405587,10.356761528420515,4.949582169713488,3.4847524746141367,8.066266074380843,3.681305777300746,0.7441756064267828,-29.52052056629305,-9.82445919019039,-17.093663229407223
23,-5.103233197440262,4.880859284800794,-1.217254343295168,2.8125483912328635,10.269676658517263,10.131480328715,4.885710761110369,4.245106015856711,7.7478391148446395,3.325230323469866,0.8494978015791628,-30.29244809848011,-10.062775261489747,-17.097621770841126
24,-3.7458227157228166,5.38207649512712,-0.6167827462548396,3.182246430096049,10.172658436916288,9.880248806552927,4.833906591769319,4.976978806789234,7.442494240195648,3.0045076511892836,1.015737820957869,-30.88920722488411,-10.214210169743627,-16.942526684882615
25,-2.329483601171646,5.844976992278309,0.03740888653612773,3.546507298272454,10.014289818974445,9.605601608338857,4.7938164582605935,5.6697615084239725,7.153874445000714,2.725674617612904,1.244222444650089,-31.30151756809408,-10.276239099613592,-16.627568827023005
26,-0.8734881267471372,6.25779859542082,0.7374377335627781,3.897194283806048,9.793215204925225,9.309306361574283,4.763657082185668,6.313962036693555,6.883658909443998,2.4932785024021307,1.5340468463832797,-31.523407722432555,-10.24847999821411,-16.15566442673163
27,0.6019627828991018,6.609426681534996,1.473731332857386,4.225713791023095,9.50870909522667,8.992316784273166,4.740214308189262,6.901329117978704,6.631592888700107,2.3097426533558885,1.8819553115816459,-31.552480797959564,-10.132752034556118,-15.533430334548973
28,2.07616743472026,6.889599521765036,2.235244733558321,4.5230933742507045,9.160562001966847,8.654751689811345,4.718894186876486,7.42493952792154,6.395579178603193,2.1752880283502654,2.2822874977646794,-31.390065386714998,-9.933083081096683,-14.771063660210483
29,3.5283761643859566,7.089095583658566,3.009745649177546,4.780089835893597,8.748957778680078,8.29590417055382,4.693830324553549,7.879249157195419,6.171832112148927,2.087919486044603,2.7270050035379287,-31.041230714600687,-9.65565393064627,-13.882122027679483
30,4.93826181847655,7.199910270018925,3.7841628542223025,4.987339501202676,8.274360920986878,7.914285934074324,4.658050589956371,8.260109641968647,5.955096557373906,2.04348646026485,3.2058122038640557,-30.514649871219255,-9.30866800482198,-12.883201999734819
31,6.286398055963571,7.2154277749369085,4.544988946601496,5.1355581036243505,7.737431125057801,7.507710380804345,4.603703364850844,8.564753376303836,5.738932743595755,2.035825352561457,3.7063801798725646,-29.82230478590809,-8.902140545206613,-11.793518466900094
32,7.554731643207158,7.130589457757829,5.278723129480461,5.215790899185181,7.138978288644261,7.073415590971185,4.522339586740977,8.791750259884969,5.516063008531178,2.056985585793297,4.214673731530338,-28.97904031366235,-8.447609426525812,-10.634395737169953
33,8.727030581217425,6.942054527634175,5.972333540526828,5.219706063583435,6.4799648636939144,6.608225759432916,4.4052424092257,8.940939528177735,5.278769252923392,2.0975335638982964,4.715371037105058,-28.001990488290982,-7.957778797803018,-9.428689944057863
34,9.789286148984667,6.648343026588897,6.613713043116388,5.139917307463863,5.761555246255737,6.108747044439806,4.243792009396557,9.013339643192838,5.0193216763642665,2.1469207666085723,5.192356220248507,-26.909914651103737,-7.446114498258234,-8.200170045142936
35,10.730045248113862,6.24994671373736,7.192099277917032,4.970316398468919,4.985205511251247,5.5715915032367676,4.029849762476075,9.011039174149627,4.730413108297614,2.193896506105013,5.629259177288164,-25.722491503169607,-6.926414538316634,-6.972888731172854
36,11.540651488429246,5.749392490865671,7.6984310689334094,4.706394209412925,4.152782877506166,4.993621039168467,3.7561444064323464,8.937072447071232,4.405571593488229,2.2269442517217506,6.0100154749104595,-24.459622819112226,-6.412377807378863,-5.770573341422146
37,12.215379925502447,5.151246528585687,8.125619316812552,4.345530290452601,3.266703207637062,4.3722020862446636,3.4166429772907847,8.79528509813624,4.039527573576907,2.2347227362138797,6.319421252073779,-23.140794908561965,-5.91719017494571,-4.6160603770602915
38,12.751460164929371,4.462054115437484,8.468719768732067,3.887234802552434,2.330075593991149,3.705460958345363,3.006890681236426,8.590195545192083,3.628519198229271,2.20649744604943,6.5436621775383434,-21.784535995063006,-5.453141119317063,-3.530787231688789
39,13.148993533646475,3.6902178459353903,8.725005367421003,3.3333315487126836,1.3468442775517826,2.9925294180075364,2.524305875440022,8.326858304876044,3.1705267643580695,2.132552290704384,6.670800170518346,-20.40799387212395,-5.031277817081273,-2.5343442271756156
40,13.410780024875796,2.845822997499647,8.893945451215798,2.6880757499798986,0.32191905661084036,2.2337701551463782,1.9684183602594585,8.010734233178546,2.665432640943045,2.004573803027852,6.691205903898827,-19.02664343003701,-4.661098661195737,-1.6440818457780235
41,13.542077874864644,1.9404229720809825,8.977106349137175,1.9582042431256332,-0.7387142270913214,1.43097223355243,1.3410405738110303,7.647571397923268,2.1151059112185955,1.8160006359097245,6.597928136907283,-17.65412086151085,-4.350285721557287,-0.8747643947539585
42,13.55032139724904,0.9867991167068849,8.977991437825318,1.1529178604415713,-1.8279117094199768,0.5875065294557411,0.6463616749079387,7.243298346246621,1.5234120142755623,1.562329179545915,6.386991418122928,-16.302172736609236,-4.104476758031613,-0.23826346161314074
43,13.444820554704929,-0.0012920842402207606,8.901837895280359,0.28379532009018654,-2.937327245323605,-0.2915695995554792,-0.10904560930894044,6.803929069958803,0.8961474593002594,1.2413621472666376,6.05761120860734,-14.980704200749686,-3.927081832752133,0.25670823396706227
44,13.236459753949662,-1.0093749266469736,8.75538332283425,-0.6353640548866081,-4.057415399877679,-1.199470060427032,-0.916314790282348,6.335476676402274,0.24089895780817014,0.8533826687760213,5.612311718730681,-13.697909975219291,-3.8191552586257376,0.6048130205169574
45,12.93740584810179,-2.0225081368116147,8.54661068970528,-1.5887728284161657,-5.177490225074565,-2.1277112531586058,-1.7644784169445433,5.84387173236601,-0.4331735099946793,0.40123457728801865,5.056930224154265,-12.460472236579609,-3.77933736772688,0.8042390981853639
46,12.560828869433553,-3.025534068926949,8.284477160832502,-2.558965877568642,-6.285845566863504,-3.0662244606590834,-2.6407639237786387,5.334882140499027,-1.1156277144139481,-0.10970764419042504,4.400495189532971,-11.273808432251435,-3.803879808630254,0.856771010297166
47,12.120635041593438,-4.003322772039445,7.978632121104245,-3.5271870448956757,-7.369938290260752,-4.003550842259314,-3.5309839199294006,4.814033912311211,-1.7950973398964845,-0.6716882580157445,3.6549742400872036,-10.142348694859658,-3.886762461912742,0.7677705592921734
48,11.631209814804595,-4.9410105497054335,7.639131176725137,-4.473844055902732,-8.416630535284582,-4.927112807306013,-4.420003467488598,4.286535200441848,-2.4597040311251503,-1.2748374082657552,2.8348993759710446,-9.069818201764553,-4.019901705661551,0.5460666288572104
49,11.107167972126048,-5.824232430847866,7.27615474631051,-5.379017691049505,-9.412481669347146,-5.823548545133102,-5.2922599842803155,3.757208237076552,-3.0975039407129303,-1.9075427898731134,1.9568878801502283,-8.059497289951194,-4.193441277139454,0.20375879155984808
50,10.563108065426917,-6.6393471204809265,6.899741415386455,-6.223006797678669,-10.344075812882007,-6.679091839707205,-6.1323072331145045,3.2304347346414755,-3.696944692581012,-2.5569016126565285,1.0390862548556616,-7.114432882884844,-4.396109554256454,-0.24405609217828456
51,10.013370060342671,-7.373651260961261,6.519547338357448,-6.986888295322382,-11.198367693010685,-7.479977545727123,-6.925353193823363,2.710119842142837,-4.247306325934834,-3.2092197809881604,0.10057027216536657,-6.237578449519162,-4.61562109147341,-0.7796222929715456
52,9.471797839237729,-8.015578203483757,6.144643040718544,-7.653070602611661,-11.963029021787865,-8.21285372425801,-7.657762170523766,2.199678183109602,-4.739100644421456,-3.8505206468714603,-0.8392638018539872,-5.431845528478769,-4.839096844476171,-1.3829153126520102
53,8.951510692674384,-8.554876550493827,5.783357025908118,-8.205819741978623,-12.626779702067708,-8.865183475817215,-8.317494226687275,1.7020430531989517,-5.164407481020443,-4.4670270910945025,-1.761283876048712,-4.700057639564335,-5.053478236191968,-2.032070982916461
54,8.464688631438072,-8.982765794100132,5.443171219963253,-8.63173974715103,-13.179692005819039,-9.425622153964268,-8.894459703157532,1.2196969596738318,-5.51713206158317,-5.045587789500945,-2.647155432505801,-4.044806969097514,-5.245915156918398,-2.7038435072211042
55,8.022374909057035,-9.29206919914842,5.130667218326786,-8.920192549318717,-13.613460155344388,-9.884358450809598,-9.380772523690878,0.754719246377225,-5.7931726178157525,-5.574028759333822,-3.4798042558852904,-3.468224560234721,-5.404115245211092,-3.374085740753757
56,7.634296489086071,-9.47732626677098,4.851515847622095,-9.063646327486715,-13.92163153083054,-10.23341061431131,-9.770892710361778,0.30884540908094116,-5.990491010166779,-6.041421380402826,-4.243796613932194,-2.9716844602587997,-5.5166486453610935,-4.0182474873797185
57,7.308700658646979,-9.534888124609466,4.6104967490761855,-9.057944384954366,-14.09979843725336,-10.466871502969495,-10.06165584209773,-0.11646724130409689,-6.109083044142074,-6.438266417284652,-4.925631241090913,-2.555470544492018,-5.573207239094841,-4.6118887212712005
58,7.052204207878864,-9.46299916141661,4.411530080612224,-8.902488616335821,-14.145750561253656,-10.581097978828245,-10.252194878783675,-0.519972686468145,-6.15085152082248,-6.756600717954115,-5.513943394173961,-2.21844152856642,-5.564820563400247,-5.131205411735221
59,6.869650407590815,-9.261867421026682,4.25769960726152,-8.600332975693753,-14.059587926475352,-10.574841322183014,-10.343767275402959,-0.900573624127713,-6.119394091082476,-6.990040123948821,-5.999628031967276,-1.9577348169736741,-5.484033635912374,-5.553567192641822
60,6.763968580459811,-8.933724811600516,4.15124642310701,-8.15818368789925,-13.843792919363977,-10.449316320306316,-10.33950680913064,-1.2572695389348119,-6.019727363520986,-7.133777971399717,-6.375896002637971,-1.7685519295233576,-5.325054742991368,-5.858067966113112
61,6.736032459117637,-8.48287610606303,4.093516343130627,-7.586304617920039,-13.503258637528866,-10.208207739229845,-10.244124255743534,-1.5891217666544826,-5.8579750007488,-7.18456143677526,-6.638281508837258,-1.6440651228954544,-5.083882308103713,-6.026090386794759
62,6.784517728324526,-7.915733211231831,4.084851625491492,-6.898328212458136,-13.045270000586862,-9.857614150666741,-10.063583546977252,-1.8952402684825032,-5.64104873300977,-7.140666525400887,-6.784619116800386,-1.5754752818713285,-4.758418064543227,-6.041881017199105
63,6.905765576363778,-7.240828765821149,4.124427680245477,-6.110974638717619,-12.479434078890904,-9.40593071394275,-9.804780272990968,-2.174793807451515,-5.3763482721162905,-7.001887056806705,-6.815004322079024,-1.5522361805781753,-4.348569409664235,-5.893125034971809
64,7.093665694083496,-6.468801360827633,4.210045698054633,-5.243684160421784,-11.817557019040503,-8.863674546275437,-9.47524722459419,-2.427041903170867,-5.071501524387767,-6.769545379849539,-6.7317450569614525,-1.5624424056675659,-3.8563384550231206,-5.571500015673639
65,7.3395769598365215,-5.612343829879132,4.337901186175426,-4.31817032559357,-11.073466420236278,-8.243258355218206,-9.082906553613093,-2.651384272488343,-4.734161535498204,-6.446524897820631,-6.539304681119337,-1.5933603056342185,-3.2858902273025454,-5.073179814172743
66,7.632306169603444,-4.686106077885189,4.502355547278476,-3.357903886404007,-10.262779403646,-7.558719354439109,-8.635879910357131,-2.8474216446694616,-4.371870507801111,-6.037318066247146,-6.244231376897051,-1.6320653389097242,-2.643588658210785,-4.399253041800366
67,7.958164658148781,-3.7065447585690103,4.695742545699286,-2.3875394154086456,-9.402617679774293,-6.8254106960013186,-8.142357964078977,-3.0150206881964428,-3.991993129424652,-5.5480785378936925,-5.855065279773405,-1.6661368232172855,-1.9379870167935271,-3.556016932891732
68,8.301119835173278,-2.6917137965398004,4.908243165030796,-1.4322985328703797,-8.511272008578702,-6.059661967382785,-7.61052159183862,-3.154375261396137,-3.6017119299726454,-4.9866624703853635,-5.382213448362337,-1.684353792807568,-1.1797594208874564,-2.555107945336312
69,8.643054018598551,-1.6609920183791844,5.127860753235777,-0.5173253451891963,-7.607819850309975,-5.278414445119478,-7.048500758925909,-3.2660564731203756,-3.208068216374263,-4.362641783298679,-4.837783509193059,-1.677334081213533,-0.3815616422560871,-1.4134361852345418
70,8.96413711306971,-0.6347465508137633,5.340523630126092,0.33296949083507765,-6.711701613442691,-4.498836365316748,-6.46435409388448,-3.351045226414836,-2.8180254398511737,-3.6872715031516483,-4.235368641208657,-1.638062576830855,0.4421879134522109,-0.1529009646295835
71,9.243313118708022,0.36606691043624784,5.530334529091231,1.0955596887262353,-5.842262648411265,-3.7379236240100635,-5.866051694327173,-3.410742812139108,-2.438529297843585,-2.9733943719513354,-3.589779090723172,-1.562263423526755,1.2756124251068854,1.2001220718448729
72,9.458893411665557,1.3203630077169968,5.67997548463327,1.7494329231753751,-5.018270179284427,-3.0120919913089854,-5.261445215985199,-3.44695720947264,-2.0765409829449504,-2.235268897677376,-2.916718887723051,-1.4485844040157032,2.1017661111825987,2.6155167731785043
73,9.589242556927319,2.2074373360067083,5.771263871286005,2.276182582132801,-4.257416781757226,-2.3367680691204495,-4.658212808056714,-3.4618645349180266,-1.7390258273347958,-1.488312431856695,-2.2324111675064677,-1.2985788409187204,2.9031017331910713,4.060363251596612
74,9.613535607776372,3.0075171486181858,5.785841710906424,2.6605452206646216,-3.5758245274435345,-1.725987837659783,-4.063772016033088,-3.45794643178693,-1.4328875419542748,-0.7487585202625523,-1.5531812770326354,-1.1164890202867837,3.6620004733523617,5.500036525270838
75,9.512559909396444,3.70233615128594,5.705967856847487,2.8908679764558625,-2.987565887052606,-1.1920136337429705,-3.48516067548757,-3.4379054295366895,-1.1648465659166594,-0.03323622186132575,-0.8950126233019765,-0.9088525838727322,4.361340570773376,6.899412715793503
76,9.269529753195055,4.275713580306308,5.515372901879094,2.959491518056979,-2.5042182299898026,-0.7449824720203531,-2.928892522336468,-3.4045618545810097,-0.9412679100775606,0.6417136888516564,-0.2730942604154936,-0.6839667854424013,4.985076051477143,8.224118333294221
77,8.870879078929397,4.714115142510645,5.200130483080438,2.8630357716268593,-2.134468268830566,-0.39260024906987023,-2.4007992030116956,-3.3607377930233695,-0.7679482465003571,1.260165560940711,0.2986197019043186,-0.45125347469616606,5.518796050943358,9.441755407761846
78,8.306995817354908,5.0071716607320615,4.7494957965041,2.602577548201132,-1.8837820159284195,-0.1398971334931677,-1.9058730032115476,-3.3091354395086303,-0.6498746803153307,1.8073548716054832,0.8078200228515475,-0.22057065144700938,5.950237757238559,10.523039366180535
79,7.572861312020435,5.14812993707399,4.156662008933603,2.1837112023075353,-1.7541555610858302,0.010940896148157974,-1.4481254086301067,-3.25221826002101,-0.590970446269049,2.2702163704504437,1.2442045581300025,-0.0015160390660584001,6.2697297707071495,11.44279508441474
80,6.668559546037832,5.134209833029154,3.419387728941002,1.6164856817293691,-1.7439617810462509,0.06065126201076024,-1.030476212221743,-3.1921033018348894,-0.5938459915854817,2.637885338499322,1.599777364876796,0.19723428517679906,6.470546276387955,12.180767109416191
81,5.599623613387194,4.966842815990466,2.54045377725252,0.9152139585913058,-1.8479067154751965,0.01287571497097482,-0.6546862269185172,-3.1304717306846266,-0.659575707841187,2.902133209505037,1.869071131687227,0.3685129289056507,6.549155887760602,12.722211604503673
82,4.3771908485359665,4.651770659382889,1.52791479202659,0.09815392560606738,-2.0571061356051343,-0.12595958731404294,-0.3213432004465075,-3.068502718981894,-0.7875192529359607,3.0577117665361153,2.049281752504334,0.5071394464216686,6.505352837133721,13.058249779515014
83,3.0179432994771336,4.198988370930025,0.3951201918252429,-0.8129367420038468,-2.3592880599724113,-0.3468597770853174,-0.029905232773384173,-3.0068337209104103,-0.9752022147675741,3.102585231744009,2.1403063987748583,0.610261216897899,6.34226253815876,13.185975027590006
84,1.5438175449682034,3.6225224138559757,-0.8395102600600967,-1.7933655176891654,-2.7391212044615574,-0.6385610415233735,0.2212001966073396,-2.9455484418335125,-1.2182654043262764,3.038036021217902,2.144679495116668,0.6775355749671721,6.066218624549419,13.108318193403141
85,-0.018521698864067133,2.9400436791122577,-2.1529579323887678,-2.8161788561631775,-3.1786630469725505,-0.987898770984618,0.43442927421995925,-2.884192757068499,-1.5104869811424968,2.8686371073680657,2.067405607323241,0.7111412970070791,5.686514763900124,12.833686992221322
86,-1.6384360549970405,2.172324191698123,-3.5183098748826964,-3.852927789868506,-3.6579147328800032,-1.380227104196892,0.6129391421528271,-2.8218183566380453,-1.8438781283600942,2.6020911777364204,1.9156945580461133,0.7156196254761118,5.215041765666994,12.375406423452379
87,-3.282272560707355,1.3425565546933325,-4.905665969662834,-4.874500788129415,-4.155463868334341,-1.799873070542503,0.7603844864557483,-2.7570534196845435,-2.2088513229685662,2.2489436340676527,1.698610956679048,0.6975585909389455,4.665827876744191,11.75099684104016
88,-4.91448899454383,0.4755646661030014,-6.28320352054283,-5.851992674601286,-4.649190742567389,-2.230609063104518,0.8807097455918358,-2.6881985861674593,-2.594458970033057,1.8221830826830445,1.4266567221650677,0.6651472191764634,4.054506744819166,10.981334560792536
89,-6.498894080142881,-0.4030577383278154,-7.618343208398697,-6.757574015208646,-5.117009022367428,-2.656127996535105,0.9779527640128615,-2.613344771283287,-2.9886971470304533,1.3367497659688417,1.1113107949674272,0.6276364667959493,3.397742755784439,10.089745544163083
90,-7.999940802301138,-1.267838579144821,-8.878953837015803,-7.565323998406289,-5.537608974995167,-3.0605066396134606,1.0560731233493152,-2.5305072384626075,-3.378863806399234,0.8089790199498356,0.7645545399629335,0.5947505072134801,2.7126465444098464,9.101084707142272
91,-9.384004821494397,-2.0943046212504157,-10.034531335115084,-8.25199162090878,-5.891170620390114,-3.428644592494077,1.1188137307167796,-2.437768308565231,-3.7519549040965643,0.2560115321164671,0.3984128980152879,0.5760943647858058,2.016213169438462,8.040850738546423
92,-10.620579784601626,-2.859801911122196,-11.057290409248372,-8.797654904328734,-6.160016402125351,-3.7466688578492247,1.1695985224679954,-2.3334197827758363,-4.095078442963932,-0.304797359356088,0.02453867576430629,0.5806008942658373,1.3248109921076927,6.934378520991584
93,-11.683327772405159,-3.54422272094924,-11.923115074174156,-9.18625504610007,-6.329177384249397,-4.002296087449248,1.2114641489223221,-2.216096041734899,-4.395866719267907,-0.8564414581932424,-0.3461395544204769,0.616052248891564,0.6537417403166218,5.806139506702808
94,-12.550934619668226,-4.130610190206017,-12.61232595055597,-9.40599029556916,-6.386852309017209,-4.185145767380026,1.2470208999695578,-2.084889578909538,-4.6428699866837055,-1.3827797549008989,-0.7036945427459301,0.6887008458703595,0.01688406432054949,4.679167657853926
95,-13.207733948837298,-4.605620252645426,-13.110235862864354,-9.449561767130294,-6.324744411152985,-4.286998030959961,1.2784382409371482,-1.939441655665134,-4.825917968226654,-1.868990306048114,-1.0393992384271196,0.8030051542739609,-0.573573958882479,3.574617450681758
96,-13.644078858277993,-4.959828538653571,-13.407479355916148,-9.314270199350426,-6.138266940976776,-4.301990261651134,1.3074517310241078,-1.7800015386017058,-4.936437896087821,-2.30195193659198,-1.345849940609979,0.9614872890211803,-1.107313412139306,2.5114513238082004
97,-13.85645566716857,-5.187877778211491,-13.500115535005875,-9.001969134886137,-5.82661502158911,-4.226747867182801,1.335388763708894,-1.6074489981889426,-4.967719614031717,-2.6705471209038723,-1.6170199388204405,1.1647116971581943,-1.5759793723960382,1.5062459919183098
98,-13.847349322620534,-5.288468635835996,-13.389516697352306,-8.518886031797578,-5.392708057236233,-4.060446625513067,1.3632096482927203,-1.423277150920428,-4.915120826816221,-2.9658830819336015,-1.8482529817045878,1.411376400603572,-1.973202065433677,0.5731004086533035
99,-13.624884002908637,-5.264203388551075,-13.08206689566442,-7.875327777228277,-4.843012395699341,-3.8048062518997177,1.3915589271981195,-1.2295363420581353,-4.776209013968346,-3.181432339830762,-2.0362089850725478,1.6985003628972595,-2.294558266531819,-0.27637610624615633
100,-13.202274097663327,-5.121297187020446,-12.588703866091087,-7.085290192055529,-4.187257652051309,-3.464016573608112,1.4208209717935973,-1.0287438437466678,-4.550840087983613,-3.31309787735687,-2.178776821538628,2.02168347650429,-2.537488859954365,-1.0330185001374435
101,-12.597129360150179,-4.869175961197158,-11.924343695171656,-6.165992089003678,-3.4380621232173825,-3.0445986544272556,1.4511743202406726,-0.8237676477961658,-4.241176512047829,-3.359210863904643,-2.2749697354572116,2.3754107666000706,-2.7011885039976837,-1.6900252998846035
102,-11.830662881858078,-4.519983296194366,-11.107229714821093,-5.137353774683294,-2.610484029055576,-2.555203954483451,1.4826400648066005,-0.617694803401895,-3.8516483922748024,-3.3204699435853557,-2.3248172772502462,2.7533708986125216,-2.786481660496562,-2.242861576864126
103,-10.926850878761591,-4.088020443561653,-10.15824549837033,-4.021438442165834,-1.721516854497334,-2.0063560565219736,1.5151199660970975,-0.41369540265939914,-3.3888598572282365,-3.1998304056534383,-2.329263941831047,3.1487616355077446,-2.795695809448722,-2.689159932310429
104,-9.911588857313207,-3.589143981816619,-9.100226937588433,-2.8418731132936244,-0.7895485537091536,-1.4101418044086125,1.5484202877670021,-0.2148926579539706,-2.861440955514099,-3.0023495799568654,-2.2900797438888842,3.5545612092625247,-2.732537452950974,-3.0286278573271956
105,-8.811880392897976,-3.040145076143684,-7.957300980317789,-1.6232635134442532,0.16619536536433993,-0.779860945225768,1.582258886378787,-0.02424777713303356,-2.279844140547512,-2.7349924370824548,-2.2097827635937413,3.963752946156294,-2.6019704436265636,-3.2629630763839916
106,-7.655084216792238,-2.458133490709179,-6.754269824994091,-0.39061440804645875,1.1262063549620145,-0.12964446625861104,1.6162564381189513,0.15553422999040567,-1.6560851096125337,-2.4063996491882333,-2.091569515768613,4.369498411831616,-2.4100912502458454,-3.3957724108357814
107,-6.468234331769943,-1.8599485471891717,-5.5160504286850385,0.8312361642212501,2.0712290953986594,0.5259484101185655,1.6499171461853497,0.32207460418049877,-1.0034297869242603,-2.026619816121652,-1.9392469595627524,4.765260230201385,-2.163993663050264,-3.4324858078187903
108,-5.2774378751320885,-1.2616175579023738,-4.267171080716181,2.0181631361769248,2.9827667472493946,1.1723455089850883,1.682608419019261,0.47336620583512073,-0.3360315321173508,-1.6068079229058883,-1.7571599776042965,5.144879913112741,-1.8716161294085663,-3.3802556640662265
109,-4.107347778895263,-0.6778795608865049,-3.031320331838974,3.1472775068782157,3.8435453715497325,1.7953807792381455,1.7135511344892447,0.6077957543272065,0.3314751128045877,-1.15889292346893,-1.55010889130079,5.50261962023744,-1.5415671166626592,-3.2478310953864677
110,-2.9807033519417363,-0.12178901479518234,-1.8309397149291688,4.197423222084968,4.637929951720959,2.3817079167558166,1.7418306713843605,0.7241461085857412,0.9844148894648855,-0.6952188880505349,-1.3232522820755257,5.833179661286417,-1.1829266387792658,-3.0453964532281774
111,-1.9179323561784218,0.3955887822494301,-0.6868513051981544,5.149643392786478,5.352285486136888,2.9191967908954513,1.766433569719924,0.8215830567659846,1.6085326614389266,-0.22816712622987398,-1.0819919492645453,6.131704430333247,-0.8050253844796866,-2.784364188195529
112,-0.9368117503956078,0.8653818322956816,0.38208606933347905,5.987608277141978,5.975276639569645,3.397297726949116,1.7863072197919163,0.8996319989464614,2.190455105881982,0.23022900883696537,-0.8318403169177143,6.393787794233465,-0.41720698175882664,-2.4771155570879455
113,-0.05218836742167427,1.2810108695345253,1.3592939663647656,6.697993666665337,6.498099267827758,3.807356537330355,1.8004334263160042,0.9581501883341922,2.7181296036583817,0.6686607888293714,-0.5782753878304495,6.6154859922081135,-0.028583278929344143,-2.1366882909682596
114,0.7242367272941955,1.6381859743502174,2.230762877204179,7.270795233920302,6.9146374257185235,4.142863042908198,1.8079033811093455,0.997299625733454,3.181216669321644,1.0768940866197496,-0.32659248140824215,6.793343321712895,0.3522041384876611,-1.7764163455602242
115,1.3840557019867072,1.9348089212515212,2.9853069647420587,7.69956302032466,7.221540426858253,4.399617746211548,1.807981928173531,1.0175243922268982,3.5714162351212937,1.4460745700890247,-0.08176380756181692,6.924433492837382,0.7172017891762404,-1.409531901592289
116,1.922228741747699,2.1707954049652987,3.614776805763028,7.981540998335371,7.418216114387335,4.5758051900487535,1.8001519945356939,1.0195345804604583,3.8827132948490584,1.7689720969589904,0.15168404820800724,7.006417035285728,1.0593284606503215,-1.0487437434349443
117,2.3370818779723517,2.3478347764812493,4.1142191984483905,8.117699354104701,7.50673869921832,4.671967899058389,1.7841342404832685,1.0042972937997159,4.111532448149165,2.0401519566347575,0.3697677253520074,7.037612433978221,1.3725161539242703,-0.7058095297082244
118,2.6302242995413954,2.4691059055020075,4.481970857384518,8.112651254165558,7.4916725211883755,4.6908808593244595,1.75988122404411,0.9730332912104522,4.256793911396468,2.2560656260092147,0.56911653020808,7.017075924168696,1.651802872924242,-0.39112286439016464
119,2.8063827247911393,2.538966576514798,4.7196715695150795,7.9744509193077295,7.379817210540686,4.637332960688005,1.7275491575236017,0.927215761516648,4.319867199488195,2.4150593747453475,0.7470134630183722,6.944682080055883,1.8933768548606777,-0.11333951470527832
120,2.8731517294277404,2.562631551704836,4.8321828067915265,7.714275592632457,7.179884742824562,4.517828794944468,1.6874534416355202,0.8685659669091338,4.304423864829508,2.5173041938745553,0.9014091535700904,6.821194710048582,2.09457543868789,0.1209305590269906
121,2.8406608670964646,2.545852575597909,4.8274008260871115,7.346000288495785,6.902123790883757,4.340230948693812,1.6400162753696186,0.7990399380802514,4.216197241109346,2.564654704478503,1.0309109437549375,6.648316233576793,2.2538444718879953,0.307339457848546
122,2.721163107313039,2.4946130911305846,4.715959668486424,6.885680906280595,6.557910648012893,4.113367986557513,1.5857154595007916,0.7208015485621952,4.062664495350324,2.560448713953989,1.1347509876035178,6.428705043703055,2.3706666519924493,0.4439051826740274
123,2.528554957103843,2.414851170470335,4.510828759518772,6.350967994685521,6.159328419476013,3.8466355945741855,1.525042956089897,0.6361798479142933,3.8526732351901507,2.5092633387380032,1.2127398711766908,6.165954490794762,2.44546960322588,0.5309916848280755
124,2.2778453632249174,2.312224982012663,4.2268199089383005,5.760478907311737,5.718756672529336,3.5496173306618055,1.4584797940209175,0.547611388579209,3.596039307283284,2.41664670672881,1.2652142984156631,5.864532377833051,2.479525570802404,0.5711651419770966
125,1.984595822941458,2.191934170771537,3.880026611990469,5.133158495451556,5.248491552109769,3.2317468528757165,1.386490569577276,0.45757031160058154,3.303142336423672,2.28884410845255,1.2929867802912212,5.52968398916084,2.474852895453957,0.5689370745344668
126,1.6643563880072039,2.058606312473187,3.4872229382283417,4.48765699862492,4.760411439840154,2.9020259274118505,1.3095367081699454,0.3684898859568102,2.984540968238271,2.132533717123815,1.2973017022554967,5.167303613904983,2.434125066812519,0.5304128062483859
127,1.3321214398893344,1.91625024996409,3.065250104332677,3.841749380950253,4.265696758538574,2.5688039292277605,1.2281041129976646,0.28267955127943534,2.6506227195592547,1.9545815184993796,1.2797976239923412,4.783779931159215,2.3605881324950886,0.46286881733817287
