,AF3,F7,F3,FC5,T7,P7,O1,O2,P8,T8,FC6,F4,F8,AF4
0,0.045204734659281154,0.01684349184738486,0.06669380547315147,-0.03982972325783587,-0.03475706848831047,-0.026977968579135505,-0.010558873997180581,-0.04039736623137665,-0.013034680926975187,-0.05530182020257652,0.031577035541902776,-0.038136040080960006,-0.03552841865686383,0.03360439106655463
1,-3.718030697762064,-4.975752255055014,-2.4295121323370292,-3.479797428771965,-0.2004039269634301,-0.6124225077522765,-1.933404933979876,-0.9165491058425138,-4.6767024135019115,-5.373267442097773,-5.744033576289179,-1.1435125029518796,-3.6724205237025687,-5.430073101208629
2,0.25891548843059486,0.8442613490575938,0.29982718181600304,0.739136111830057,-0.1559215448435005,0.35919007257179175,0.6860318114582606,0.277269017540656,0.7662561753787559,0.7820274954051212,1.2170353227502457,-0.6945199890783531,1.2882907791098488,-0.02824243785083578
3,3.697705444939064,4.547906875750789,2.4028524866792416,3.153150433970228,0.30073145664154094,0.7574381274329572,1.560748762131084,0.7287350822208,4.436364594962273,5.031717304407253,5.428784577751468,1.591622925124635,2.8271002273012105,5.783114323899002
4,-0.6685097127677169,-1.5099421650189329,-0.6966112810451188,-1.3288713657055458,0.27303366155703085,-0.8597559387871545,-1.2033634561952704,-0.40036099550472903,-1.4816603850876122,-1.3589538185696088,-2.3435453967830293,1.1420895699952855,-1.96714624397498,-0.27884644781719453
5,-3.610072925719095,-3.8192584800298617,-2.3313447490042134,-2.5549839214470955,-0.46628316971273187,-0.8965365222736797,-0.900584752796085,-0.43190878370345676,-3.934192224157807,-4.422954968540956,-4.828242468315406,-2.337608878571933,-1.5826011309210577,-6.25853160221006
6,1.2547772042126566,1.8597651512818767,1.1304979709708154,1.723226941029714,-0.25992560913863877,1.5822009621409203,1.4520330982600202,0.35233645684735865,2.1047554772332298,1.6982075426142715,3.258528077183614,-1.1057319318822043,1.8586017447965573,1.0512248764576366
7,3.3205017873010996,2.968318612949393,2.184798448153335,1.773185774596479,0.6155696913224018,0.8091991423364651,0.08134246723024632,0.12520145375987843,3.163321331179256,3.633936598074204,4.043232585597851,3.096146184042652,0.5302739498652213,6.50755107349643
8,-2.0016413097039307,-1.8889536819437966,-1.5995686618019775,-1.8698446405700373,0.11486434213543038,-2.3974512216743267,-1.3815589229771863,-0.138147606630938,-2.5492373029692534,-1.7580274155946587,-3.9390745344781233,0.5550325597976995,-1.206841276179977,-2.2225874931098657
9,-2.670022872120398,-2.1603510868810725,-1.9201161866627035,-0.9191485944879233,-0.6607090023640813,-0.3436132186014104,0.7534820393136479,0.09911463807599175,-2.146595223164071,-2.747781032178062,-3.15834578779041,-3.5591503444728665,-0.05219120209555717,-6.200727536950948
10,2.766329925402263,1.6908130543635207,2.078252095036379,1.7576886611113318,0.09804320370976068,3.0358871816482775,0.9978549148705903,-0.1815910030766825,2.701794722783114,1.5267835703245318,4.40669554848997,0.3564100985932555,0.5371945077485702,3.4973881240553992
11,1.5590851207205678,1.4839138509782694,1.4927324640959665,0.1086395386399004,0.5531303112673619,-0.4712618175133571,-1.4686138907046054,-0.18915616795656817,0.9704123649033408,1.8367247236495141,2.209771910243801,3.503109060587619,0.10393193775485195,5.18880218561995
12,-3.291872333234141,-1.3934637110973966,-2.5049912500877753,-1.415883691761214,-0.2689484930925476,-3.216401522776576,-0.35022223189454,0.5196108826343662,-2.454972431712517,-1.0017771397941109,-4.678488804903978,-1.3370381129484958,-0.3061871333971336,-4.458759496635699
13,-0.044872439731705155,-0.9364281661456261,-0.8850388709739389,0.5565236126744751,-0.3201572289336827,1.4035919880754064,1.9463019498594396,0.14754794275221356,0.19642897470437648,-0.9797611265916325,-1.1976458684446465,-2.873228786868063,-0.27905999780345014,-3.5992780645699245
14,3.298056239558575,1.0897911199956714,2.7909725422858234,0.9045677246978331,0.2913867555258705,2.7975777454819886,-0.4760106669404233,-0.7997845485479617,1.7638480340888483,0.18724881651613623,4.7292360549255665,2.053571723883845,0.6063495631761878,4.748469685391803
15,-1.6105252017833471,0.4618623290305473,0.13480989312752267,-1.0005689484606557,0.06997899743604771,-2.1060506238349084,-2.092317405762587,-0.01978865249940808,-1.1227959316405602,0.285851494791291,0.13339659614725805,1.8136550492016175,0.10975131161507004,1.812364971142103
16,-2.626660418584547,-0.800729811430034,-2.8536339665235944,-0.3030091797573503,-0.1211886430765019,-1.8701381044864345,1.3578821536036378,0.9852878461147521,-0.7025024964819508,0.8788316340509958,-4.496306576982251,-2.2482481393271465,-1.1178074588466569,-4.239584927948412
17,2.9959744320724497,-0.012536146423113851,0.6592314498824359,1.1792965873890273,0.04598852212071626,2.273610404760613,1.8524778272745004,-0.13651951089072564,1.5839931726496128,0.10791776369742923,0.9155656492442675,-0.6271376232763515,0.597637871707669,-0.31256468709223834
18,1.3649849099540232,0.48877053040847407,2.6578765897634966,-0.30013454561724323,-0.1849777805704181,0.7378513072390253,-2.1366185535006856,-1.083105502683291,-0.5168341196000484,-2.086624582238961,3.927841996210758,1.8357997212546406,1.335039892198814,3.113424706002133
19,-3.70930605022169,-0.404619792204358,-1.3637515945530907,-1.0831459020041074,0.09738778868452859,-1.7922069772581057,-1.2410681396193943,0.28395713100379755,-1.4592735532877845,-0.08002811219869604,-1.8224605487525551,-0.32787929412371636,-1.61511760695747,-0.5220934993599271
20,0.13572952251856632,-0.10712203238812125,-2.2397755761313447,0.8145687160121291,0.4771370433533356,0.20760871073359455,2.640404025140209,1.123662277162155,1.5907190127451911,3.240560189038413,-3.039890714774681,-0.9402179797676401,-0.9147547038962816,-1.7927713335537292
21,3.5451934643368426,0.7231152835357741,1.855665848561383,0.7406957216869579,-0.5289908688369817,0.8011025474119677,0.3641368119489695,-0.419616305438267,0.8096894549630326,-0.4058397443694809,2.4474872088924178,0.7666443365947625,2.428812513011645,0.590291157014462
22,-1.3784954924037987,-0.34884413445532825,1.699467961135453,-1.1585626521411716,-0.5704714082877025,-0.6562108933476727,-2.733125324850847,-1.1294658597950662,-2.233485236214403,-4.097462549102504,1.9383805633109026,-0.14862714430896007,-0.08669520557816446,0.7565630527532688
23,-2.6090745919034126,-0.8515716115641407,-2.060677134056243,-0.21992547982055788,1.1488660663723025,0.36315013692846665,0.5873599276397705,0.562451386639126,0.1161257506425434,1.2487001367845774,-2.702999000016511,-0.5808991118155337,-2.5628702324383523,-0.1076015059865597
24,1.9262434048403059,0.817269424206772,-1.171258203373554,1.274263044519001,0.3316257239114922,0.5094405474247424,2.371062304434396,1.0946897005725311,2.3025466869602114,4.451123896707126,-0.7876606927475899,1.0840126410169877,1.2383207925002373,-0.32718058535966327
25,1.2874711281324691,0.7251293392034182,1.9698086659445948,-0.3790549918330937,-1.7563670850135904,-1.3117266829771161,-1.387162503301384,-0.7226966721766545,-0.9693908271678116,-2.2181305011761276,2.5904961980961083,-0.1302447124497506,1.8749330358416492,-0.5068820284091177
26,-1.5899982858366375,-1.1825057037314433,0.7908174497183619,-1.1438150141359678,0.24979796643298918,0.09071273295611468,-1.633767715450988,-0.9915082802817827,-1.8714368997329212,-4.220827433374748,-0.2504971456055845,-1.5899796085774318,-1.9945256128637125,0.5400266573671452
27,-0.08500026612422185,-0.3471888178972789,-1.6380191003678324,0.9430129463068803,2.1319007245194688,1.764880728921848,1.851161419154538,0.876470346872802,1.4495048991100155,3.0309174704839954,-2.18511016611854,1.113652248979807,-0.634997056038064,0.8374671823691758
28,0.5011267009003118,1.3159310643560793,-0.6714267268505684,0.7967662455162825,-1.045054567525787,-0.8414907213064751,0.7027974578515506,0.8003763127232035,1.1998534139905286,3.4893088691538163,1.0608176149175048,1.5501430519547326,2.0098202623970236,-1.161838100775295
29,-0.5866114013407158,-0.1948885431687016,1.1791138035980053,-1.3712915193970785,-2.133944495252816,-1.6536074450262848,-1.9042171146148783,-0.9674526880849682,-1.4373327932317526,-3.4591769582133867,1.5875780738931777,-2.0700120500474792,-0.6469917046471345,-0.6601446092265189
30,0.9655447414965109,-1.12778164273815,0.8828607398243904,-0.3019941291260881,1.8393512058292458,1.422509083407356,0.20821636263488283,-0.542252463726956,-0.6054790266154308,-2.462336930118761,-1.5731319975395308,-1.0216111143147875,-1.30543258325212,1.8410348153124345
31,0.5582978513652045,0.7447410097221059,-0.7607885186551375,1.596748181318192,1.759810767664169,1.1203094450476085,1.5978064677049506,0.9394194161386574,1.0358137278132904,3.4069641451617665,-0.8910228448472285,2.7605428466948174,1.5125906358624548,0.01189852469424327
32,-2.3675769771652693,0.6127473460453559,-1.4194294390933773,-0.2527627061403033,-2.4291419092872757,-1.631092941722784,-0.9361390167598647,0.2857977267461078,0.3043928571780147,1.3730720241462124,1.732948411048313,0.1797768263230055,0.20123881978218194,-2.2981683804761195
33,0.07620155778415826,-1.1198956224475574,0.5833227493849829,-1.5925774449229653,-1.1350837152829787,-0.4287282594081759,-1.0675054287407781,-0.7799212300728686,-0.4896273588274072,-2.910039196181348,0.19264148001908,-3.064346237421871,-1.7696489712175645,0.8875975718039534
34,3.369206849939929,0.1266606840396954,2.1606396020001553,0.7818541861737845,2.7097268750476857,1.4494220057370832,1.4168356629044905,-0.11762142190680397,-0.3136231802749872,-0.39394271626547084,-1.4922930807973813,0.7644506761379802,0.9093113408704514,2.443273561012745
35,-1.0593625643284699,1.1733619163757798,-0.8200558275054558,1.3659275732764686,0.43767177757268455,-0.1654458783186768,0.4572139646224755,0.5435548207814576,0.030157378813945226,2.066933363651537,0.3695716807109705,2.9739172573426615,1.5110265251429045,-1.8005956975169437
36,-3.8263310979132785,-0.8926102020728689,-2.8566553710434643,-1.2120968248776263,-2.7021163967342874,-1.021297600270527,-1.6739895867270218,0.08977680954337709,0.47633114379961716,-0.38586278399533447,0.8520947084531797,-1.627417048131301,-1.771362083905641,-2.355816405867763
37,2.111485892963289,-0.8551915349678827,1.5232946689393636,-0.9490106216440307,0.19586273037404844,0.5198714086994974,0.1417334578258356,-0.332971828970086,0.25728865088881364,-0.9608972419885708,-0.6115911309431691,-2.5544325585069783,-0.9662651682033456,2.609143536534465
38,3.7599765365570144,1.4450150897516887,3.180363319498548,1.4828108322106592,2.5059990169511797,0.5608904778653957,1.7623860025988718,-0.1781191383826297,-0.5923384978987202,0.9106167027477508,0.06874641899493832,2.273853108205001,2.336238419162907,2.1546662823649974
39,-3.027083138104193,0.24768192323981011,-2.5422167852494932,0.3977211560835151,-0.7217412684161747,-0.6426566750157797,-0.7002814250260204,0.24252390812210736,-0.45886040298294795,-0.3604299575286376,0.36911640528413403,1.9058351978607906,0.32111531338859944,-3.335641857022059
40,-3.2684512741739526,-1.5824736061011473,-2.8562967221108204,-1.5473173435326764,-2.2155339797844404,-0.24467106512785414,-1.7102635624616207,0.2833547786277339,0.5654391315421958,-1.0908590237735147,-1.0072672725422982,-2.61008377106997,-2.6772449747362748,-1.8607736711740164
41,3.6860275554029087,0.4476777206587644,3.5213006418507957,0.20440490575205733,1.1683446918647173,0.6547006140998158,1.211586083545393,-0.2967975123058041,0.7364217454962335,1.8290408180450992,0.3903285616019447,-1.1491903713538132,0.36704041497496503,4.040559688344291
42,2.456993319000965,1.22063722130533,1.8166847962035588,1.386657692061164,1.859840234440417,0.13855511046895652,1.5036642716657258,-0.282128791047102,-0.4665574229077582,0.7937904501241494,1.6281346699197237,2.5795506248924713,2.853250349535406,1.3596242928586644
43,-4.008577068300738,-0.9739287242884739,-4.017668763267182,-0.7513467618860125,-1.5667882518517269,-0.7061920314405994,-1.6390434785433605,0.4253208372969813,-1.1803409810865892,-3.275191193792975,-1.4906110154059862,0.42871345090648794,-1.1259377999561613,-4.682130087821798
44,-1.4307611970916136,-0.43265966749479584,-0.2917626303650488,-1.0307985968150122,-1.4090801871677607,-0.18834909928519336,-1.1221869486945775,0.10196483946604037,0.4702742695736265,0.07778383228580825,-1.6754610104798178,-2.178460398341434,-2.8335018380914323,-0.49674241523625867
45,3.9209488975946356,1.1103376927441542,3.702075784762297,1.141202406433008,1.8913967244951462,0.8929159211495521,1.89802391402662,-0.49608878964859576,1.716253205415602,4.405309453241108,2.581029996848668,0.09607831445827714,1.964297195126866,5.0528962929627115
46,0.3322383360529263,-0.5692819023987818,-1.241890769922289,0.5667071773653203,0.8348624360003325,0.2683235305382327,0.5951465653364626,0.22653162057131898,-0.7110285256221996,-1.4645816442366966,1.1144689242990546,1.4822839253400089,2.5260539538981273,-0.7608446872642157
47,-3.3765182874706494,-0.7538117444347112,-2.5404825673090627,-1.3176976911832847,-2.057849356359986,-1.2111248673481656,-1.8896207279155168,0.39308723941343127,-2.1330666932437192,-4.8885680670219624,-3.282867176771488,-0.2855466252908359,-2.802578282670002,-4.853355042088963
48,0.6380827579640493,1.5054794775139877,2.2537045348131013,-0.11442960421890162,-0.17198971479010616,-0.2575273119596235,-0.031102156725961404,-0.5773142877495755,1.1610350291953873,3.0832233188901226,-0.16491181257466161,-0.6555365350606372,-1.8661145825944525,2.2165479376424573
49,2.417669336820846,-0.04442340344227128,0.8454990687269704,1.2999094874749721,1.9786785515934044,1.5669108354502816,1.5639330388759045,-0.09109176112753731,2.214895039207821,4.519227197953897,3.365428579286416,0.07514107498330418,3.4872463985616555,3.8628496281902485
50,-1.2638794918276222,-2.1226750790878506,-2.400499603845352,-0.22480924191077886,-0.46924081270285883,0.10570570684047867,-0.4059341459933267,0.7966656346045004,-1.6160455227835362,-4.483644806772515,-0.802014415964451,-0.07840435178150432,0.8854364679718023,-3.4737201953579704
51,-1.21756578577715,1.0999301377002908,0.8457666404789373,-1.1729709606346588,-1.6308521600301613,-1.8305528077994608,-0.9684929260789711,-0.3212339496121292,-1.8887608114991206,-3.3555389405891933,-2.8436750881364494,0.47865381186873396,-3.8652146017382987,-2.0970050561217115
52,1.4062014865532357,2.2711634446866675,1.685599905594551,0.41772384683430946,0.9488763416962779,0.14049579850701344,0.5612015505628765,-0.7909267918320357,1.8012465446358488,5.221464848227411,1.4383593327580044,0.5069863679091358,0.28634662447708514,4.091745678191473
53,0.049252676459550775,-2.159948786415534,-2.008871029922867,1.0375795789108622,1.0844831548987786,1.9085675247992508,0.2499047667407102,0.6869461975189306,1.2905460261983497,1.7387091597732578,1.9456740403108017,-1.193896335754215,3.855681085635447,-0.14893257711390093
54,-1.0855642326263912,-1.9371934432201647,-0.4469095416578359,-0.5086602161507878,-1.165089910402396,-0.3617001264683533,-0.356210054132315,0.5792100369382278,-1.530647263583426,-5.0545854213860375,-1.5590711909378958,-0.5102847759277584,-1.478470475399179,-3.775050553597964
55,0.8158226258961367,2.980440514019984,2.3563915770237243,-0.9492704629693474,-0.47615152451123455,-1.8001526256066518,0.39023894444776647,-0.8671830691370154,-0.7064565334868039,-0.16737130425241278,-0.9876319457165685,1.8133672078679006,-3.470927660617847,2.3921891773793145
56,0.49075364516174697,1.227457011276412,-0.8154361252499198,0.5780273632764652,1.0965547000894713,0.42985131011626215,-0.17623744261114646,-0.27879070348090423,0.8211098705685735,4.052261704260174,1.1786751358807017,0.11560902090061093,2.543988704536045,2.490096903652857
57,-1.22276496220212,-3.384711547080223,-1.9315724129731227,0.8913936182815424,-0.04791438724375343,1.610435569918867,-0.758872299366119,0.8144446344843053,0.4264397531701372,-0.9072450502512106,0.2443866166454761,-2.0928288591915174,2.784811718430398,-4.126481638886579
58,0.09929667276970999,-0.32449681076358294,1.6701693025705944,-0.6765209166229547,-0.7987849659080318,-0.28405756329762133,0.8983939569023567,0.03488196086412134,0.1063402034233145,-2.55678364822484,-0.45621105325023376,0.5032434422191684,-3.3873067338987277,-0.46543634008847323
59,1.1927567079088996,3.290358041738876,1.0346599267975305,-0.804097545588533,0.3791741877290826,-1.5095722703873318,0.7269246382947924,-0.5898572197672329,-0.5978765969264201,1.2545317578042061,0.1191654910959652,1.8898946574572144,-1.8873562575410967,4.966506957270194
60,-0.43720431283437305,-0.562121568187075,-1.9185581448579991,0.7837281848976206,0.3699509268520676,-0.018411484150802345,-1.6032708310863584,0.059675617457579176,-0.9344868879752999,1.0249896551779323,-0.3888565617250389,-1.0835246055839336,3.9468258194374,-1.893157863428237
61,-0.8950476022109333,-2.711268850027629,-0.042734484758836636,0.6496195668783649,-0.46368850142340085,1.6513972210432195,-0.2642888543212746,0.31921788649223104,1.1626524710084378,-0.920227818737755,-0.05334569237997873,-1.2163594462649658,0.8673308947465553,-4.72129989969101
62,0.4047137771793979,1.23508639293863,1.6171995084521695,-0.8242976318276007,0.0841641566412811,0.3063031970619641,2.0641709782269797,-0.007493047200974063,1.399708335025416,0.1587926162516768,1.1374474860890063,1.3636990629153256,-4.1644915895373265,4.106468475430556
63,0.5533948532192968,1.74880814832193,-0.7652095799555282,-0.4647212908680836,0.2954301835288579,-2.0890600182294983,-0.5465593701007836,-0.11942197766919083,-1.9059486311847729,0.15210726067248848,-0.3939454901977533,0.235662547664625,0.16655193421651493,3.4076392503622857
64,-0.03832336771937055,-1.5410257725827727,-0.9757357637159239,0.7326908940234298,-0.4695382297587176,-0.3600974203543714,-2.090076581846187,-0.10745924794164892,-1.396908025594894,-0.8023664030299239,-1.603791806755098,-1.1709149858081433,3.9842545061172876,-5.703867087935576
65,-0.34302211761719437,-0.5774494729558426,1.2880877325307953,0.3582232298774657,0.09624200958387849,2.7332170229877755,1.5203184053895913,0.03966403645303905,2.5773419422481374,0.7453207280825435,1.086999379084011,0.7891433537992414,-1.054348560845623,-1.2437342891660428
66,-0.5195629582481692,1.4014087353367346,0.21168549477961138,-0.5208801189083947,0.7107898974379364,0.011583286904100917,1.5808336914662324,0.17606695417489965,0.986984490913508,0.9126133755159418,1.6679464823008074,0.47603648092598816,-3.3955971834456427,6.2918172338662774
67,0.33137282626417625,-0.582809486736863,-1.5685205822444985,-0.4502386796355712,-0.6558022756798689,-3.3801205872065343,-2.4084906018701218,-0.047085219164706184,-3.0058632710761732,-1.540174688028083,-1.813794834782359,-1.5753709134873162,1.5880369789127253,-1.3595862262377316
68,1.1061450600094875,-0.8388330775938129,0.5486604770357335,0.29995172944654785,-0.7543205573962012,0.7743715437697772,-0.5667904899198047,-0.12661337630119807,-0.31761466135740446,-0.6128108509930755,-1.322328172168556,0.5980686452303833,2.496245995408676,-5.637671954020283
69,-0.4840131376625337,1.515373731557286,1.694301621468612,0.7905093771738702,1.3090282503391115,3.798080149915318,2.967711624059645,0.05806686146964907,3.142600198940048,2.125158250356292,2.3320097873468963,1.902506881606069,-1.5731022723032348,3.8363592590939057
70,-1.6096257909044196,-0.01911693611669333,-1.2810542414537796,-0.2376395571719132,0.5692322160722438,-1.88139283082686,-0.7898158582902989,-0.04010877181089085,-0.47962669624580323,0.03689461273911036,0.7070910758203671,-1.812881288901661,-1.5219118177176856,3.76960983570885
71,0.7184223108727462,-2.0686914179217197,-1.710479574035954,-1.306839646328335,-1.9694035860314059,-3.825149196120255,-3.034842440683247,0.007795297006779818,-3.0172065702326996,-2.4856970739181596,-2.4609734390726477,-1.673674057997827,0.928797008324292,-5.5723413454967625
72,1.9933582931508018,0.9750600571888411,2.0054044318361366,0.4748954688598836,-0.14426738464645505,3.0950750044338395,2.2427764805592236,0.25761790937802226,1.343872312592192,0.7345204430474219,-0.08786153398294375,2.881460055856824,0.8018053981740945,-1.044339120633216
73,-0.9663288075827453,2.2016856822413655,1.592070207381876,1.814225725259336,2.53779764683974,3.4245508172212773,2.5720277630276507,-0.18235774504981941,2.6533958738042034,2.625390504096133,2.182018346026851,0.9419187540508777,0.22860247432279837,6.085261093353459
74,-2.2720258963570883,-1.8301653827393332,-2.714752634852118,-1.0469453295862268,-0.5125571744561159,-4.193362628480292,-3.54049039357767,-0.4332586689277926,-2.258292355841634,-1.668951329893993,-0.2460116699107213,-3.5471530012450136,-0.6420384476995086,-1.887020170590118
75,1.2096073739901316,-1.9822758171453092,-1.2780935667963524,-2.0792550683386333,-2.8938097193981607,-2.6731739705927797,-1.6567353349745588,0.43458794008866997,-2.015004307483196,-2.5051309079178714,-1.678144059521411,0.10523704094681839,-1.5770376988362522,-5.218535693242752
76,2.4641070430031577,2.4515837798438422,3.3401034406508567,1.8469832318659452,1.3575584624215178,5.020059678035224,4.492603605120991,0.4955341700113438,3.1701766490622783,2.7250852068227567,0.1275202079513795,3.6531743925567164,1.1866114492011217,4.2485912801666315
77,-1.4763426651991929,1.534636466217975,0.7303685183642545,1.908481862662178,2.894028114568584,1.7015678058122334,0.4280272463226475,-0.6901333514854312,1.0305452254750571,2.0349087643715187,1.2637010214671147,-1.1997682178339324,2.677074328959052,3.2482413927008924
78,-2.550600352652273,-2.7972424643778235,-3.7652501337462034,-2.6454415932301285,-2.2751991544766637,-5.5058398602945635,-4.989208852922756,-0.42404965151382873,-3.928004177398066,-3.788195872190693,0.3793725908312523,-3.1841817365869383,-2.3263560061910056,-5.401256521553774
79,1.8047533789258872,-0.9688749741617727,0.02375957592221414,-1.2258103608950903,-2.403605342924416,-0.6304619696843425,0.9678142568546734,0.869310726111696,0.31499140752186483,-1.1243824461395657,-1.220220701241942,2.0711773213020725,-3.1298792059287583,-0.8250612991245653
80,2.4612205539069434,2.8822803434730377,3.872543296539966,3.154734193291289,3.0467877180801866,5.639925491870225,4.97468230045307,0.250407579374797,4.2983475920703444,4.642515229579741,-0.987361098573389,2.2665628937136097,3.708067503255654,5.084555385059715
81,-2.194047058300905,0.3442916182513437,-0.8836378811779101,0.11498313457762803,1.3720677494773748,-0.4573528362508527,-2.391714839612712,-0.9210574314270457,-1.886969430545377,-0.2323262775168003,1.6234311068658391,-2.524670120413415,2.7394641702803573,-1.2471956706884895
82,-2.0968065491077814,-2.7156033848116965,-3.590237285417783,-3.1187590178924527,-3.3682661466365422,-5.425996748539611,-4.4160044692540446,-0.0361571712701658,-4.070391464894077,-5.006356793102829,1.3288438279349135,-1.1253603885764432,-4.851043215637913,-3.5201074443054976
83,2.565875247778953,0.305311686739332,1.696970861896702,1.18494690354909,0.07576253419647612,1.501340343440497,3.6839311703026967,0.8376596777840165,3.382833527990093,1.8808332388669504,-2.269808311061782,2.4929671685337547,-1.6063070166523594,2.3046084324975578
84,1.3839668941246421,2.2623932240902884,2.923176454039699,2.403602914288918,2.9461060663191043,4.859382631408032,3.3096115036719422,-0.15590752001404326,3.190387627496762,4.6285342638785805,-1.1684729646295156,0.011528300823862346,5.329193184772219,1.323012059813616
85,-2.760754499436652,-0.9054527611219714,-2.2963721261564234,-2.3351236731044387,-1.5976956426552409,-2.426262249239065,-4.634474641760432,-0.6493181659691948,-4.4208258970572265,-3.4861395147864944,2.7655789152482844,-2.043074885995281,0.10430938713435939,-2.0546211158631316
86,-0.3422169354063878,-1.4730771432750156,-1.9636597623090302,-1.0627459027445822,-1.6496890015278662,-3.941703158909011,-1.7349783336857085,0.2830940919231043,-1.8397683996885876,-3.4156585061451588,0.5622908412564235,0.8731069325542121,-4.944275645624526,0.7334004289821724
87,2.58508500064143,1.2936208811730685,2.5412013904152473,2.9959312992517266,2.6998489628234377,3.1184275496747556,5.003374668750817,0.4075021366883542,4.698229086069918,4.599198250493789,-2.7463335696816698,1.3369998530212175,1.25882645705005,0.6492120138295494
88,-0.8715090936681908,0.3685276032160651,0.8839906184739701,-0.6513189135030842,-0.3558173426632539,2.720962628907831,-0.08551407204046237,-0.3319866645026876,0.3998401280756426,1.53559156562488,0.14459555525927625,-1.4236157432607315,3.813244061309045,-1.9857338227052663
89,-1.900992219398321,-1.24564660455459,-2.3604207585308856,-2.9431613372144785,-2.914977822451223,-3.4386413554692976,-4.609091331447939,-0.16638412636912275,-4.134738103863402,-4.807668967267085,2.1063097691108137,-0.5659601332842584,-2.0443060189082285,1.4091587149751006
90,1.9773714241299043,0.8782972709394263,0.0919026546557284,2.346105455082559,2.5875022925793263,-1.327375085070665,1.7832994417131427,0.3173124579563407,0.6878124075043073,0.5651475029924702,-0.5006612226421123,1.6365958294238758,-2.325056238497749,2.0709071710323257
91,0.7214052426717673,0.582604134379571,1.7885831217424955,2.1577125742780785,2.0240745176059938,3.27132758299078,3.4476076144345997,-0.03305601690688208,2.922448285683681,3.9224947262038987,-1.094011262166588,-0.11082030764382607,2.0601973789786077,-3.4594072553035713
92,-2.6592926827809773,-1.934988144972439,-0.740797734545937,-3.608319442473648,-4.3805962248513115,-0.023724698308674012,-2.9349465206933907,-0.2730812553840101,-1.0971622177596878,-2.2691009886277924,0.21564564296425548,-1.5787716973669448,0.9800316466011219,-0.9894251951374958
93,0.7432601774921315,0.6943696639060037,-0.9789064163243841,-0.8464619759883673,-0.20632202042665027,-2.586908842693458,-1.7661608915236986,0.1741401155811889,-1.4550502134298064,-2.1159511739187598,0.20071781766154495,0.5981331616535042,-1.4324139981706692,4.880645623808729
94,2.6967925438147162,2.4093144439856307,0.9087418127276213,4.141253641073246,5.143662287694046,1.0735479584053813,3.2260735145452872,0.23759166745234478,0.7443275772149581,3.004974977130162,0.6459586872705841,1.3438318696285794,-0.18181670931691954,-0.9399471419379212
95,-2.1268158511578266,-2.325175096007017,0.17706714438153656,-0.6218465694536701,-1.9781994213135057,1.485192830936664,0.025134053510949623,-0.26755867148066015,0.17125905767546137,-0.07288020150498545,0.10588392079076951,-0.8638425452232333,0.5344475592456674,-5.240222234210943
96,-2.0815243073869425,-2.0239789625986404,-0.5728174239428742,-3.8642081674562885,-4.618215698980303,-1.594987101484723,-2.608738864276599,-0.23593488374603527,0.19234207986061114,-2.493839560052734,-1.6696293697438742,-1.0211052902438231,0.07726843709509111,3.18593792914124
97,3.036213323424475,3.8332365387161245,0.346621459651708,1.842984002750795,3.7877737618567133,-0.19475811204297988,1.2600947987110167,0.34317273868117215,0.6128753142084751,1.8998746359940075,0.34978303395791815,0.9203706656921007,0.19081068998761744,4.379121328004159
98,1.053605777519999,0.7814681300048846,-0.13295681585472996,2.932287914961188,3.0107778515408814,1.473004672200053,1.3591454521197495,0.2674484529853733,-1.3625432772978996,0.9080777289197323,2.3005057512445597,0.6836112706627482,-0.5174897754840652,-5.13482068943614
99,-3.217647410965969,-4.694300596618413,-0.3873550002292531,-2.5141542818044202,-4.596720446946411,-0.9779898799398722,-1.7316288105400555,-0.4321076739276291,-0.8077148653997437,-2.697914233161373,-1.339715010442008,-0.8071146523284556,-0.4321085256952544,-2.4434023404876126
100,-0.0243516713644848,0.9763441090183899,0.9458438292795444,-1.670390877190559,-0.9235405588817517,-0.7579500118248431,0.013075113509526693,-0.30584928187140425,2.397812269845034,1.1502996176080453,-2.140605575950058,-0.38689878599695243,1.1547449866058055,6.23147899843393
101,2.6802228082978226,4.564319211902607,-0.11596816710294036,2.5263211977099576,4.1511592790619085,1.7360087304049165,1.3481235247282168,0.5475095634366342,0.5489667600776955,2.160870069379778,2.3440455606731305,0.5803669274810573,0.1390273918167248,-0.13812933348091913
102,-0.5925390976961227,-2.6663235698183105,-1.5523400140262804,0.451744829689306,-0.8880804360240617,-0.3314058372859002,-0.9723487794090652,0.3138673673296541,-3.0560984494212313,-2.8655478479225693,1.1647938080541742,0.16730429307610006,-1.6251675524280722,-6.121693813997766
103,-1.7071859315139997,-3.4546676236294704,1.0472344224440013,-1.9787194103342411,-2.662380455777509,-1.8868804188075976,-0.40285891470809587,-0.675112600325552,-0.10117475541708355,-0.4940217350978977,-2.8209957291308303,-0.304870056780057,0.47978054509176704,2.742624403111192
104,0.5663484071964321,3.69275427015282,1.6896408367419744,0.42818544108427625,1.8162022128447468,1.4613634657418595,1.1817679953533637,-0.26532498354445366,3.2933380827003207,3.5343694354732693,0.26262672799487813,-0.037658849163436536,1.727101539617406,4.767199523969621
105,0.7356231812423705,1.755854153582135,-2.139712401047519,1.1168023681270212,0.701129769983362,1.413461962748225,-0.61326564452288,0.7802819871203799,-0.28153609848511457,-1.6503803899303573,2.4835333462495157,0.040451950979601144,-1.085087142986768,-4.71246625188499
106,0.04351678871747214,-3.7030212134554374,-1.2342840381154199,-0.8337938003324116,-1.6222565467641052,-2.2810252598144656,-0.632337420906291,0.16191349556549106,-3.2367598311173866,-2.857013377816164,-1.5728799091801835,-0.012449635919585755,-1.5072090161671834,-2.4859288790726066
107,-0.15585012408071938,-0.08317385441524339,3.05441133810354,-0.22607492790316536,1.0467880686061912,-0.49222055441347534,1.23408590163777,-0.8285895496909438,0.46798979975744937,3.432311223092371,-1.4364458732191046,0.17359051628436115,1.3956117705241233,5.555480641339446
108,-0.9212693808540402,2.740874791816841,0.24707364352186628,0.8008250107259675,0.49107916918527966,2.5359344183966614,-0.38415697842728147,-0.033800653717020485,3.08367238006405,1.058735794959822,2.272593172088811,0.0060279391196031585,1.2110636796647911,-0.12393058467536264
109,0.13207137337720712,-0.9858098806300744,-3.4831907773369117,-0.47053234859095505,-2.046090563256106,-0.5545275779523734,-1.2121861127117832,0.8080123067297246,-0.48450911373413474,-4.162578297979895,0.11199900428755363,-0.3263856622485348,-1.337828549939207,-5.1172531574545035
110,1.6579012632629657,-1.2166379448209494,1.0393834773218713,-0.4829280006773065,1.086012604665071,-2.15911672159362,1.434286532517017,-0.07760604919851005,-2.9842249053480323,1.2125942516424943,-2.1706555602071407,0.038320249692161835,-1.1242442875972236,2.3751879695044167
111,-0.5412138227240816,1.149890679164446,3.243598396880377,0.8710440131507682,2.0872494262238503,1.364366477803458,0.5924592435414829,-0.7385614805892692,0.4639607359974697,3.567848737490118,0.9490998997221651,0.42871059330881967,1.0756934696515754,3.6436017477253495
112,-1.9570804568506988,-0.2865012975697244,-2.2843936464685317,0.06664078410213588,-2.528573508906517,1.3018627200242796,-2.141987805151013,0.1450960844215359,2.9689323094116253,-3.158926256487263,1.4449291581228654,-0.11769523962314796,1.391035088980199,-3.7347493631042337
113,1.0628270830820665,-0.48206530544560766,-2.3387272241126333,-0.9933157064647335,-1.3147772936503992,-1.665502541973618,0.3547526549161048,0.6620480739580596,-0.5464497034961028,-1.8693075045098284,-1.352178697001602,-0.49551495105053395,-0.9021842601012671,-1.6862850148389694
114,1.7702100509119287,1.2632205892652735,3.1347959629128033,0.30304479988915006,3.384200630681916,-0.2834346303708813,2.3253684953296414,-0.17357775975501435,-2.951630525524565,4.143513075078045,-0.5318239852735211,0.24099872838795233,-1.9146394165100435,4.011492959863578
115,-1.365577889385698,-0.6462003578288902,0.9673093400998248,0.9289993916249077,0.12154420092586475,1.3821991068477968,-1.2844684375257336,-0.6171225336295304,0.7893715554244625,-0.3426043486363171,1.01488324568065,0.5308108666633106,1.0527694487557315,-0.11919352350160851
116,-1.2896211616988695,-1.4682022444322722,-3.3286818900873114,-0.5582967376638904,-3.462870693363641,-0.5297600316396811,-2.0189131741481976,0.19854345398458093,2.795575612854319,-3.9047110559845075,-0.09200416043536533,-0.4124685471339265,2.3995248685041575,-3.39541615635634
117,1.2809466430288705,1.7522089834487427,0.5199591345266282,-0.7843134204084556,1.0266872763004349,-0.6669002896775006,1.9216865192609063,0.614585565632008,-1.1316711217405029,2.3587562451180926,-0.1774076836981038,-0.526707051246412,-1.5483023782741192,1.3007957933548653
118,0.8145910266253558,0.9600449913537519,2.782462626436779,0.7024338379295201,2.8541253323066136,0.8709566049571916,1.4003021545417524,-0.2648792673148893,-2.4003848403120758,2.5985112381372746,0.12511906581850157,0.6169190619222121,-2.514785925036465,2.328982621278173
119,-0.8684011160951088,-2.435161144546566,-1.7127128709447297,0.6359910825737894,-1.7575801972276697,-0.16261854621608737,-2.134220949443586,-0.6284576704252728,1.422831915706367,-3.6042684146801736,-0.7315045677466336,0.4763206777784741,2.1598901316386425,-1.6999467890137294
120,-0.5776178115392631,-0.020566351260239035,-1.6351005313157014,-0.7790871717381991,-1.8453918970946015,-0.6825200162181133,-0.6861812302523588,0.39813986792879363,1.7645044418460258,-0.6857558256719887,0.4421046803705498,-0.8207980306718103,2.086425644090181,-1.2844526368132
121,0.34756939594350117,2.4943365829842414,2.2643233561140117,-0.5142361641031288,1.8912829149030956,0.7604371409650793,1.9253397613091592,0.6089457893860241,-1.49427780097659,3.795692606880714,1.2977294817421203,-0.38714931790240037,-2.5184579798898388,1.4578236745748527
122,0.6326889114719398,-0.9838442491500992,0.2260711316498544,0.8374902035546706,0.7937864582281077,0.13525300039939334,0.05652400019836136,-0.5854154235610746,-0.9974962978161326,-1.2570867613547376,-1.3506655043229008,0.9893377581630111,-1.209642860228705,0.5707083841443225
123,0.04749110441958965,-1.9504800413888683,-2.012331915363561,0.40888868086480606,-1.4543881596013934,-0.9048415748786436,-1.3835896205742397,-0.5102512115657393,1.236095189057993,-2.971134315536234,-1.2974415685220726,0.28017418435850316,2.30944762156604,-0.8684358805883351
124,-0.8594131471231367,1.731306141422899,1.0006615615269636,-0.907344800220435,-0.008042546004214411,0.4561723616000892,0.37193624068557773,0.7774177844560017,0.2831028062996963,2.716818872392408,2.210804789740751,-1.1043149013861078,0.21806466910822642,-0.2653467248130922
125,-0.19915736231783412,0.994939587547105,1.0502528516140304,-0.28854390683551523,0.6287817223076582,0.5938907473431064,0.6344650301508197,0.3173406827372874,-0.6469763299236718,1.4232297057213386,0.771856753879831,-0.17396214714114538,-1.446417904389415,0.2023452677204564
126,1.0635658766476277,-2.027235735046123,-1.644887449748412,0.9876197160247989,-0.32423807853157055,-0.7844873427588355,-0.5402231980119795,-0.9108671120230919,0.18673760505583298,-3.3611683525675966,-2.682140441653539,1.1654629418878515,0.4736960053750093,0.28230080332028645
127,0.15089699610860421,0.09527279551423778,0.28793251573706824,0.12332734113593585,0.32657505748450577,-0.03612219741548847,0.18569799168483095,-0.05659685973151169,-0.15843752726831029,0.41205251126445774,0.02022717306891877,0.06973487610058869,0.13058693928790657,0.3932113258337192
