,AF3,F7,F3,FC5,T7,P7,O1,O2,P8,T8,FC6,F4,F8,AF4
0,0.14620078198286962,0.11648333028981912,0.08830495640694666,0.05282929229481162,0.008587416053941635,0.0330263250686252,0.0031750810141227895,0.06278163814247686,0.14724626963189152,0.2010756470905279,0.0694634455724881,0.052524099080555976,0.08741520029092234,-0.013339966035309918
1,1.9624964245308367,0.31318668513505554,1.2633786113418322,-0.7022824547699235,4.061090348762347,3.8006236011217425,3.7812753424916363,1.8124405796390701,3.6711497926040164,3.2891789016242696,3.796988600335188,2.3354659443661987,2.3779542370553877,5.8313552330268665
2,-0.3920831610503414,-0.2872681907324713,-1.2417974240469667,0.17369002792174126,-1.8869470127663148,-1.0115895640403647,-0.7648623091338966,-0.5725940721335743,-1.672625752457503,-1.4327067179800819,-1.8684129852347597,-0.4108733364528049,-1.9694113499925796,0.213283178380764
3,-1.5675992034032098,-0.07901852681315316,-0.39479817698995734,0.7738442129462753,-3.21744728608887,-3.154572932462326,-3.306485141720739,-1.1275573344962038,-2.466667002830692,-2.1336551731947155,-2.4963348080021293,-1.8600797383620904,-1.0260681983859168,-5.545934295253783
4,0.30755999028874625,0.21595408953399522,1.778512208381842,-0.487602618596274,3.2469708694649753,1.5794337817824708,1.1863350190914557,0.6153494732533255,2.3991680122972103,1.8501496742817392,2.77849182038036,0.4206049770456033,2.8471532003658315,-0.6149902976449997
5,1.0643511008061821,-0.17876739351389145,-0.846770132604398,-0.8223980548832045,1.8507595048870709,2.199145613157082,2.6380610280802625,0.1311102764744759,0.6114356995486008,0.4504246473067232,0.5211863346693624,1.168334859582836,-0.9571841837233069,5.131955561587667
6,0.23412844809629987,0.17789542541828854,-1.4195299032091537,0.9094437539154342,-3.7668352124237376,-1.542181027976252,-1.1114377416147623,0.03181081831171842,-1.900256551020021,-1.0853860456569417,-2.3312129824543657,0.09152836315690398,-2.2111108269355793,1.3348920737129037
7,-0.7834149537485225,0.22757195887596782,1.8420273403322194,0.7709070978638138,-0.4163781293441669,-1.3208462811756803,-2.115323691982525,0.6907307282858748,1.0697476273007072,0.9176124471973718,1.1957234286845155,-0.6338470919042103,2.5366810420626655,-4.846606957029619
8,-1.121555114890497,-0.7925831273044773,0.3250249736791088,-1.40491932038252,3.410869289106945,0.971632909751581,0.6325120096231234,-1.2626136180333212,0.29031302884900634,-0.6364613499357545,0.6947764665050906,-1.04279997566922,0.2763978843665277,-2.312475149842878
9,0.9891454820036865,0.08570245420689061,-2.09228440380109,-0.5660564532608268,-0.631983768830646,0.8432487962153796,2.0071791882310612,-0.920264894233764,-1.8279052528855377,-1.2891520712393456,-1.8379600058996723,0.5816894960582768,-2.8292062321775107,4.932602579463096
10,2.0391575746737627,1.4024670538396296,0.992353307598581,1.9009059651135654,-2.4301231906250633,-0.15788165876460925,-0.04176711021385092,2.693415492504922,1.8334848503738237,2.617200152641339,1.4073579790183333,2.1271699367814745,2.1188578380939163,3.308328208921187
11,-1.7280211953228495,-0.7459740312961383,1.4704294964493159,0.20533877712045231,1.0151991332570762,-0.8777829993271886,-2.370944992324671,0.3963713336982907,1.3076799186929589,0.4793408730376715,1.0881468848580582,-1.1339015624181887,1.5324040206612535,-5.493855271831923
12,-2.6143014252387253,-1.782519930160427,-1.9366657406286305,-2.3216594738997207,1.250256819437301,-0.5461441799139033,-0.3220415376064577,-3.8439447632884427,-3.6605860660727156,-4.046291688776739,-3.0421945684616274,-2.9543851192772257,-3.915270517793058,-3.98617332819673
13,2.77645794040741,1.5786966191962803,-0.274434686205988,0.26408361043523676,-0.7285370867779761,1.2884257126126792,3.0230986789311696,0.7271226281943928,0.3196248937185984,1.1297320984793715,0.7319364174620909,2.1520677159048205,0.9298647922746069,6.420604612290864
14,2.6133058383942416,1.823251221572555,2.1360793417363695,2.624340829870594,-0.2921978081331062,0.9032777148864702,0.2494016707441605,4.352614421001038,4.519339608484196,4.4084010242832585,3.5070296302642303,3.2268376327844783,4.334953303406181,4.051349939406209
15,-3.7319833677047844,-2.3422207802112447,-0.9447759154820491,-0.7749550485411452,0.024306064878709316,-1.7874432206722672,-3.6387009307934908,-2.072512075911925,-2.4598159006451437,-2.8131653074501966,-2.8278035367637426,-3.301992072580921,-3.6135076701374995,-7.405152154373132
16,-2.082277657225928,-1.5759190612070013,-1.6220836576352877,-2.811370239990481,-0.197218969132283,-0.8965430383647167,0.23782083711387988,-4.1209819872955205,-4.15005041850055,-3.722357546520269,-2.6489854502224373,-2.868815706961732,-3.23858455042739,-3.3871270766646675
17,4.2148747241590865,2.845912660900208,1.684114739642813,1.2793330127013205,0.715992943657245,2.105764129644388,3.9235912904505517,3.2229029748261695,4.376659228549978,3.893142002025105,4.317077151105029,4.20488235532131,5.503747836797173,8.049606519556237
18,1.3447780328387167,1.2150458215599087,0.7865448329746604,2.910654246037401,0.22855717993707897,0.7051139182487255,-0.9119072277086386,3.3257593099019607,2.781069204526821,2.4932861111037896,0.9141031472600564,2.0500066517823,1.1672492027763077,2.126288390956956
19,-4.077219116435991,-3.034391123399078,-1.7517075306844894,-1.7706719532188262,-1.161776681497623,-2.1404573279612222,-3.763256674083099,-3.9054589259158057,-5.512254763156606,-4.082795579583962,-4.6407773682141125,-4.600725310500894,-5.9835922649862034,-8.024204021186032
20,-0.841504238744464,-0.946209378350356,-0.1464872820099555,-2.9367298699688287,-0.028689637500120116,-0.5709441296317819,1.47332016101446,-2.3057387008698744,-0.9877801157077719,-1.416973566842165,0.8872755742459104,-1.0984355621734367,0.940757258765384,-0.621363438019072
21,3.5000307164691113,3.0058401174585887,1.3526886697764493,2.271413336366574,1.1800394709610917,1.9973528909696059,3.268965538520877,4.089317163278069,5.700401596638394,3.607306660920738,3.804389056043583,4.450040375965156,5.095468584248518,7.209955228905031
22,0.8886134176326781,0.9027532593564861,0.04909693320173428,2.861583795610468,-0.10286580291602945,0.6360789398250335,-1.7147351115084126,1.3873857439326338,-0.585239835117431,1.0027878482458825,-1.9750280715258923,0.3479429245301825,-2.2093218436129605,-0.6801115984456941
23,-2.9129228092722443,-2.9623236164203526,-0.9577810080839636,-2.793004552047417,-0.8765219633512379,-1.9083087582814007,-2.7028609144794915,-3.9614924950596127,-5.185947009637973,-3.051124689554851,-2.342697383175727,-3.933380964271848,-3.479436164684335,-5.7624853608632565
24,-1.4860711031212535,-1.0724444777160964,-0.47612655992172925,-2.6201863538022137,-0.03516300520729158,-0.8452875941902904,1.6250125544147138,-0.7340954025224877,1.5024259616102547,-1.313564159865049,1.9596712001692091,0.009777678926623307,2.2318536238547932,1.4064791688666909
25,2.7676120412695986,3.1107118310593056,1.0301586404142884,3.297011704552727,0.5121406667530612,2.0734453129128045,2.3304672401279394,3.8009721339172327,4.459146188994916,3.0232480349824766,1.0384715006095744,3.3534935714636434,2.031551392066202,4.064368909985127
26,2.289160599914147,1.2860348173656062,1.0496431599789795,2.152418455711681,0.43926868726331253,0.9707241133862607,-1.3820311770256788,0.28801981121413966,-1.6897889473535277,1.9500904670119077,-1.0004355858932965,-0.004154988401855727,-1.2324472112659304,-1.4061275485267832
27,-3.281950395720001,-3.549798375018725,-1.7564721114620223,-3.688273478737414,-0.3423597798549855,-2.5197629971586175,-2.2833938822861524,-3.8149732081222902,-3.9994514525565235,-3.8192717324511687,-0.5395451856913202,-2.984597778504604,-1.4585298355535834,-2.581367316445216
28,-2.770779234150877,-1.2825707795649477,-1.2344553048453566,-1.4556528664800892,-0.9159583073131208,-0.7465608959521096,1.2465997418602157,0.1700386730340966,1.4046081382831028,-2.278312534207484,-0.3034033350306977,-0.13868225844233226,-0.08684940271743015,0.8004736547423309
29,4.2952973196799995,4.193464953824089,2.9229494457529483,3.850392090951969,0.4706119697579904,3.0582201291093303,2.501881988587713,4.017712644645653,4.05765490188482,5.251805885534678,1.0597402450865696,2.9356733284192282,1.948713786491974,1.6834845945259234
30,2.4956574847024817,0.8347256772648618,0.6310764056402541,0.6114753832937048,1.2053063732107947,0.03902882988834965,-1.4207516910574751,-0.8720502234657262,-1.057388951865377,1.7764610431083154,1.223029642903981,0.11465801106302222,0.9249509663039426,0.07769463447162621
31,-5.32136673789133,-4.7766637185780985,-4.002290592872876,-3.7044457823513466,-0.7984023797202311,-3.3677968113716465,-2.77893230833451,-4.214466053179973,-4.574344499401321,-6.73042870483999,-2.300648922041543,-3.092134778633672,-3.1158578919648323,-1.5098757171211117
32,-1.3614346485288984,0.1194142929567988,0.793488153338562,0.2349106128970143,-1.1366876112045379,1.0451165327784095,1.946482926145521,1.900262238132761,0.9901522885453775,-0.3243276404211926,-1.2548698185317138,0.29700227751584385,-0.7901188863124421,-0.8298058533395365
33,5.778507923406926,4.957546062771157,4.408244015071327,3.25467726288172,1.0959498271095955,3.165445558374248,2.873833995237605,4.105341525813311,5.255248424076813,7.546924566003113,3.619703559556875,3.1690170105357285,4.232868787343017,1.9347526316128614
34,-0.3242998429862314,-1.4077574470774896,-2.6574236160776774,-0.9333748705440358,0.7228277444483678,-2.1779239039953207,-2.6924658685638887,-3.0989141660073867,-1.3248558754864967,-1.709363426587208,0.348915925310939,-1.106140635293653,-0.26844607576135077,1.1524442516276043
35,-5.279416598126358,-4.476810630073228,-3.787581708335858,-2.592012667013828,-1.1434666154352688,-2.371229213542557,-2.6310057493536916,-3.4615371548292457,-5.743933859601985,-7.222605779128079,-4.351275288408142,-2.8568767178985532,-4.6261951594811155,-2.640844933382386
36,1.9741629000762677,2.6644694424151805,4.322827633372117,1.3916898063631673,-0.14043915625123737,2.9551232584839995,3.425928294204184,4.1166362682532345,1.9441874145818852,3.623043273777771,1.0905650085162355,2.083869931989646,1.717201523630226,-0.9439843859517414
37,3.8296983486344214,3.2974095955893636,2.2015094271264317,1.8524687160016877,0.8526894731500649,1.175576389883703,2.044415826231994,2.2818656766672563,5.792745026773471,5.7474630837342335,4.119937299636604,1.9924869995632988,4.022251558799122,3.256936663600889
38,-2.9910569818839234,-3.4697891605755378,-5.178777001066247,-1.6061391179618867,-0.3805765356953475,-3.0942860222450843,-3.923665458801352,-4.568560106804218,-2.589161078443914,-4.7035553908987335,-2.4184875223243263,-2.85534832155753,-2.8427943772447968,0.3211750800892497
39,-1.8353950137082078,-1.6515726552230747,-0.11030562069289705,-1.1553094870806884,-0.29788452281777994,0.03516812802609054,-1.2430557410012342,-0.8381132952947644,-5.350668188631378,-3.5958587095994443,-2.9988179503016927,-0.6685014893647993,-2.6670362834239363,-3.4945404280465557
40,3.0405749999477054,3.5268349771280674,4.907113044229777,1.6440489862966199,0.682281524771377,2.580567584806124,4.062219548178475,4.237611477470832,3.002048148906095,4.554903533316816,3.0622528232503567,3.0731587956917243,3.134571115848107,0.4440690300663064
41,-0.0788110246535629,-0.03309779836471009,-1.8214671767195494,0.5575036817458898,-0.35023671659749994,-0.8613328680684538,0.41727566929462,-0.42736685809482255,4.544224653445836,1.5134256725413437,1.4492961186485385,-0.7763874521466442,1.1650257343866088,3.2341139515234847
42,-2.193705886498551,-2.7925074169235096,-3.608678298535902,-1.5921408021444212,-0.7408881674760045,-1.6782961337649092,-3.84715501460262,-3.205093622196058,-3.03661395318269,-3.2755724109548194,-2.781669954588726,-2.5889757843912142,-2.537678905101204,-1.0279755638419357
43,1.3453259733630343,1.2972965964078484,2.9971577809439958,-0.04952719983002721,0.9318700191557222,1.084062803728926,0.2664049843608883,1.1052971845638988,-3.586187212101958,-0.18214263375303047,-0.08583780569956324,1.8860616620548785,-0.1370839986639498,-2.546300462257066
44,0.8795363337586554,1.501604300124078,1.7465310212433427,1.5048150125640491,0.6392852333376453,0.798828822815091,3.3805143280076373,1.8346296569421952,2.6930188085841564,1.4030995588337885,1.759066117538783,1.5418489731364051,1.446560727283119,1.1590467461393477
45,-1.6896488418759963,-1.8299663357760514,-3.1125880185232737,-0.4096349451646256,-1.3727184012870854,-0.7646678823051679,-0.717535593096183,-1.0168329580728832,2.673836170439833,-0.07148894311697013,-0.6121908810281679,-2.2765101362368005,-0.1066299111968456,1.6600430814666476
46,0.31792758274762317,-0.07363292504014499,0.04995369284883587,-1.384027555186218,-0.48518418599899643,-0.2963957817334919,-2.7990253521660406,-0.6144250256336734,-2.082784916363072,0.3378499315520446,-0.49136525186450547,-0.3227025196161136,-0.4576475671333898,-0.7015344326999986
47,1.2224926613613487,1.5849533013486985,2.2470981890196535,0.8453852428403156,1.6856553922130277,0.1958178246297207,0.9252327101374479,0.2995520874724049,-1.9255799527335657,-0.6116580909664222,0.5062217297242092,1.803858687736726,-0.29977059355226354,-0.8928567536143823
48,-0.9158920414284513,-1.0550749084577276,-1.2253610817623743,1.1988821323688452,0.3395941191599499,0.30463934477939847,2.2235007564287956,-0.05892612811967411,1.3612036821585465,-1.3522852911846874,-0.4513445557306583,-0.5696682156799366,0.03368029159007966,-0.2923467841266312
49,-0.35883363205904123,-0.7852985299982003,-0.8033557113015595,-1.2409684979991698,-1.9155158207003917,0.26322389591537454,-0.93007175668656,0.6583250376221055,1.3695323635449108,1.729703672389972,0.16323622654795258,-0.6427223684791994,0.8966459666610747,0.5520374550369493
50,0.7244238481541786,1.5993896729466552,1.4874130620556407,-0.9253565523341089,-0.20112427426420088,-0.7000322764522774,-1.740100210145014,0.045175894394116095,-0.6674169590710657,1.4032868133971088,0.6831837652446706,0.7241015291452081,-0.2714888781079013,1.576780621873294
51,-0.38505980342828333,-0.18245798766846083,-0.6623068590150014,1.546616617277018,2.0794414200045974,-0.3700213606158299,0.7957957901456723,-1.3932832824560972,-0.9669718901092346,-2.6715623542910096,-0.907932236145194,-0.7560760825053153,-1.181846131620945,-0.8219554185441514
52,0.10414152978292121,-1.5215426335020859,-0.8840755089945004,0.5750574453865257,0.04396855040991901,1.2011007937635312,1.404231183678062,0.49913674964484295,0.09223350992232016,-0.6586416240908566,-0.16407214398390374,0.008653297248244608,0.8909155938285386,-2.7719806721907334
53,0.6168373541059838,0.9331851402681907,1.6460393335243593,-1.7126057541116522,-2.148757433342263,0.0995278202358434,-0.5995339165483489,1.5606832643706416,0.64491079235928,2.980622136634942,1.223300740560014,1.8178587854596515,0.8857900115399306,1.6739376325329858
54,-1.1758334673559259,1.0184174844893386,-0.24528300850523171,-0.19409664435237522,0.1310099545373528,-1.534542459446238,-1.242369754574681,-1.2076477188707788,0.3305375776014252,-0.4374187959208986,-0.794353603411179,-1.4289434229609634,-1.4270921161526549,3.488616215136841
55,-0.21605749832394341,-1.233182969258954,-1.8640923866863772,1.7188817523944024,2.079902570004349,0.3832055532704153,0.43250149858330894,-1.0633042424234587,-0.32360698482642625,-2.513278219480219,-0.8182325498872378,-2.0589449169919853,-0.0895320262263456,-2.8472231357041693
56,2.047257473114022,-0.41329405705009703,1.4149909189565155,-0.16205178828833824,-0.27595346312698227,1.568827872381161,1.2381178495649874,1.6650029486524658,-0.6233267667952123,1.3810615923670477,1.6719856415306646,3.0307288651403503,1.497521177265623,-3.477900689561602
57,-0.6510521552806803,1.072867879959784,1.3278549460963247,-1.5805169566342567,-1.863682656392702,-0.8452065583399435,-0.3877327742286144,0.07301212616073047,-0.05922403482016721,1.4462071205124378,-0.24877604291904895,1.2882185741538534,-0.8582182519752116,3.9283415979194722
58,-2.4163708514644413,0.0065249204631912215,-2.1746824589488116,0.45471647683881605,0.3212904346821818,-1.3470097425689878,-1.3150823661471256,-1.5695048928627804,0.8600235177116763,-1.8078822179019687,-1.971931341256978,-4.174548189390413,-0.9909148559593245,2.7396319556700566
59,1.6423632704960751,-0.6386693319262433,-0.3086927212186881,1.3297330968707082,1.5514323767586808,1.1197318976984643,0.523145552630678,1.047944559156113,0.5214620742595659,-0.16170085587893251,1.581087265573411,0.2894101484201914,1.5533178241519403,-4.506666273057501
60,2.227679151271241,0.0471690965295051,2.259431316767047,-0.6691580726844898,-0.22565434301107198,1.018183652868384,1.344599194903191,0.8395943120396424,-1.1486085546610434,1.6021355549964336,1.4490497981677886,4.337090369012855,0.08858276613165293,-1.5303499063603931
61,-2.4130714664064667,0.20627024286972045,-0.7842887977630776,-0.9934400473295827,-1.2372540367539526,-1.174717418473435,-0.8174514495051167,-1.887407445094748,-1.0113445368277392,-0.9193319013187295,-2.6044434326470154,-2.127224792738107,-1.7465935548334792,4.3376453233113965
62,-1.653495921914711,0.21485027173180615,-1.6576376945120823,0.8008881641109878,0.013030421705815141,-0.726283010014606,-1.1933495145726245,0.36572950480648253,1.5913163313611067,-0.8983595107230186,-0.23989890089229893,-3.3363668014602,0.8676989725549038,0.26198304713859943
63,2.764937577617523,-0.008212044313717403,1.5603429455853142,0.5865212161503917,1.0083636514161638,1.0890086411648952,1.155025503948753,2.1329801535641186,1.4017459946631434,1.4889783751744141,2.820182008743732,3.5447455372358596,1.4429907499060992,-3.4355369627675247
64,0.9741768142092534,-0.605396012667981,0.5815946905075243,-0.8369644225179761,0.22897654375195708,0.5302228421866264,0.7930047297375776,-1.712923071505104,-2.2289711492626876,-0.0017778368292780383,-1.1722180002965545,1.4246559419951255,-1.5682050402955052,0.661216121858698
65,-2.7037434085962824,0.13446310537377776,-1.7764082687466736,-0.1260941011052519,-0.8961541913787585,-0.970144746927842,-1.3634430034200498,-1.678907012056044,-1.521634969786434,-1.44520718982203,-2.046851254819869,-4.007287461462171,-0.8567765964164392,2.0533698497697292
66,-0.427681675253904,0.8927332940291407,0.636064403015912,0.7516574514067209,-0.38875547877989963,-0.39662936945507277,-0.18966375340036182,2.819757443566229,2.996959256904245,0.7579862798265932,2.15934306034703,0.8062834015828175,1.8789842489507458,-0.9887614255516709
67,2.3884967406267474,-0.5065468901837489,1.3960176661951749,-0.34659875465962026,0.8571582069089981,0.8772530521225068,1.2913524434903831,0.6530269123578623,1.2231647983350196,0.9072749619549044,0.5340185717444824,3.3471292716704615,0.27042642012100454,-0.5677161566097384
68,0.10811927737767552,-0.9181701720619055,-1.6719145969124907,-0.524052388857596,0.38479310700289837,0.25300358607998297,-0.46222057626936863,-3.3938782627700217,-3.7246413953199067,-1.1233075570314448,-2.2393696816836286,-2.670205537007934,-1.8718440158220153,0.6883550640345545
69,-2.0132673548978417,0.9327797489128485,-0.566351739659761,0.7579838945568789,-0.7926508172058189,-0.7960000799118333,-0.8840464677358559,0.6443411377426587,-0.456757019568504,-0.15324864183451115,1.1226051228247618,-1.8181762757537,0.11416113789243977,-0.6673488683220117
70,0.040382666784357465,0.6707996384271367,2.3156716055075655,0.16695771479707852,-0.2064043537017306,-0.05374074340708177,0.9623809827598028,3.3305545103261616,4.189303629215697,1.037514651648349,1.3189675469376259,3.66313729766487,1.745051888387975,0.08708648670942923
71,1.6947349896486081,-1.215236589282583,-0.46502489611338843,-1.0205527757810788,0.5948796521003162,0.6681384570582245,0.21407401498639272,-1.8624550471170893,-0.685641723462362,-0.5014899586940957,-2.2419886923990004,-0.03677098083544311,-0.25476140077084314,1.4264222504484998
72,-0.14415447151971258,-0.2834443190844627,-2.513485977979827,0.2551522192751601,-0.07559824503689277,-0.18474000528553705,-1.1496935372139911,-2.730832215321815,-4.202932314525635,-0.6442033283055018,0.23995795622466914,-3.638328221355673,-1.6935284413621514,-1.0930813678838096
73,-1.4284830300196243,1.2527027928844199,1.4514942724655993,1.0716763083254026,-0.19865873787164254,-0.4428872556963203,0.5472919903595544,2.729863572215698,1.985457842942392,0.8414839577375676,2.3752782835485884,1.6270420624711892,0.24864826563109738,-1.6426467265103062
74,0.2913292719093464,-0.04680100373282213,2.3444336119270734,-0.6374946186933039,0.33012781477308534,0.39155629601030084,0.9653699511400292,1.8355168089584668,3.6894903025484593,0.21515384408494703,-1.7783818436514007,2.8089677819756016,1.803805778566953,2.0880109239219387
75,1.1325146086944045,-1.0841633490951104,-2.223322055733378,-0.9099032121420916,-0.38089142058667186,0.11472451922035125,-1.1985175428412407,-3.1356247316509287,-3.1655283869764146,-0.842686506689838,-1.5187033550660367,-2.536678263207985,-0.23872936573278275,1.3738047720367748
76,-0.46368837315606465,0.16745086578678897,-1.9535182689802921,0.8754606625224495,-0.4110358477491082,-0.4744353004989526,-0.46817383941577634,-0.9101872701227961,-2.716970026096977,-0.008293589695048504,2.6527494037158483,-1.606609029931944,-2.0271926307297115,-2.886169089010082
77,-0.7438432220363155,0.8507079770581378,2.712522883778823,0.6036575938798163,1.037299308459871,0.2658800838975926,1.5810495504462676,3.1303134403340698,3.978643252835968,0.6661937599483923,0.10569360515479227,2.633158524301292,0.30785235395939836,-0.7476213317447163
78,0.5522222197115576,-0.04452882008479152,1.4812290833217083,-0.9130472762348079,0.21333483102600012,0.356024137569752,-0.19640865044161282,0.14016511068631995,1.475594217611432,0.12969718530364832,-2.5420248137780943,0.489839976141447,2.238445063247758,3.368021764366565
79,0.3018393802783286,-0.7039971617386733,-2.9294184617656316,-0.26282117739766214,-1.594687036735999,-0.6023491295109933,-1.6283356752293021,-2.8567965536997133,-4.27858947150667,-0.549422895642053,1.222259758360243,-2.04579288371982,-0.4255719016521819,-0.07671054330209541
80,-0.4475073801008169,-0.23964606630348467,-1.0243679836480917,0.7700981188701728,0.2769675824071617,-0.0034237572661524416,0.8527678783083288,0.4141861251940489,-0.2197280965907919,-0.4799473274176886,1.5849122841633028,0.20453379636126365,-2.3384157044594636,-3.4763770731344685
81,0.04224331064525401,0.7226092674704441,2.918484599519524,-0.012592121601773157,1.860854957325777,0.7740881558008446,1.3788301194656731,2.457813456568699,4.05322830310527,0.6537965214374013,-1.942077222079593,1.0640087958246374,0.47947961172887976,0.9264201927480312
82,0.14607537201276907,0.5539852507075548,0.6380275733026524,-0.5310182127833426,-0.959709016081534,-0.5504858379558782,-1.3547883927592146,-0.7894845659098624,-0.8005755671672538,0.8215484243956496,-0.27490083228608114,-0.32777264934971745,2.3325144178274173,3.223683359761093
83,-0.10640974192321849,-0.8877127673219032,-2.727718157617449,0.1772521582762871,-1.6981471582731427,-0.6698693097786859,-0.9557507037544033,-2.016342066798943,-3.4217193120137797,-0.963237734064374,1.8915329085048704,-0.02177646769689696,-0.37124748628182164,-1.6365596991267626
84,0.2032306981290997,-0.798299652152207,-0.3598923118784145,0.3011577813573459,1.639966594732089,1.1997508163465038,1.6321304536214463,1.050686620980455,1.4014190885162816,-0.9283621882493017,-0.8209368331946059,-0.0846402617994678,-2.330373321353498,-2.7049772759294246
85,-0.19407981667628416,1.1235189028178696,2.4089519101205825,-0.25371141038868206,1.087266682724799,0.23071223789205517,0.522372744787612,1.5573659862307134,2.606201877613797,1.3005567047205029,-1.296604026244196,-0.7923265428436288,0.11398558005438783,2.0954029310455717
86,-0.3572720309677064,0.9407816441090403,0.22494373161360645,-0.1559299125568964,-2.091186366352348,-1.783842823649678,-1.7127905480160475,-1.2353608277401518,-1.514861023793463,0.7220385972640967,1.3528272046563605,0.8554090905922378,2.462062901144645,2.0845114054002223
87,0.7555579494902799,-1.3622593814357387,-2.0374643327233937,0.3088883298226825,-0.15546818089132133,0.5120786118187562,-0.22298477436990224,-1.093721918408944,-1.880891403084933,-1.45137517503317,0.5831094109863303,1.1930790854014943,0.13854787632875873,-2.2997436354727014
88,0.11854649474002746,-0.9967527287233354,-0.25066754066938696,0.11011496978189593,2.143206014288841,2.135815699671881,1.7137816422511813,1.3483571396477643,1.2213837913945778,-0.3068332910578615,-1.3231107873485717,-1.724776310627587,-2.762786840907768,-1.5320365660925088
89,-1.302082192325541,1.5825967340833549,1.720118056264539,-0.4097360507425246,-0.8498525637789558,-1.4268593800584375,0.12380368370223913,0.6675777525035107,1.4960990316795324,1.312034440572179,-0.09995836021791302,-1.130432598280036,-0.1598180010962925,2.3739074801889313
90,0.5254110371139973,0.976535200672888,0.40153693501172266,-0.1213561307903528,-1.7611457468327976,-2.1438326911546,-1.795004758615527,-1.4016168326786167,-0.7493641627797943,-0.11849340726867623,1.000608940238647,2.4193979661419474,3.1029170696566193,1.1273102063034586
91,1.5142975535472585,-1.7982433408433172,-1.568320708422415,0.583183219355255,1.6400311415946645,2.3129047644884744,-0.17657472260757284,-0.34620633320298716,-1.5864660834701183,-0.962091863591444,-0.07399190812362484,0.6936957316521805,-0.2189625715946577,-2.513906888692586
92,-1.3545520763064638,-0.8481053125820506,-0.5653110425767884,0.1228422115957023,1.0795431380661336,1.7960683554188168,2.0837526050692476,1.4557069567552745,0.4215730982340712,0.4109022453177759,-0.6863741087320454,-2.724475206699136,-3.21482622988428,-0.7934933831558272
93,-1.2015399976053995,2.0137094621860334,1.6412216351509998,-0.8003484828584523,-1.9906053542383206,-2.962200231965897,0.23059501946675154,0.17120360533579618,2.0963551556278226,0.6134053753960098,0.12954478658583465,-0.07984614576805676,0.9928218043220831,2.86892359829451
94,1.999007467798716,0.5428428344252767,0.5729426296538541,-0.06650598433728422,-0.37064717646255996,-1.1868166820578085,-2.5988189583325862,-1.6158126596761284,-0.5461255890259574,-0.5940148857852928,0.4881942725128909,2.5428526932145785,2.8084379882349477,0.3192095522947037
95,0.4163353139665112,-2.1853515136722623,-1.8935373554889998,0.9915851177019471,1.8323613645463526,3.222747973614282,-0.10317544007941051,-0.10373336077015381,-2.76790192068916,-0.46925199991556643,-0.34760585071911676,-0.4738390129668994,-1.9509893301304801,-3.4276333574587587
96,-2.1099108844208048,0.0016250339770527626,-0.2662767688130533,-0.045278099194855155,-0.04836707220879922,0.48520304370560413,3.2183534046059545,1.9709606664594128,1.2844325425499932,0.8554108633302768,-0.24663205518620557,-1.9177735499135824,-1.7137337139654527,0.5246180051852083
97,0.5545288218293639,2.216494281195577,2.167948872544639,-1.0845976557173544,-1.2879755594686344,-3.037409935272552,-0.316231004811993,0.019829045431150123,3.2193015094094037,0.5843852602473141,0.863466767021764,0.7725176509413987,2.7474637914668745,3.9881452425768216
98,1.5245835494622473,-0.7915569121203028,-0.4178884903579153,0.15556486971227376,-0.0625525054784233,0.11361823480162016,-3.7237550625499884,-2.5157484350285246,-2.5571543936962158,-1.4305901687834086,-0.3449607853826022,1.0047118679657037,-0.024922024902427974,-1.8363470046165185
99,-1.3133552040030771,-1.9880146163246342,-2.2479136358930285,1.047604443628067,0.6325709712979458,2.451694305308933,0.9851883577457713,0.22367788322743992,-3.0957694814251693,-0.8152245680160715,-1.5280542002364566,-0.7261554673507036,-3.0352211754492533,-4.241917541945978
100,-0.34222073795319446,1.7489327782325352,1.3953426775555777,-0.1804732817345482,0.7639358197728073,-0.43538580909840163,3.9097035481884874,3.1183356684225862,4.044846724518082,2.446007607383649,1.5056039945745163,-0.0024256812347607432,2.146082026639006,3.496451347695509
101,1.5191379701803092,1.4044068874544193,1.9494120938543358,-0.91577308866248,-0.18684194373331522,-1.5998936371176373,-1.707337341762024,-0.6881399738548389,2.229590677392621,0.8918973904119475,1.9564482776306986,0.36088227860418853,2.5967571768021047,3.926728324892147
102,-1.1159934050038471,-2.7141553724752243,-2.4458896087443875,0.05825627663508098,-1.9013702269470159,0.36532441992797565,-3.7027367917055805,-3.572796938086241,-5.297637010589246,-3.817485069571639,-3.165720125288227,-0.9212193900622385,-4.252235611747695,-5.198212240155163
103,-1.0187387425849646,-0.43498000567789874,-1.2063630541220658,0.7837419215659749,0.18331829672575062,0.6784628240978349,2.2251819960187382,1.2876473476596566,-0.7304496153468282,-0.5688963237087523,-1.7385583502234476,0.22327082221208075,-1.4164645884788754,-2.95746799149575
104,2.428030861276741,3.472339114428106,3.285228143407493,0.20352135244606717,3.1603545082306335,0.12053385286608873,3.2147924213345833,3.7135748101081067,5.910587373490643,5.2641116374783845,4.927213185514172,1.66830726861127,5.92968261136231,6.576483666698348
105,-0.10387926200817471,-0.8563922318373786,0.10962061534401624,-0.7611158124771342,-0.6651812717529947,0.09420786955355856,-2.3599131440930075,-1.813034588639933,-1.0425460341048052,-0.23358702414276442,0.6895787721416845,-0.9165543095810043,-0.32132293745138324,1.4604666829305328
106,-3.213461662426486,-3.7965013890848502,-3.6640792661976924,-0.5108092737995392,-4.193736587814631,-0.9366328308018033,-2.6917577614545944,-3.520415446691661,-5.684275496417083,-6.428170113927546,-6.215752397350819,-2.1989453843514375,-6.857904188695154,-7.354536235755089
107,1.5601589052560312,2.2926510666345217,1.1141508445971846,0.9084570675840037,1.4688382929873576,-0.5336339728863089,2.116329959318993,2.039701112734582,2.6153379579513727,1.3749992922775853,1.0043218241718141,1.6403872917537248,2.2895632150958156,0.2971079052554253
108,3.2490450454626227,3.5102382116791953,3.454505861027793,0.7138597425157643,4.764348888055019,1.8968273601206442,2.3809769752723025,3.1427548576799977,4.697461223572306,7.033486745487653,6.545954124511405,2.49052087960192,6.880177853173621,7.4267089661372365
109,-2.9456719722524793,-3.586860855008603,-2.1709986650942037,-1.1882213608398122,-2.3032721385237456,0.5490978467134612,-1.6881164250395029,-1.8550978570378687,-3.574709391617869,-2.550437073509226,-2.828598962096963,-2.341182367290094,-4.100160779459713,-2.0266615872658513
110,-2.5340632795458347,-2.5686270668142233,-2.6959436908177805,-0.6790486508294623,-4.831932578384813,-2.7620801628528997,-2.3927402691561697,-2.8236197406518952,-3.2657170208199138,-7.000362685955388,-5.759804529547165,-2.511243574010614,-6.0320651277106325,-6.846433988251229
111,3.8580150962589497,4.3926666274781025,2.790507667071337,1.4646636236962673,2.8874523940005425,-0.18083899663370198,1.3578970627865061,1.3269496905691278,3.7066284666348057,3.421956802991699,4.151813217505579,2.954395746190084,5.389616036488949,3.5116505767942496
112,1.2963926661402165,1.1303727722868453,1.5902920985236937,0.36718143799075326,4.540406030557173,3.317383554334757,2.634869865580561,2.76782146765082,1.8163505172887606,6.466163567471001,4.117320794706807,2.2356605831259406,4.534394645417692,5.752223787073257
113,-4.0208800668963365,-4.417060228346707,-2.8134027547096534,-1.5632876843686427,-3.0727618710158855,-0.41040307521680863,-1.347999436384895,-0.6708664888593244,-3.0484025167217346,-3.7575526985684418,-4.501306329140496,-3.382316738423033,-5.902437767256703,-4.633588125255234
114,0.0668825937127349,0.43238413582895646,-0.4469470786239291,0.12788540554884092,-4.117411509347229,-3.446354059309415,-2.8557277123678517,-3.03318929827839,-0.7416406135419311,-5.711783411346608,-2.196931655804772,-1.6894909964829914,-2.7505801317596528,-4.292867085875288
115,3.3854163918518183,3.567168123340496,2.252372392851497,1.3646096443144593,2.8856606138088914,1.0039950962211002,1.7030069112007884,0.13794984355706053,1.8534684960009855,3.515489378270356,3.771713367925921,3.5173229618571957,5.565526551490167,5.341614389929931
116,-1.112866963510333,-1.6320144215149466,-0.41232002025707004,-0.6103099843189336,3.748380309255109,3.1672981463409857,2.7699148469189203,3.50687045669819,0.2856618677539933,5.0358468278731205,0.6544556340717838,0.9798902343454304,1.100280003098873,2.594113798723926
117,-2.1691025877116203,-2.054087249133503,-1.3035946024881808,-0.881162255848167,-2.474649670646049,-1.403830630867531,-2.2626289125511696,0.11122918632747343,-0.4999060033416941,-2.8430988060835287,-2.2716328606242477,-3.3014507718940997,-4.5297190375613186,-5.607843948110747
118,1.5141384856000943,2.0602424907738786,0.765673977295926,0.8749600714513831,-3.498216992728169,-2.6128353992836266,-2.2002300919359796,-3.9757142600104287,-0.4895735154049982,-4.634578929056499,0.049458790348716766,-0.2727670174225271,0.06755728870532964,-0.7671754508469553
119,0.7967955228870742,0.3692985060036453,0.2929793654079347,0.2694763335603303,2.003220193235809,1.505127459975147,2.732506757634099,-0.07615282403320328,-0.6222421361897941,1.9974609239971641,0.5892116567156139,2.7765329676776718,3.1408468792828503,5.4038105350575085
120,-1.1990350026123402,-1.5949575343163713,-0.5818657642506825,-0.8153015174689846,3.3182376142989285,1.9655913699135452,1.1679997246037164,4.24537532697055,1.1942115914529126,4.536646420209411,0.16634561703507217,-0.2805879356208255,-0.6054019929841212,-1.0682453699509922
121,0.25712950471793977,0.8942154175545897,0.4387578963071368,0.23804180949948836,-1.558114128261237,-1.311828654159664,-2.813372311111291,-0.10420777842375784,1.2206681353728475,-1.2259812289485832,0.6635276236254187,-2.0776511228424526,-1.8186362792429542,-4.704659975435995
122,0.3980016775942445,0.49816521782763457,0.04364404633687895,0.485547259640353,-3.1201724196253804,-1.38632872468031,0.10501797799013315,-4.238971916639909,-2.092342564990958,-4.617789290294726,-0.9882508038463927,0.6199822209066962,0.6320557153072395,2.7698203429499326
123,-0.6718945489780578,-1.309509398593991,-0.6758721088896132,-0.4501323032952979,1.1239540286230003,0.9027160776385491,2.32817830830839,0.2433053605945089,-1.1878479034758562,0.6603465676539578,-1.115028830920273,1.3614696800951784,0.8747287366487277,3.5075574632809894
124,0.44844349262015987,0.6754869109309964,0.5239876522351976,-0.07733423356912968,2.861102672406293,0.9726422087570762,-1.2775685813278141,4.023541271593683,2.8252129080776474,4.68734154948388,1.870324862684667,-0.7960230724228259,-0.46992842261668394,-4.170704805876048
125,0.4322683163679544,0.8337584404072496,0.42815106594396557,0.3191101361493474,-0.628387730869737,-0.3759736982460105,-1.2958551281621966,-0.21433879041509893,0.6388018134103729,-0.27369881404896534,0.7869855091683167,-0.714457983555198,-0.3611497188202611,-1.8539520902607678
126,-0.8958094840381231,-1.336884556970139,-0.8033223256552067,-0.1811693254065762,-2.5848990306557473,-0.7629140510637394,2.014380872348579,-3.75680591532998,-3.1075467155215164,-4.6051640149429875,-2.3024462672991173,0.909903860962819,0.459157928967324,5.085136379600097
127,0.16126223550336832,0.15534535617502626,0.06968748028113299,0.03142539708754793,0.020029907912521898,-0.1873427418202292,-0.07196919252366317,0.014144738352027557,0.12830067707872064,-0.07469039334749233,-0.0599779525211271,0.11161056054585794,0.05359266901010145,-0.1423592006037581
