,AF3,F7,F3,FC5,T7,P7,O1,O2,P8,T8,FC6,F4,F8,AF4
0,-0.018068109458555213,-0.03896324897170364,-0.019417941202900517,-0.03785980967938519,-0.048849178038256474,-0.09055609656030535,-0.07909897066048052,0.013699112265278661,-0.09021219086757115,-0.05497784924895699,-0.05652220736446486,0.004359399286495666,-0.028505531623869304,-0.12830291325406074
1,-2.7174998097587357,-3.689541936579388,-3.275283419267234,-2.2669853498580745,-2.3780564646351725,-5.367491142883769,-2.4171078906344485,-2.2273516280156165,-2.8898997101772284,-7.091140400738126,-8.09471770954396,-7.2369429194799055,-2.7680198106422247,-2.9294243851267248
2,0.33890694779064123,-0.6697339311280877,0.6104179179356385,0.41263198028569376,0.43381616889168534,1.972807166528474,0.2667952326170096,0.1350546660287048,0.2939688972917642,1.2792411434301194,1.7509779669851389,1.2646652058351873,0.49313829474897397,-0.1172564388928959
3,2.6466791588152496,4.324417722158092,2.883064256967568,2.4406227077646836,2.2692392844903533,4.818781874087454,2.525193894925561,2.413178184627479,2.776930162907229,6.797259454804443,7.561666993084999,6.662841888324032,2.9596730435159078,3.0926910041547573
4,-0.6736838038360567,0.8389791973959991,-1.0447673868200746,-1.0155885881119755,-0.8374148560456746,-3.6911592756816263,-0.6355714919444604,-0.5513335357256648,-0.5339509935306378,-2.4910155392231084,-3.3604315126681916,-2.3144278496214916,-1.1961065170997733,0.14617739295032217
5,-2.453077528783569,-5.219957100247154,-2.2011545241215584,-2.59472019553497,-2.0030496145450343,-3.789241353085945,-2.6272789464994135,-2.5305470127140475,-2.4877572912870374,-6.13806181841297,-6.467959617371231,-5.60945500138668,-3.119837918946177,-3.2296978061677724
6,0.9991611267060757,-0.19494445432742089,1.213164860955533,1.9269802774493685,1.2179040544671538,5.095837029065509,1.27998819106824,1.3078060087794654,0.776120608276453,3.590676656912006,4.731945809715384,2.974553256451638,2.2013272612310404,0.10530442478950836
7,2.1215329407212153,5.839991402584187,1.4109119257081826,2.481173114941742,1.5600006824318795,2.356028265140181,2.5031204515361014,2.279198609760286,1.9688588929497932,5.072029708878703,4.846344766316621,4.294206877848155,2.9640937583126283,3.1155690448951647
8,-1.2716980021972277,-1.159525296857135,-1.1031245107619294,-3.039007626562185,-1.4866167063063644,-6.027012415364159,-2.127992919754092,-2.2388852972536575,-0.907966974678567,-4.386483881979822,-5.661446478198937,-3.1815107489681855,-3.3420488523110525,-0.4960343766940348
9,-1.6599267601390062,-5.729510474674052,-0.7090221613021175,-1.9173364320298192,-0.9886574486561501,-0.6641443608894989,-1.9667281280587827,-1.4539221288669144,-1.25252371976937,-3.674329054484888,-2.8412310601130075,-2.9644613305873553,-2.310470941258733,-2.647758417032526
10,1.4365818611715941,2.803532520336189,0.8051442494339763,4.1000699548608095,1.560362805057061,6.343993672673815,2.9543123077776694,2.9918470457222384,0.7984337092746076,4.670954094157492,5.954552057522947,2.9830830490829885,4.294467441579503,0.7731685133499373
11,1.1151733302251208,4.727012336240718,0.2442113558615857,0.8873398276516278,0.4127255382527026,-1.053890959369679,0.9796255190999316,0.0962168841057688,0.4893120406154277,2.183077538583112,0.7367543906437305,1.8409893912979327,1.201172700594002,1.9409629625088498
12,-1.4515896851134509,-4.2015424076083265,-0.48273514518897465,-4.830520166899806,-1.427388711195866,-5.984513642330566,-3.473143062587311,-3.192688029254484,-0.39071345460762935,-4.345746571811869,-5.523878084971699,-2.5170464798697605,-4.743059194417118,-0.744535412114571
13,-0.5720848357700034,-3.0277175616849514,-0.06869146283038521,0.4423075654689305,0.02094450528006052,2.501090235211686,0.2987237384853109,1.469540490094229,0.09930871467492483,-0.9438026928855429,1.0891583358916561,-1.0746657408893572,0.10052237172920091,-1.2763967401918648
14,1.3145492332965203,4.941801790719763,0.31258557957657457,5.046242720117281,1.1747266099331533,5.023153788970126,3.468713725828499,2.649555585918532,-0.23684500714012757,3.5137064448025237,4.468901127340598,1.975451172532061,4.541882683447783,0.41069206593442065
15,0.12893052525382945,1.0808862429497335,0.12491179241807039,-1.7952439662262414,-0.2226882349729254,-3.386786126455331,-1.549733769374343,-2.749857754276252,-0.3226266672208425,0.27458403840028384,-2.2783086470144363,0.7181897800335765,-1.2317112535640722,0.9418281539322445
16,-1.077585717619423,-4.894581075998378,-0.4158024096745828,-4.726277452293392,-0.9497290464125375,-3.690351479964146,-2.904107346072038,-1.4862185021587426,0.8855849870193917,-2.4762292339143377,-3.086516262133266,-1.5608102994885285,-3.7846362718907884,0.029658099913759728
17,0.1424653556203142,0.6134270071952656,-0.27646921047639467,2.9008356811861216,0.2134459405598074,3.520501694955836,2.4096400762847154,3.3021317410353928,0.11549377275452725,-0.32349686921655396,2.627588963916905,-0.7134567330345095,1.8983824866036432,-1.0692310197380854
18,0.8337890635397162,4.227294462503688,0.8094996708853297,3.9962956764041384,0.8751001924967466,2.3300344244599773,1.958078563642005,0.12331499208019663,-1.3222024744096175,1.6296822847300068,1.7892830161935358,1.435056181339882,2.7516885462791056,-0.29828550009865507
19,-0.23122740202017505,-1.7034322556197636,0.3720606760760395,-3.58867613043343,-0.11086888716604755,-2.8868814313555022,-2.6111005625504493,-2.953312197331389,0.42936051952467186,0.9937344823131022,-2.179726677762507,0.9014092349680826,-1.999180576139907,1.570673374820881
20,-0.6765740240609371,-3.2889140847978764,-1.4019019760866904,-3.049159293788858,-0.9716276849036758,-1.3054573654519444,-0.9713188646654668,0.8999213351888625,1.3874602124821693,-1.3090053577022238,-0.9544632195362399,-1.6659572876273987,-1.770230402987749,0.19843337237961517
21,0.19405327340115722,2.092104490875214,-0.313295966118887,3.8173246655813733,0.051964901757135064,1.6661118968338706,2.093318495661711,1.8987386566815916,-1.1085947032924672,-1.974689249046037,1.214289413996697,-1.0638904191564478,1.6434763914015034,-2.2021364802838193
22,0.650599847485811,2.4350631304708608,2.0338500967927993,2.056786828148787,1.1416398673977972,0.8893814153481073,0.3225789030306067,-1.1822074736692454,-1.0682069365342168,1.651740486745701,0.7711395302675419,2.187729807182603,1.0675745920735658,0.28155837636345044
23,-0.1251072905602707,-1.918914782839751,0.09321382155000511,-3.6369843703743077,-0.10009392958531604,-0.19001803420281202,-1.0356100014464447,-0.6181575834608659,1.7065065623842188,2.864237523327253,-0.13033738133253775,0.9969122982891857,-1.0649122101694128,2.703524372999317
24,-0.7231174944425992,-1.8819740879908642,-2.5454829276074067,-1.124243624931074,-1.2287770727636715,-1.1804101013722499,-0.2836222807778156,0.6619288610364615,0.4956876559999068,-2.5438869105474993,-1.1662565681138215,-2.799988803425163,-0.6951792982170014,-0.9752027348665945
25,0.10206340916269074,1.4470773869243896,0.2120549762147206,3.125610150695803,0.19787126213723477,-1.148467547094622,-0.19926322271485133,-0.3571998548764982,-2.0893594726640576,-3.326151688854179,-0.726410529692095,-0.5958305542762997,0.48875635457813627,-2.925344301448699
26,0.797266864015393,1.650010438252081,2.8340236625148774,0.30153084482371,1.1195072709540475,2.071965785821111,0.9092465387935852,0.34885605293616795,0.12452576122539281,3.669924130507626,1.854453487045804,3.2206960561374385,0.5549129039521945,1.6363150018880235
27,-0.1377843580920951,-0.9237168291518654,-0.4890294630316427,-2.3470948262296067,-0.2001129350495343,2.001709966317173,1.1917909157152187,0.7076050487439758,2.2474686914756865,3.214183306235968,1.2023827955899498,-0.08126374994845573,-0.03083047115137314,2.8757151432169996
28,-0.7661373775944016,-1.6060395249019306,-2.8762493384155543,0.3730772632373385,-0.8218755496989449,-3.2784465410382806,-2.0047065107915283,-1.3236044100989273,-0.6086932150636376,-4.642589607998424,-2.486571619344888,-3.1863673959545986,-0.4977721138234019,-2.0611033747824337
29,0.1682052105502712,0.4793969041070243,0.6404423701308232,1.354805547448499,-0.031162871406734256,-2.1616542363855196,-1.6176436123589495,-0.4768289904863863,-2.2701676782513727,-2.612642315497401,-1.3692117020282997,0.8053336878186368,-0.3218941481362924,-2.6796262811753038
30,0.5804318214153256,1.5679922722089676,2.712473709540265,-0.8425022133559535,0.46901176764485225,4.408931882490026,3.1854623914289397,1.7919406374884457,0.8649265166724025,5.154545622672068,2.8144854796016294,2.568415393480698,0.4273176673429611,2.1665189874713957
31,-0.08989272481517942,-0.10388349956902691,-0.617820605098261,-0.2248622740575059,0.5297871677376673,1.6210315214761384,1.3698041009909634,0.029489421256731353,2.277134484263916,1.7812899803508369,1.4420610390812576,-1.241568358610912,0.6528924681256337,2.4919710607839742
32,-0.28910392191232126,-1.4144682583457087,-2.4111854728582647,1.0408801969414734,-0.24318663223894313,-5.073130808767252,-4.011958662188015,-1.5761717837205111,-0.906377920234998,-5.087978182699952,-2.7859847691408164,-1.4590306443251189,-0.34797781208610656,-1.9967164690875603
33,-0.1683297259289726,-0.30344103537683204,0.42336303841314404,-0.919393719716,-1.1893140252312564,-0.5838567034587718,-0.6023978888095525,0.16292195169153947,-2.349369419685001,-1.0331244839047102,-1.6385364085092375,1.0794032201086188,-1.0276272457266729,-2.419113048293511
34,0.022384489751732486,1.1492044519003446,2.039444594536187,-0.9355780599448605,0.26831817385087264,4.997479648493849,4.152877603312123,0.866447920497106,0.8131332766282365,4.540199918829341,2.5316965278509627,0.17985820353170343,0.3413023795969917,1.6744188536919677
35,0.5811203282031365,0.8410438226592734,-0.09237331058996713,1.9214273708722627,1.8111544474275842,-0.5869795793817095,-0.32699549518841997,0.2114117777427347,2.4948740393691513,0.6001983615589814,2.0578298201612593,-0.185603011053993,1.4308859629667692,2.4833436682317864
36,0.08118222845242046,-0.8949560934807324,-1.6519540573459266,0.565621868534147,-0.5382594283581632,-4.1183115187707156,-3.513679571096998,-0.09755768935040987,-0.6741803611144914,-3.7613746310805727,-2.2679106957400665,0.8125211144242108,-0.49721704888003526,-1.3362598986287475
37,-1.0146280691323393,-1.5178375372684272,-0.32461414481439244,-2.6414808799833907,-2.2063132590058894,1.4798441385679433,0.9996649994282287,-1.1322662343677803,-2.657658971027872,-0.544020620390172,-2.635964188842621,-1.2881741465039522,-1.7601257698185584,-2.6325014988172284
38,0.035437951130140255,0.8227682852528716,1.293756890815183,-0.04320104090008311,0.9225297756696005,2.6150983340514644,2.274448847235351,-0.30024582949824064,0.5423004097482725,3.0366968414811883,2.1752097859150656,-1.106726892794195,0.8446367078928911,1.085040050073936
39,1.2842325084715736,2.213752753523352,0.768440934793324,3.010255218964614,2.288436592382434,-1.7707769692270234,-1.1061019969597232,2.260998921674258,2.7545309101060687,0.7443580066923243,3.1859853911936877,2.9108953289131296,1.8699224353751345,2.77479071114941
40,-0.29764430053852836,-1.05073774122769,-1.0023562176444476,-0.4869356435978662,-1.240933317152233,-0.8626052761175003,-0.8161092430350111,0.13746469404117198,-0.4174734346055514,-2.5650164930839603,-2.311306605639384,0.5322174118382921,-1.3150912960095518,-0.9708469504287794
41,-1.2549991037908579,-2.7096107171918273,-1.1694128589506592,-3.050457903038551,-2.106051912547108,1.336687318289046,0.5697974850231196,-3.127607122101396,-2.7167921187233164,-0.9657420386143081,-3.493065754515952,-4.115375471974996,-1.6413291348363532,-2.8154132083063548
42,0.5265312454164596,1.5607923190337196,0.7997855804514947,0.9044593212932249,1.3590072601846148,-0.6868570529398688,-0.43528697998113725,0.4386373671995048,0.25581732195333895,2.383336765419616,2.591124496121027,0.7285246131494774,1.7520142387752782,0.9945969025200484
43,0.9261260193925632,2.7764999102538046,1.4492040750083235,2.8546191435647397,1.8024547957544472,-0.3009080876742246,0.4319278156135993,3.3849120594616697,2.5217715573077193,0.9699645660579443,3.417630695550666,4.431632033816869,1.0465453599339734,2.68186589258458
44,-0.5350146322055573,-2.175549251461811,-0.6780661533157327,-1.151813701400246,-1.250228805097352,1.6497740187403653,1.1760571863913971,-1.0352851943429255,0.005559313301286804,-2.365648981026829,-2.836360496023397,-2.1850696797738207,-1.9617999348449493,-1.121167891764366
45,-0.44489729314497006,-2.2864420568452317,-1.5367344724262428,-2.5381897465603234,-1.53303804040851,-1.0066701681573547,-1.5574422093100289,-2.9907367755475356,-2.2083997872513383,-0.6258059909365854,-2.961422141757683,-3.702221791091781,-0.18359392833763624,-2.336698284266346
46,0.23972194767264654,2.611757098859177,0.5920769045648173,1.2369373450716747,0.9959742656570434,-1.8341058832238657,-1.3279563985486218,1.2371962283868345,-0.41414708932608424,2.294181098151073,2.8700400995579574,3.238380014804923,1.7909626182739038,1.2935515821241728
47,0.034859088083291655,1.2931917732855718,1.3955962125788341,2.1986740516739176,1.3881945991342715,2.159975591017096,2.4535750272332573,2.2218764489702383,1.8721471091366788,-0.031033197017487982,2.2665880432099286,2.1662835361074597,-0.7377279222444911,1.7819005055161072
48,0.2778881151067003,-2.5928698772533165,-0.47319060081656383,-1.2108292376991576,-0.7307383647402337,1.2966291444850317,1.034579576844881,-0.8364691668584385,0.9642485615191454,-1.9714082087412623,-2.6124299866867116,-3.444901321316903,-1.2014879219920174,-1.4463768549111709
49,0.12640970161332163,-0.04121136504675167,-1.046766868782277,-1.8978719990656394,-1.3604393204706797,-2.7790349703889445,-2.8960187071316867,-1.5171268752044758,-1.6328174676848826,0.8144149141663687,-1.5452851859732464,-0.36106169011129646,1.4630688808834853,-1.0579037664000948
50,-0.8018922468106967,1.9748044894211358,0.26348954333163127,1.1429355248343265,0.5673717761749552,-0.31682561222575734,-0.5642244862370525,-0.05589745792470037,-1.571612148420108,1.322526290917688,2.129820588043343,2.7144517996651722,0.30791647000363304,1.5198815984038199
51,-0.01224199462214015,-1.1105935989329916,0.5668862810842775,1.6613371228649219,1.3671298327202428,2.656269857751779,2.854878716578342,1.2396094971181228,1.5772094033486108,-1.4745217598843716,0.9711956032200423,-1.1148994132370629,-1.7934300569195605,0.23719109963225765
52,1.0938520609461653,-0.8276187830844337,0.04729122146478361,-1.1066855945961278,-0.5436138746249565,-0.7034625504543357,0.17676387099129992,1.0743693179931164,2.0844360289999204,-0.4398085485300846,-1.6057982610649582,-1.3426844271349205,0.6519749870231065,-1.4734284349275086
53,-0.22820427012665753,1.8259856823753762,-0.05507384458373862,-1.4790657691844427,-1.3101438647460553,-1.8234749538759947,-2.4671697435336055,-1.4903451600705955,-1.6998540926349417,1.816388873773342,-0.5885548601607188,1.8605185489164393,1.673264930078545,0.5882060506460947
54,-1.0283427457495082,-0.5714312263748326,-0.4076071425350576,1.1682989272781468,0.6163108093027033,1.3806156339670703,-0.02101881480604561,-1.7979909555334055,-2.342795531671062,-0.4551276350712996,1.2437424862194328,-0.13472795591351017,-1.4106391435323276,1.2949991698024956
55,0.34638453140245495,-1.9322254347863346,-0.4166885696239259,1.3018509035242551,1.1352424804627517,0.5342645670137129,1.945442695935529,2.0723210517119295,1.8812177999934843,-1.7945483677032783,0.29082877493320264,-1.8282182199645785,-1.2187572049934252,-1.3238594336429355
56,0.6753378222614985,1.8416698291840765,0.7275614850078339,-1.365845660494808,-0.7014416845490514,-1.4800594977730122,0.10208541490624373,1.9691975998952564,2.265255998290149,1.116563856884545,-1.149961627403759,1.1888515989799757,1.788414499666425,-1.0031223906754043
57,-0.1359352219536765,1.4964418454601607,0.8396968864008527,-1.0454867586033825,-0.8563205130515805,0.8332480703997119,-1.475900013393479,-2.616013311410637,-1.9312773071011222,1.5362276308716762,0.11379096739349949,1.3094627594303867,0.6644463715537465,1.8904096200643616
58,-0.2770293637517927,-2.659477354575086,-0.9311431519532242,1.6795147082035395,0.7310324513885824,0.9877496112953872,-0.31662367053665863,-1.6113003429639148,-1.9117210793554624,-1.398282492846114,1.263055562627753,-1.522711406478196,-1.7759149220424144,0.6407021073076183
59,-0.43852154077097666,-0.7926245614234123,-1.2662705666373872,0.6191498573829968,0.5332345704344561,-1.9160083862468031,1.1515234083422168,2.7856178440662465,1.6861902032347307,-1.2779774594962596,-0.7821004989901168,-0.7699406498340386,-0.24996322169062912,-2.2362366348572023
60,0.12455054878477503,2.898897866857429,1.0078384480754106,-2.013956215402614,-0.6886612967325964,-0.09447257073410896,0.5243746571834987,0.9886053881879915,1.4753631578429638,1.3339289417528744,-1.3733932770930957,1.1724337804513698,1.5359183844962667,-0.26415164688089127
61,1.2016957048321397,0.1681902550730633,1.7667509027172246,0.02318809653542849,-0.22310200800589056,2.4905322690384835,-0.957935937269396,-2.445362540480366,-1.1051608248244351,1.2432720825921033,1.7270272840428704,0.6256776479030973,0.1030270942190073,2.342740069650838
62,-0.39961583305062404,-2.6776261677061695,-1.0311899092244414,2.2176979656503226,0.6015721630506097,-0.8973265562530063,-0.6188216409064626,-0.44755381133234534,-1.1978082390948623,-1.1306156733770067,1.227056751815948,-0.4515148804582583,-1.320775460338258,-0.06698391334637213
63,-1.845029285625591,0.12351975443073528,-2.3686467123261674,-0.8346883147202079,-0.05708680777349541,-2.5314169635187342,0.8035565115351854,1.7001239528291137,0.3075632981467131,-1.519850709966589,-2.7831197408163595,-1.0697200447708166,-0.1782447456985771,-2.2238471237563338
64,1.0699137591431085,2.2814097156674724,1.128699909448562,-2.1443019162963077,-0.4998339197916026,1.6991250162443465,0.5728280643117662,0.24113439571970172,1.2519101631799208,1.0735359286371986,-0.6597560323086658,-0.21541306974289187,1.3455136241152121,0.2971289785250291
65,2.080958334971162,-0.035385266683703565,3.013193947377296,1.666576570453051,0.32813467523850404,2.18497824420829,-0.5746801150844023,-0.8081350874122377,0.4748074476898101,1.9983005167809258,3.6682064231750635,2.0190368597512176,0.28173099682468855,1.9234486985556642
66,-1.8978937790194366,-2.0088399843720715,-1.4142892233240365,1.7285660305669999,0.37808918554504284,-2.1366603872086567,-0.4503313832611676,-0.43379510797105997,-1.658322076200867,-1.383452379582802,-0.3118078171198818,0.4779229328567849,-1.6784681843569185,-0.38050530495497503
67,-1.7883430112389096,-0.27494562503860154,-3.557437469642346,-2.315150899009673,-0.6094938619340552,-1.6805438844633396,0.1972044470818925,0.03812214913790143,-1.003474243756451,-2.4056521317899326,-4.108311831733885,-3.181519784882682,-0.1675945271603048,-1.5120140341393395
68,2.5572573880330096,2.0237546915589433,1.91674750221997,-1.0338114837953112,-0.1934297110060567,2.185424044768723,0.3825569488822718,0.9197792406680705,2.2805144625843026,2.0934877789510042,1.4888781452105788,-0.18292692983755227,2.1998588876219363,0.28958769260502537
69,1.0693597791514768,0.5508551071213151,3.8271038654148226,2.6066834938592685,0.8761524139388343,1.2290733282440167,0.3123126005080637,0.4392915208654246,1.137057871895119,2.423487721403533,3.9585790494262767,4.188214506819358,-0.3408072428776855,1.079304381026409
70,-2.7904728551400355,-2.2930441885535804,-2.5432334062504456,0.23870014262832775,-0.09562999388329194,-1.938829561771408,-0.5109976650771917,-1.5140709178760379,-2.894492885985568,-3.0048677220931563,-2.5758831458968134,-0.5962733053925604,-2.6439317525689705,-0.026109304002878368
71,-0.1909639890483957,-0.5789659791934498,-3.698123439311767,-2.4758338337746633,-1.0494718441679591,-0.9565868101778777,-0.8274226289621148,-0.5791938313759039,-0.8793938394916218,-1.840451599232398,-3.2594982523986817,-4.725184662657648,1.2588332703634415,-0.7195234557817968
72,2.5207525866364846,2.6315200030710892,3.1015651526303754,0.4332132595313195,0.47766538009800985,1.5397973857279268,0.9103994462423827,2.043453684206332,3.287683559935429,3.74711167963007,3.3025175307134726,1.6076656882482498,2.7030146216047446,-0.37136271042234253
73,-0.5497697887671381,0.2879155280813139,3.166846872008036,1.99524864514599,1.035436264640265,0.8924909258929346,1.1444066096625456,0.4255672703552197,0.35651373858213226,0.6716721507885128,2.207931194246507,4.6253565733019135,-2.414014738268215,0.5103036454003437
74,-1.8631146613943554,-2.812740801193006,-3.3752353161387947,-0.8048515854423085,-0.865525577535004,-1.117263416103836,-1.5232579972897642,-2.389276791722305,-3.332244974731258,-3.9223043192230898,-3.520358760460806,-2.508609905169344,-2.1492114162623377,0.8303818144872701
75,0.9573780424053194,0.23858379372186875,-2.3718000543236006,-1.342289778003326,-0.7878123741723825,-1.0000129220001406,-1.0680706939319131,-0.06112796842090007,0.2502489544931294,0.8106117975910276,-1.0685030175001897,-3.9112616895437546,3.491985942590736,-0.49281628859861376
76,1.040381753573902,2.6761656127088718,3.216580516296498,0.8115796373196473,1.1248782466005574,0.7547679970887569,2.146502602690723,2.483331144539093,3.003652210368024,3.275054914792666,3.2340603924684235,2.9668474509424305,0.9270950044580639,-1.2600521211343072
77,-0.9967175019549852,-0.8207812280013325,1.55354849793804,0.7234930467507018,0.3532531712344763,1.2181682019352535,0.5192267786949546,-0.41741299184337244,-0.7687956181789591,-2.154816162164892,0.07604575674465087,2.7910175483282766,-4.1346051640598,0.6611455066994595
78,-0.2634176452401838,-2.1794650765923542,-2.6133942239138124,-0.5128000159128878,-1.140682716505747,-0.4921028291939642,-2.49403892558183,-2.290862298456707,-2.354818829908778,-1.8159729407343554,-2.5665829154265727,-2.758829895828204,0.8145210065071335,1.5743874527908284
79,0.758175002112881,1.2648051080032932,-0.9711633237409265,-0.29689357441194586,0.1340953636339486,-1.4897322533479058,0.3917083445051092,0.8972569025509499,1.0666394769217251,2.8893334831806157,0.6255646048995216,-1.6068144414396133,4.052777074306518,-0.9651012719851686
80,-0.3513057538067213,1.3896143350116905,1.6993737457293823,0.05150813930814386,0.8812784112929286,0.34200269047597903,2.3185889797333883,1.8105838180062075,1.4807499400746964,-0.15585597715121838,1.6907995509026972,1.847674896344917,-2.7585760297059445,-1.7160344054554473
81,-0.3663992292805123,-1.4213653082730606,0.8148257306839637,0.12755689102709994,-0.5073586232276045,1.7691143487783392,-1.37296422868429,-1.2457704085818435,-1.0483269413324294,-2.6993473720646817,-0.9902687108153931,0.7381150892871079,-3.113620725584693,1.3264870604943306
82,0.7857634549195542,-0.4428601457921845,-0.7097876617761038,0.4103976106533966,-0.42174340228395646,-0.30331587019341855,-1.53799316868246,-1.0941135777562658,-0.5034931962803821,2.142881958568224,-0.7702285205646291,-0.41457901801927205,4.503831381453135,1.6724403240831984
83,-0.10095394232061894,1.2065283375501963,-1.151128199953956,-0.18884849003556975,0.6387404001429633,-2.0207095642547017,2.0498973351154155,1.3285081052495442,0.6464261480282436,1.547802148023037,1.0369828630292526,-0.479586955958021,1.3756230958022437,-1.6657057863646068
84,-1.059495985552257,-0.49063813092218717,-0.08968858274379914,-0.7468825807583545,-0.08407629452490417,0.3658939064529777,0.30212639133706837,0.264064754469432,-0.41965400556455573,-3.61364747270553,-0.06319173634417952,-1.1781641853768214,-5.661036706455835,-1.4762011438723635
85,0.6324665159860099,-0.602143487678486,1.9135693766425215,0.396511131518352,-0.48960892612542367,2.2195969448923103,-2.1147054593853194,-1.0515530232517742,0.16665446066027698,0.30686550055841655,-0.8118577199016905,0.9335266818319571,0.9279223329633192,1.9301578116905596
86,1.1581585864844688,1.2244230969659886,0.4684572999040353,0.8917965390563217,0.46265634355845814,-0.5152781060054961,1.0367448675448543,0.4929161641861334,1.0876132690204732,4.173309004731849,0.6965298761470626,2.491062093336198,5.92980784822247,1.1841779696233983
87,-1.2343449870170278,-0.3373655431165649,-2.9245380368456906,-0.6492555964967603,0.1196155283225942,-2.3541563577383275,1.461897096638315,0.4103001297404451,-1.3399103262973993,-2.3953299762603235,0.37698037114774335,-1.9593828335797676,-3.433724038506755,-2.1088170357040155
88,-1.0091360209399556,-1.5722265633235193,-0.2766258723333674,-0.8338301969464497,-0.5794585988509708,0.7437989099309262,-2.0427228407746125,-0.9681119191745137,-1.2769014411098514,-3.676786819800973,-1.0177053449001292,-3.1481528347993217,-5.148969472542895,-0.8419599969125564
89,1.8557633937786184,1.4649943508878138,3.927971535734157,0.8547253897538901,0.3383594538830711,2.419369376839765,-0.2502236715836854,0.4815669999205516,2.699469205456615,4.181142505145148,0.16892065728449346,3.2046587117252447,5.698073858491428,2.2182662316373416
90,0.5277464352767754,1.390489956886836,-0.5213645840575415,0.6003883438134595,0.3770411888504078,-1.0603414722158357,2.358587962672368,0.9988038086627965,0.8081663365571815,2.2564370106064855,0.9261492695813073,2.967808956561385,3.3362875056741417,0.45678460848359415
91,-2.3501599140998266,-2.533570216476185,-4.628011543506328,-0.9377073064341575,-0.7190575938418504,-2.395206090144571,-1.1377510482442306,-1.4046274690807934,-3.937820616546316,-5.2082136075946535,-0.6640293575930771,-4.213446731275002,-7.25293164627749,-2.2628329519421393
92,0.2930323007995736,-0.6515176388847729,1.8155771896252986,-0.24769618117965841,0.10978949166149977,1.4806942016533096,-1.848193372302313,-0.5375037517115722,0.3572260131696676,-0.2742014471118622,-0.3835626182823286,-2.0368580316095635,-0.7290367503086793,-0.005453774827775978
93,2.514230868594816,3.240731097964704,4.748032362113566,0.843424728634926,0.8692954115441133,2.2249068855873215,2.22783397013079,2.0942958337116675,4.671290453648261,5.213659608839002,0.891913828985803,4.582677751299811,7.693964964512253,2.1970846576462035
94,-1.3131042885154296,-0.4910014759229611,-3.3348194310985972,-0.1408803046936473,-0.7579200209386306,-1.9911265952690185,0.6601380315151909,-0.31062495425465875,-2.0374324245081703,-1.7756632538935855,-0.5218924091634003,0.6942488990486656,-2.1983229634313446,-0.5184380461535365
95,-2.195131486079236,-3.339875018654948,-4.118890398247177,-0.5492115367503508,-0.6928104210128186,-1.821891171873606,-2.6307205067250057,-2.332871031612241,-4.569284310624788,-4.190373885039024,-0.6477628800848267,-4.115052944595884,-6.813089360380317,-1.928590904901299
96,2.2570459959016937,1.707266061393346,4.680558522239006,0.46142177616791785,1.3810094079321398,2.506381548115968,0.8194365479076011,1.3079701019851029,3.8266388524598685,3.391681930807726,1.5496535207912792,0.5835466802071894,4.793967756648861,1.0495580743755113
97,1.4040272270367324,2.772506817761755,2.7712190005159254,0.08288162838759115,0.18937028670787548,1.119959818214428,2.192021583776104,2.0350727126047277,3.510536481940329,2.3912142942093575,-0.15731806237413234,2.9063348577534134,4.734721220439474,1.3752568471909266
98,-2.8211549305624444,-2.602626525601186,-5.433207145787523,-0.6136688410601736,-1.7803705404177472,-2.862905647091157,-2.111982212210236,-2.162677967054637,-5.202160084008728,-4.19891670193753,-2.3599308819970393,-1.363153152093063,-6.4015752552039675,-1.437709216546154
99,-0.35714954663430853,-1.735090920734999,-0.9747566406169574,0.4692600549261427,0.5294206160636551,-0.14356109881197615,-1.0490811805220557,-1.2850523142160126,-1.6854684254054464,-0.2645595740367089,1.412318438283416,-1.3177596147267565,-1.965306434115069,-0.5469475807317397
100,2.8244494533569586,2.8961962227346154,5.305597347055874,0.5387457436944804,1.8134963406110298,2.872738620512067,2.8290599853535716,2.6330914070294296,5.716887235145037,4.058638016361857,2.641131179018795,1.4278089860130696,6.606374427251539,1.5036986107469676
101,-0.5976655069393672,0.6144257897220412,-0.8234334348305296,-0.9809663415167384,-1.2667049989232908,-0.9540079862805717,-0.43287172266126583,0.3046817868188216,-0.42747772630426634,-1.67718565071185,-2.8047430204127526,-0.16848730263989245,-0.7220452424787668,-0.40788253180201045
102,-2.3134635312382765,-2.563836808711538,-4.270011841502477,-0.24879857941050482,-1.4518512681231686,-2.417782274411427,-2.8094310661495356,-2.610019477081338,-5.1917360539208985,-3.1071851732880567,-2.253898002206482,-0.8589351320668472,-5.435408074496738,-1.1405472112682002
103,1.1390565905029848,0.19138336876734058,2.1543925336220564,1.3288662327336505,1.8085462796417562,1.9245096024817938,1.8131109934866914,0.6309141453013389,2.223415795192859,3.0198856104421283,3.922981652450687,1.1492510907378148,2.5578481294030695,1.2345733928107194
104,1.5506336647821448,1.8480714903536062,2.581854209228969,-0.17327543964855635,0.7942483870352308,1.5258642723582736,2.1506868686013214,2.1408227703161034,3.806565302169812,1.6924364972054864,1.3115707124148517,-0.019984872219638683,3.383011945726419,0.3967677430496287
105,-1.126296280926315,-0.46401624785991763,-2.7046717048802815,-1.437317184991515,-2.003575133505212,-2.521370954961134,-2.7399391019441595,-1.2885380968469216,-3.203842387610141,-3.571699569673815,-4.421909847177654,-1.4567458947675322,-3.0827053325032305,-1.6755593474034085
106,-0.8863656319622211,-1.120371285803541,-0.6773883286752381,0.6067409056216789,-0.024147917319343386,-0.3757164395248295,-1.1330491930684885,-1.3920945916537515,-2.034396514901812,-0.2273100332523427,-0.1447096830597313,0.8082583133210088,-1.2181416153946851,0.5161878365906681
107,0.6591418815502484,0.24945483051139078,2.42256341813832,1.2998882542122792,1.8116421767889765,2.6029850944331856,3.052070342432808,1.5411706825404357,3.168885240077379,3.3861551756409267,4.168155988227713,1.1931593992897058,2.326778022576574,1.5869367579620972
108,0.5880557701859076,0.6820161627214364,-1.0009047638967719,-0.9390423469857869,-0.6652470074758048,-0.7738795775638768,0.08831942765135702,0.5781224895677559,0.447099239559226,-0.9661050693279882,-0.8382460586933446,-1.2107437536715346,-0.33943960205187396,-1.3020033389795016
109,-0.011322691625843293,0.2117154131467961,-1.5012020983855856,-0.9684573126678162,-1.2978857298575714,-2.1824449180149306,-2.7859056589422684,-1.3824362180101537,-2.27626987649713,-2.6763723455812944,-3.2886363079354557,-0.6359417875068594,-0.7617314894865891,-1.001571142839278
110,-0.7239991561745591,-0.6297647779251239,2.1559135038590895,1.0985664430221271,1.1343400855570145,1.684935382118095,0.7158215304027912,0.10762962107034574,0.511345820644425,1.7376151950468495,1.3222647911100873,1.1422414228517033,0.9043233000832109,1.69852774261736
111,-0.5170346078002969,-0.6507973213159951,0.26169197089405183,0.5225049602597964,0.585145909126511,1.4031923316202835,2.1118079738739457,0.8998808489345758,0.945535640520255,1.6805254975918924,2.1001413864311442,0.07922397536351358,-0.9439553496078706,0.10818193630649119
112,1.1608421264842175,0.8612379472848708,-2.6915224844666277,-1.060573443394239,-1.3179220424522193,-2.2126099740165075,-1.132666533214023,-0.5327492604099344,-0.6763758285464023,-2.0803711398444773,-1.2014086014208785,-0.7110949014109949,-0.5272519815525526,-1.5726787509188505
113,0.7397252556780974,0.9177326490049716,0.9854211522762992,-0.04080767810498937,0.1977252181757013,-0.46871546364697947,-1.2498505169497394,-0.23156097437881684,0.3351382287453234,-0.567359719267695,-0.9635887905401417,0.29559448170286007,2.225338297087553,0.8327306157479107
114,-1.661100299602693,-1.194317289915856,2.6671694834725654,0.8328970983984978,1.206430059415473,2.3206394457867936,1.1351425706509628,0.6347432424750674,0.17890825054395137,2.0337731027225017,0.5885824119652376,0.11381641247907599,-0.4174603824769146,0.9494515698078406
115,-0.6451034597516359,-1.019116948129395,-2.023560085578228,-0.4099345282020431,-0.9400020245511526,-0.42555017332766915,0.40518615699490096,-0.47110166545031135,-1.2010060534180784,-0.564562502873537,0.1419371051327338,-0.45842692028526466,-2.8190535287371477,-1.5856017144172674
116,2.012949309128985,1.5023780997392038,-2.2078962961868696,-0.43941787408743027,-0.8175550563599309,-2.0539309213283126,-0.7847045409604597,-0.4126849403016354,0.6614987470952591,-1.6039850187178668,0.2690254061312935,0.4824259078044611,1.4680743258170033,0.02357084001060546
117,0.3608123841190761,1.044884480489956,2.732825974303303,0.7712290400286246,1.542748457646725,1.1272653701103776,0.2659549662219906,1.065412958440653,1.5176188631203809,1.6141850783041776,0.2727625222258709,0.4799847143727819,2.7794896344164366,2.004833069789943
118,-2.1194068459295807,-1.7722246902947798,1.4397692945787368,-0.08471006966437258,0.18748598316226078,1.5034246461527134,0.19716272248122044,-0.08168678316250215,-1.4986148879105174,0.7679711610675158,-1.1116424970223235,-1.001541537889151,-2.292215048627343,-1.1444209931814817
119,-0.06125713935765418,-1.0578530966535353,-3.0451593936285066,-0.9868597478776449,-1.9055811724785507,-1.5314869351166407,-0.6691585354263477,-1.430861086352366,-1.3717594842334384,-2.40953668211556,-0.3443905779385736,-0.4448620793469063,-2.3460329880983655,-2.051327851469951
120,2.0117206403275127,2.060941827030441,-0.4833458062264485,0.6856459972229884,0.613059758144782,-0.7877513935732174,0.4854278698117905,0.7478926223482933,2.096239574648462,0.4431995680361275,1.762651312878386,1.4452597011042738,2.7802540692074356,2.2218253761080713
121,-0.1223678811322668,1.0339329386429643,2.90914976335095,1.0075106434836978,1.933880363606921,1.577211940040373,0.7742323987475781,1.4851722176165734,0.9737160599860334,2.718763989277538,0.21758672643355675,0.38962352560688573,1.7671626355726338,1.769295770480817
122,-1.8002089713772909,-2.4035407947104805,-0.5151083443571574,-1.2825588889535782,-1.4589386726817244,0.050060000794730455,-1.1193815115902555,-1.4437811347569973,-2.3859007249573834,-1.853507434268173,-2.1624679714275987,-1.8358075538757046,-3.0012747318599806,-3.1144946941407734
123,0.14673021729966979,-0.8900369581472403,-2.2998433404761283,-0.80826032061485,-1.5739758827831503,-1.2550741785601247,-0.609923312586923,-1.2058855017930115,-0.5323580522004202,-2.3544491814723507,-0.03166645485882257,-0.296528772884895,-1.1844937475703259,-1.2446888841950872
124,1.6042512535087712,2.7509803152190653,1.3632174414757847,1.7718111277493667,2.1752994599177025,0.5493868096457056,1.5816845671519961,2.0073438457442707,2.436589472654652,3.129796964883056,2.3420210359260856,2.16473079701648,3.085329584137569,3.7383832742562824
125,-0.048593648720899794,0.5666352409877098,1.2643395258420096,0.40960928938688806,0.857294821751536,0.6250673028174395,0.25132831743713324,0.647610749721192,0.16531810135053548,1.3091711202380505,-0.13409414846965828,0.13125034670584884,0.6191718004701737,0.5685599221685127
126,-1.5008338849584388,-2.9850793563959566,-1.84916443504682,-2.0492498395498795,-2.5799235274186616,-0.8612486694707602,-1.7869317489269814,-2.295539153051227,-2.36852774132893,-3.884152641991054,-2.3648656348592323,-2.3814901428093878,-3.118203370058212,-4.05022868151748
127,-0.09380423463755795,-0.09490607265316862,0.03841907182026307,0.11242157563852238,0.07858456006429719,0.17423249902950175,0.1958836652011848,0.0598667124313007,0.11979437581842539,0.17428946656433494,0.2659077056606374,0.11172383745169191,-0.033610678168273275,0.17727888425683738
