,AF3,F7,F3,FC5,T7,P7,O1,O2,P8,T8,FC6,F4,F8,AF4
0,-0.039407964349436775,0.0005856921091244821,0.029152586274542543,-0.022580434288194437,-0.002983064237066559,-0.03510991969196235,-0.04590631600115434,0.10119784559993737,-0.04618662866302046,0.024374699770594168,-0.009394159507876861,0.04894797178910623,0.005457947991062534,0.0005768726307484309
1,0.0968192245683232,-2.7933511825020716,-1.0623254754137785,-0.653930313540567,3.608965438943762,2.0552987997625083,-0.34239957021772005,-1.1652582890836927,-1.2125662668339223,-2.568265834338261,-0.8674104017708664,1.8966012013220916,-2.1785792726792104,-1.8068246446880567
2,-0.7823215001467326,-0.023085098270468216,-0.3644513044782857,-0.5354840128021155,-1.4476462395295957,-1.458516083480468,-0.6598495042072242,0.44078134786820206,-1.3051210471301289,-2.22192353794176,-0.5128906540009724,-2.1763442702171436,-0.9092631935349968,-0.393911392680068
3,0.1559852049397781,2.6260525741091363,1.139321954974376,0.8942576146639553,-3.0207422314239687,-1.4828813418513065,0.6106969020431848,0.742216891707581,1.5794709746139914,3.875067015808562,0.9543052037506558,-1.0978869067588837,2.6142629811910476,1.9596058203261093
4,1.4146573225731827,0.11762389765054372,0.6599893226265319,0.9460903974747112,2.6057746515200537,2.6927684154964227,1.230918918347572,-0.7592224330679244,2.505395395518172,3.4594902758881525,0.9735489858801126,3.8320615483399956,1.5566939852064725,0.7074188274344739
5,-0.557129120473158,-2.3586009200946187,-1.3138350496728615,-1.2820538012783271,1.9942323754466593,0.4189666264758398,-1.0853830295366762,-0.026855251846968176,-2.373824000848808,-5.893572513612106,-1.1391471398231983,-0.2353950029077644,-3.3760383739275706,-2.238001870053782
6,-1.7469454189508962,-0.30721636616852166,-0.8518166736103885,-1.1075007714755778,-3.2704399793835295,-3.438468033875926,-1.553449037833605,0.6966705128685711,-3.3237963418866965,-3.191050780074263,-1.3155258067299507,-4.707285136653523,-1.7510675204263422,-0.8592793442957513
7,0.9444944791500675,2.095133060741015,1.5790803977463108,1.6754608040461945,-0.7759644785825169,0.9137086177553778,1.6491895285664049,-0.7298603856780821,3.4751444023129863,7.66899307176253,1.358820721674189,1.6911092957558935,4.2612424388056604,2.575614103488602
8,1.780123374555603,0.5431738507556826,0.8507568344213532,1.0048307521122797,3.3728310393321017,3.560998526688212,1.570614191884334,-0.25194519262340037,3.538881306003344,1.5082908753651993,1.520699957870359,4.743137015228392,1.3905576086380034,0.7816386900920859
9,-1.181302837628799,-1.9158706639912946,-1.8788893680834007,-1.9239986166832734,-0.36879819447833023,-2.223052908440193,-2.1505689104275882,1.2725839018895275,-4.617705368182828,-8.331961598477088,-1.5556418416158986,-2.8471472214644686,-5.017534213807718,-2.8521729012044577
10,-1.599952216590909,-0.722121478388358,-0.5738501764112307,-0.7186914346072423,-2.977302610927674,-3.0560728377632085,-1.3056740011700452,-0.41707711351102544,-3.037148528010362,0.9308752041840134,-1.5921017708063985,-4.1332464388441075,-0.49309717375032164,-0.46533860724421566
11,1.202326034620723,1.8285838019348748,2.0926868532468914,1.9281549867115984,1.2260835314405945,3.2012369273952053,2.4423711938739725,-1.4451366833059263,5.417926036635695,7.458725271471543,1.6842818713084875,3.421557291340533,5.389684745078269,2.9228187615055856
12,1.3218819453135708,0.7406926855575299,-0.0025346487766254875,0.39584517486067133,2.2460262809081244,2.0695201901634697,0.8673860956193505,1.0562702053446351,1.9223586576111413,-3.2097788838045695,1.5378616774143075,3.2309835409961143,-0.7929462114589396,-0.00407165887607185
13,-1.0145562514304598,-1.7597384760246337,-2.060251034615201,-1.6833326813368792,-1.6772535396777857,-3.5977137216828186,-2.4310774337238494,1.2521212773143482,-5.501335447665581,-5.215323427895058,-1.7004558945339996,-3.364440144451897,-5.178437581913651,-2.6863109439324284
14,-1.045767088370281,-0.5603288108698957,0.7973617624051712,-0.1894781713718074,-1.3866660827412172,-0.8844760045197915,-0.4262965363751291,-1.4170043542523367,-0.5536592240683665,4.53944396317613,-1.3795030442218654,-2.3982430196883624,2.2017499202503017,0.4569802114315887
15,0.6678557834437013,1.5983217279898032,1.6463086315439535,1.2864130966021243,1.7132587622339843,3.2999640666083505,2.1189444954427175,-0.856811572145227,4.686326732859922,2.243011316944639,1.5600286185631744,2.851437611449409,4.3047450448162845,2.1573244849424404
16,0.8411180790609105,0.23975993558821987,-1.6209697925333313,0.19222482487794196,0.5987851487854252,-0.13924452951983987,0.1605881745532709,1.357886750688478,-0.5471590797559689,-4.5474986719441,1.1740618882144926,1.8603445180403146,-3.3995472044013213,-0.7112315329406748
17,-0.22564073029832263,-1.2692653706049875,-0.8182663306002075,-0.896819010039277,-1.4231374918893924,-2.392387947889496,-1.6156312222042468,0.5171011319313283,-3.1241900445272304,0.6353664782788307,-1.247106447717151,-2.1800995742650526,-2.857866032157733,-1.4895668055165119
18,-0.7562830441672258,0.09140675905047038,2.229536332969618,-0.3928632519366027,-0.028518045721103173,0.6704392856429778,-0.18805779872384495,-0.9087120977433163,0.9061846295016079,3.358800857321824,-1.0152338255272568,-1.6334761111258658,4.071490334974952,0.6739386074574566
19,-0.24372262539108175,0.7881935584572944,-0.3064197653843665,0.6656110378268992,0.9618469071682592,1.157300859840307,1.104298463238644,-0.48146212069298777,1.2950092155984163,-2.737339255464697,0.8148061608361357,1.6181541723248054,1.0991281154582442,0.9171063106022185
20,0.8287004077291605,-0.30447222802627505,-2.422328242391214,0.6804865405982103,-0.2606487645755956,-0.5253246389837126,0.515666301116107,0.27065192176105296,-0.33045066809649315,-1.4662945300081411,0.9909641335893965,1.5593951701659505,-4.023361972487812,-0.40925232965595215
21,0.6567153285495574,-0.25882419460735223,1.4793255035351616,-0.6648572955915962,-0.5044731349465752,0.0007422176524016395,-0.7699961166361262,0.8812217789567257,0.17153122288892764,3.730182114865209,-0.396981455067369,-1.2807353306702134,0.5950194716870799,-0.6341365434175149
22,-1.0765763687251857,0.34177995693173546,2.1355038168314926,-0.898143656537816,0.2938232905795918,-0.2503703545887364,-1.0365705664258154,0.2526253715748772,-0.9679578021715585,-0.5149717837097654,-1.1152370696519824,-1.426825344665245,3.258451750017583,0.11680526601678003
23,-0.9065997459903671,-0.18570267190409193,-2.4094565211765997,0.8533746736961979,0.19897061253039433,-0.6902713889016938,0.723468597404943,-1.6606470732392848,-0.7782638165975865,-3.66245667278897,0.16073646698388766,1.1006911649664017,-1.8406971816468396,0.6828318330779305
24,1.4708553989015196,-0.2390112644742853,-1.4796188900310068,0.9214954190148117,-0.1660937852486941,1.379998446324439,1.5814018293075756,-0.3723737846851508,2.4447879729704693,2.0828286657785355,1.2845727438338073,1.110060118081503,-1.993183777477245,-0.01979256953902342
25,0.8812115259925148,0.4567759943504279,2.882327706907564,-1.0990939257334027,-0.13178266029663366,0.6769258009376307,-0.9624241557990607,2.577095115543508,0.4001607320135987,2.8458118555240026,-0.21303564249852316,-0.9044103885030702,2.369459284934341,-0.9253826453967531
26,-1.908590925023224,0.0882584527989627,0.6941823478011957,-0.72183354750465,0.007793287356515001,-2.4466864154009365,-1.9971034151129943,-0.0623039300993516,-3.4747986019215915,-2.977265753541019,-1.3045629706574557,-0.6450998681302748,0.5981445976861329,0.22620706989522427
27,-0.513149112464222,-0.5501670241390716,-2.848456390320383,1.2487955130135988,0.31474581602966806,0.025825960985834336,1.3930984580050678,-3.278765785797331,0.6555677301701296,-1.6752114490291827,0.5164976130721023,0.5445338372092308,-2.120381826037494,1.1280044717052227
28,2.219595831336579,0.028413236095932683,-0.03823293099226732,0.37807117467256013,0.05252256566318909,3.044405430181303,2.206388752874241,0.98684092344247,3.6546505574357244,3.180578677797494,0.9887134291046894,0.20151421989219706,0.518706743855401,-0.6535003590210623
29,-0.16009757334451696,0.5295633675393183,2.4330752917350034,-1.207955470938683,-0.6912216572101265,-1.1612384191118508,-1.896206296696982,3.4355426126290056,-1.8117896285007555,0.4794640856401117,-0.8758506748132711,-0.008598296609625041,1.2647419127388089,-1.1109232094595018
30,-2.2250005285592827,-0.08853121166416164,-0.32682655188435455,-0.02948197814594985,0.08265801946796723,-2.92693508200098,-2.212151112471422,-2.1254919274021895,-2.990823058627457,-2.8286891219832615,-0.28004056542481165,0.028906842431689322,-1.046596715786489,1.0721643666661684
31,0.9696212307808819,-0.4715344647216217,-1.8613357052215287,0.9846104896119524,1.1534068344016015,2.3287914004209678,2.390229120946169,-2.873371806703445,2.521502029407764,0.5461065139145573,1.0199619332696996,-0.5606326464374104,-0.1504947012825894,0.8702864367245913
32,1.8307378499187954,0.13253035393958312,0.40037854376147936,-0.20336796794393813,-0.4600682829515436,2.091468697024609,2.0500927380346456,3.081948058326883,1.865129733519826,2.1004257187493303,-0.678705769891592,0.04300891785087983,0.8758141364363549,-1.2480885086759237
33,-1.6581888083294885,0.41221288061564404,1.3396660509248028,-0.6711362019432429,-1.5652155198670916,-3.134889576970061,-2.8471366363164905,1.6570405138764275,-2.538021709851777,-1.324969882453669,-0.7468158868516226,0.9426327057282904,-0.8171063127641169,-0.591245538172824
34,-1.103610141960328,-0.22567005609580337,-0.31991416991402205,0.2804427656063844,1.0633878715799778,-0.7647487975275465,-1.7322842541597732,-3.4850644639355433,-0.7993229752296831,-1.1403730894428483,1.579398417297734,-0.3407831641256779,-0.13118655783003025,1.0979029287408753
35,1.9894530136117958,-0.32771279977459417,-0.9567323741397863,0.3777079431946633,1.7905703059025162,3.3293001046142083,3.2528561738744792,-0.08383358917462058,2.0033517554485885,1.8392152324572153,0.0553733209999874,-0.9652686081588183,1.317465957258542,0.5389379472689731
36,0.27295810928450065,0.40838164004600047,0.2682143203412244,-0.24783742387160587,-1.8097967002472624,-0.6942302052917244,1.232550962552244,3.134526812791304,0.160438629349355,0.039379759366926545,-2.084675216199161,0.6570339695938167,-0.8805205712567601,-0.7601217271883055
37,-1.8711988138509015,0.1530999317068173,0.6544580751760536,-0.16425018437443442,-1.727068766749922,-2.8736331386818432,-3.550629744477245,-1.4154294270883716,-1.311685589550741,-2.0706621770940523,0.8142663560752111,0.6038772824307923,-1.2258832345152257,-0.8908591475825801
38,0.3615850054994966,-0.6650272732851045,-0.36287072323294817,0.1868837145802565,2.561283812262738,1.9257365704359894,-0.5314268284332831,-2.087653453785939,0.017875558319736258,1.1366907849869063,2.0035057095410536,-0.7626515491470062,1.7923192427021966,0.5349173092854667
39,1.4187674429405637,0.17798400887575513,-0.2800956223879275,0.01793160286366447,1.3385255237433478,1.9250971537168309,3.623871011111051,2.434147673183444,0.8417390290724742,1.9773129080855834,-1.4683136882178718,0.0022277493185594776,0.6483396304601668,1.6106877853682107
40,-0.5773262430130885,0.922555757991553,0.5863776838830991,-0.1471335405993517,-3.1544274216795993,-2.6792551546300314,-0.31300233358896756,0.6472726559300905,0.0008595859170167303,-2.3019066358924967,-1.4142046567627078,0.5246952466703014,-2.3211730818779897,-0.7240368462900256
41,-0.9106511057506089,-0.6954467878159427,-0.3121226662368141,0.11158875418437557,-0.6742017369684323,-0.7572171965415077,-3.34819166860296,-2.7453309646563104,-0.7281796032998971,-1.5131440424364548,1.5431593408943938,-0.6192952549843413,0.13762900704456973,-2.4393657565921365
42,0.35101418911534465,-1.0727208983236622,-0.7899280726128116,0.11423930730100262,3.443357003579378,2.866430372840646,1.1313729021571042,0.7520178642790795,0.13131233380708845,3.3245206490431554,0.6611713016260221,0.03210384562544738,2.3743357308439257,1.4608570390106965
43,0.6490420315772453,1.3698719925930911,1.1636301223120762,-0.25102713792976233,-0.13521957096027745,-0.34131639556716986,2.686252383919763,2.3876651991713143,0.8086345779396368,0.6726156688389602,-0.8983310752798941,1.0291604864107462,-0.8132060385224863,3.0113344447261374
44,0.1178436934585219,1.006308876549464,0.7656667341238335,-0.03488413273093309,-3.3430186895838965,-2.551738101992438,-1.6902774759133414,-1.717121614588958,-0.6038422242776359,-4.040038724961967,-0.2117684881504548,-0.7455106186179794,-2.0695850465585512,-2.6255031604956014
45,-0.7965950097313262,-2.108411614616014,-2.165663898166918,0.36714352962818064,0.906258388882867,1.151178741853151,-1.7563831629328062,-1.6388888184177473,-0.7635072040372105,0.4721251153005222,-0.2826072272540341,-1.1182766781831603,1.162427145105703,-3.0328948838437895
46,-0.5058387863390503,-0.6504215941619621,-0.3511614309026329,-0.1244634419499788,2.85970191225744,1.8985231279013184,1.806201886841659,2.0540859089544603,1.3291050876691357,4.296318316261565,0.43349400109063413,1.3941938930280824,1.6582209003837525,3.8913671192798795
47,1.2812189312263085,2.77034382852116,3.084843501195359,-0.3844288468994256,-1.4496295965111656,-1.566716155765184,0.8133102637144825,0.8828043032560295,0.34307573454776596,-1.7658305146726523,1.5456222438526892,0.9071455510772365,-1.162475201353192,2.4258898865235814
48,0.5399554656058654,0.00035367083774902157,-0.4813353639406738,0.33376107527847043,-2.0995571157482957,-1.0981420940071338,-1.4565122552084349,-1.834546341774382,-2.010967978580809,-4.004486944088553,-1.4000812425908638,-1.7856238977740748,-1.3865875848854012,-4.876471207484432
49,-1.8292517428368973,-3.2021802546705698,-3.6488598246008364,0.24196641756193824,1.6255781722111016,1.5938136312645466,-0.13669921222764658,-0.43096578800779195,0.4693286804671192,2.998495660374302,-2.3617300798732273,-0.5222979874227413,0.9747711811144975,-1.3611333416067217
50,-0.15264605371155437,0.8650867680199588,1.5888735357648933,-0.5057064043331392,1.2480044186763037,0.3104577106060083,0.8093073377527621,1.3362672355576082,2.338938106656219,3.16974004507861,2.829362680427723,1.8135004706762714,1.3643105288010038,5.316462406588975
51,2.117302819282576,3.285829846667946,3.658093064593684,0.05565659110448043,-1.3930274151028665,-1.3114319628538742,-0.10950001097688959,0.3881959585913414,-1.4535686371367598,-3.9494196185925508,2.3765404084639172,0.14130826851895975,-0.8391942487295649,0.1685435069732251
52,-0.4732731245448174,-1.7951348878492919,-2.6912920160952147,0.5468711756762135,-0.5169108868856491,0.3634873482839436,-0.14342936158304945,-0.8885651551787473,-2.1734915946937408,-1.8937778255404314,-4.194522922105739,-1.473892399906636,-1.507297530966657,-5.16712034823824
53,-1.9615597870046835,-2.983535789095225,-3.079314582225827,-0.4312873431142056,0.8312050391041362,0.8202508077764151,-0.042707843087690184,-0.6307965255334286,2.2921180768710534,4.426448539831078,-1.5901309607581693,0.058650229318122776,0.9244477700794889,0.821188987314892
54,1.0030614382491987,2.607204700747128,3.4657068523352175,-0.4146602932692386,0.07021662466881702,-0.872119312807546,-0.2961471261954291,0.7060037174712562,1.6092738134984497,0.3593600945715621,4.962950014378947,0.854365374038713,1.5891440345153287,4.588527701902646
55,1.4345450848020014,2.3594317082353276,2.0816645019699815,0.7739311743219186,-0.11309192082012255,-0.20642944092824891,0.3989120467254513,0.9045263787389766,-2.747578290032379,-4.293947141855753,0.3716295828159293,0.06210149020643542,-1.2143149310554133,-1.4138415716666555
56,-1.1421425185515157,-3.1441280410213257,-3.6707007230395363,0.1406647363929232,0.040834898022548784,1.1836014726489963,0.4174589376555102,-0.7993847528103823,-0.8948391142841104,1.1893466111247992,-4.848532746289442,-0.11444393460149771,-1.3800687584442421,-3.8338756632853306
57,-0.8358350346384226,-1.564910085333816,-0.99258612296553,-0.9920896422996303,-0.57006149852356,-0.46246564115587924,-0.7281324881739735,-0.9820156294866261,2.7634876002080775,3.497754976971805,0.7054203807676249,-0.5760896158219113,1.4960883851308604,1.5975692266984367
58,0.8128014821842225,3.326947498918551,3.2521479759940295,0.18912674338325264,0.10687290585539805,-1.2645427579382247,-0.3017969943181228,1.0065692982858536,0.28253473940121554,-2.4700923973710722,3.9523010276228288,-0.5387641960097846,0.8027668551978105,3.118856967199545
59,0.5274056612316196,0.7903031228851788,0.1811273333044302,1.0464286432165661,1.100399025051625,1.1164781272841406,0.8990950743445347,0.7883765702426205,-2.440716541404946,-2.0946018164123115,-1.1291446264058254,1.4595066230765268,-1.4672663065647213,-1.489155803639092
60,-0.2104339017561636,-3.1811767452519693,-2.381034035073368,-0.4752204688810269,-0.36187180853939044,1.088359265591324,0.11763724625883842,-1.115760619969416,0.08424694346998385,3.202213311926335,-2.721106562960581,0.8901462585589826,-0.017094793661452324,-2.548973356667497
61,-0.7261909817205559,-0.20127061005312036,0.08911388520924084,-0.9504721076833124,-1.4872440763750467,-1.6655394789394329,-0.9411402679351806,-0.42783351450869506,1.9318128042934029,0.2764719504702116,0.6881467848058136,-2.5725046408826677,0.911900630911913,1.235063863909888
62,-0.2965898452816883,2.825025607520354,1.3963912852243194,0.6378629699710048,0.5975208803071168,-0.6683920142043,0.010246457031751255,1.0036457851885119,-0.18343884530699378,-3.1715865424392287,1.7446147582408866,-0.7779976236052387,-0.6240870155523907,2.1322979912893683
63,1.374409003762594,-0.11344823748361293,0.2276578122092655,0.7546138569918195,1.8432404441410475,2.0125086118772253,0.9967084960833262,0.10570954397032044,-1.343824438522063,1.6359804822924933,0.4300360594645828,3.672238004344742,0.14729869099444512,-0.9408868202028926
64,0.366637165355194,-2.425563766544286,-0.6699510920827875,-0.6323863348307402,-0.7981703429269343,0.0847058198503942,-0.08980062435609869,-0.7089015776129891,0.045160896219539746,2.3082579541473174,-1.4878119566032308,0.16239499705500335,0.7375903430154749,-1.8414573626586033
65,-2.1625171025578336,0.16219637471705603,-0.9382586907539311,-0.5328788542841001,-2.2895786757073644,-2.098075414932795,-1.2031417235260942,0.00037495354307661376,0.7168544129950254,-3.25325166509462,-1.7237892580527774,-4.475401812786045,-1.4107362211517183,0.6664678321741083
66,0.1309887384783323,2.143792975721141,0.45190674962858746,0.45709561679963406,1.0732623493156308,0.5294814612895056,0.25482708693748574,0.40526748614427704,0.3242273872566054,-0.7411824335221353,2.0828192095995997,0.8354660740372061,-0.11122668219213261,1.6599573840022908
67,2.688606625478366,-0.036080445355908985,1.6946292810518735,0.37368699697407065,2.8456276656458144,1.9456069726542737,1.5827667657623417,0.1567360282618131,-0.0765249349055573,4.2252115895728215,2.6023942885784224,4.75786257704828,2.409461457167941,-0.4638673028369685
68,-1.0501689527187543,-2.0914904498135893,-0.7714786609145974,-0.1648226389203457,-1.5819538268737243,-1.0477796474630565,-0.6727516115823983,-0.29822123546043283,-0.9582572323936226,-1.2093244659348805,-3.2727873068643856,-1.9577691102377128,-1.1644455655193258,-1.5756528808206978
69,-2.6601917549501644,-0.12451003880413956,-2.1436759855725454,-0.35933809964649827,-3.374870025079618,-1.6630565531775414,-2.0083353616410395,-0.47099346598440317,-0.4989506540029799,-4.358765250666248,-2.646292734750698,-4.447185931661491,-2.7102866145658626,0.40193367135390035
70,2.0498729598585075,2.3091668149394997,1.439012039805708,-0.1295538527259017,2.408380702521197,1.4226228590709769,1.4291295870662064,0.5093824950694087,1.8775685667890543,3.116825066530337,4.529690623859278,2.902467808074235,2.708645869732989,1.5410523580812339
71,2.0272688589469734,0.16444620391851197,2.0706758934940055,0.5255529083995403,3.629763756006244,1.3847267100257838,2.2593672428715474,0.7443636533741219,0.8609714442519831,3.688884619369202,1.7852459126985893,3.6556671837703245,2.1153931416639096,-0.5417438316531269
72,-2.767628776233707,-2.758183743249075,-2.1431311273501072,0.2687115056160964,-3.4638874151269796,-1.7153343488570512,-2.4586253284896364,-1.0124317362911026,-3.0158532333943304,-4.5857941690492945,-5.2886735048090445,-3.4445068704970034,-4.004851233808924,-1.4542571773786201
73,-0.984431074559296,0.05551896745707133,-1.4711022570856755,-0.8184867522290047,-3.378856516713252,-1.1825572275092044,-2.130698771628647,-0.790447747436933,-0.8422932101135733,-2.4619253460960158,-0.3170388448313277,-2.6283988716294386,-0.7554091431127525,0.8810833549747795
74,2.984045426208896,3.3182170421932446,2.589448902648408,-0.11248973058443042,4.482322478548991,2.052546758447442,3.557480402024182,1.6486304990996414,4.185698567762152,5.380430642798717,5.18942831667571,3.5223835244064317,4.6200603609165745,1.1954785919753825
75,-0.14181490708001812,-0.6235928153333156,0.5261218530436846,1.0860818636806586,2.5463979005622717,1.0077535810957177,1.5306407122943892,0.5223087938301747,0.34632489506776026,1.0332174187520629,-1.2353905021313587,1.6293830454182943,-0.9688432834089205,-1.3226344937793069
76,-2.696663404464701,-3.7956193790313737,-2.6126354916799874,-0.38262473493946264,-5.121674372984914,-2.5292667347386835,-4.463111698016401,-2.2038615798628594,-5.113467569938929,-5.482367182630909,-4.214934313329675,-3.2414142098030356,-4.380348562151136,-0.7003330030435748
77,1.0467230160861702,1.5325768222410288,0.49413133007797816,-1.1295434269305775,-1.2821672978660474,-0.7103317592157629,-0.5213110977638652,0.016719030842752856,0.5806223419916392,0.2710224474728859,2.3551864267236486,-0.8274488893980051,2.563302049920794,1.7054980144861693
78,2.0824647246152663,3.9607383606093483,2.2155944771395033,1.112151881044557,5.1214144345864305,3.121533819317348,4.953777893173396,2.4998773366647735,5.52667726419138,5.050637057567438,2.6706100879081,2.7926858284472407,3.4200591352640743,0.011893999295182384
79,-1.560873933299765,-2.642423258775123,-1.3446723584928242,0.8014984189651945,-0.08290272862597944,0.1323400492045057,-0.7085739216887867,-0.6840880046673097,-1.7330556759942757,-1.2556235138830625,-2.7401578787735743,0.24572511309982695,-3.6461473344425013,-1.8863061574470412
80,-1.389002429461621,-3.623458695646476,-1.5316145333628153,-1.8433574367710184,-4.430041016156293,-3.670120695417916,-4.920290612972645,-2.4538847165166846,-5.251924520079285,-4.31437535334838,-1.0256168170649562,-2.3375193337687974,-2.0883757310925,0.7350036998356375
81,1.6793653599884282,3.68279278003792,1.883109656008376,-0.09919847372353773,1.1741136974364053,0.7817946347813592,1.9139699641593881,1.3031358314989234,2.791681151354696,1.873864552202306,2.395524882238151,0.1995732403950779,4.08142450021567,1.8114937323654763
82,0.8208828789912157,2.7269137122234914,0.7429209559465579,2.309375952915574,3.2339723310757416,3.9507093126421973,4.385939450412692,2.087017278710046,4.28569778572392,3.468708269984765,-0.29792974948794243,1.92854226296749,0.7692074522262041,-1.3901356783806265
83,-1.5132121410172694,-4.320048865471061,-2.084047913348275,-0.8049434323460873,-1.7299683201187168,-1.9275766596900574,-2.869330513224922,-1.7236506130847187,-3.4115836874480014,-2.1689890281303663,-1.5796571333689244,-0.6006293440724494,-3.9810349869964345,-1.525505973493837
84,-0.4752458813457655,-1.4122054906849317,-0.0035889541987972366,-2.3339846992067628,-1.8761023219253345,-3.7898241237692476,-3.48070028507867,-1.494016343686603,-2.818848791070685,-2.6352083502325017,1.084005376932787,-1.5151743195800282,0.2879344287849435,1.8671542453657837
85,1.2049767301486956,4.278437682148813,2.000830586990414,1.620746554394393,1.6984866383698731,3.0710597867190295,3.421837606294008,1.8532552207546247,3.32765612015774,2.1990418769751274,0.645244096662065,0.9677649992108325,3.5863537611482803,1.1099034324082369
86,0.3440230637338162,0.0071570881137096466,-0.5976638893946398,1.9218512234234228,0.7127739489864988,3.159154059948349,2.393366152993783,0.8030150101678362,1.2083858535842382,1.89365484130769,-1.3606145436206174,1.0261528515340521,-1.0388368407486903,-2.1629846278082594
87,-0.8579223615741891,-3.4670043579038636,-1.7101441563099151,-2.0620615518153858,-1.2327892647943617,-3.9494828135670668,-3.514064607038604,-1.6602254844369622,-2.452992624857134,-2.0086584214138163,0.13323527010419353,-1.2110147369962057,-3.1054688565930495,-0.6058533665804378
88,-0.36504489249499017,1.0748582660263377,1.0284562022442982,-1.266038795482754,0.01565546925441678,-2.1976865616883474,-1.3240407670446448,-0.14789005366846955,0.10547248368529503,-1.3336900938441536,1.3149657875096745,-0.46897970334450945,1.5883522427846872,2.301633069786791
89,0.5109595495170726,2.04888964196204,1.27625230032547,1.9750339736389904,0.6040149849142903,4.386855071268724,3.1841322659448816,1.1656303946925561,0.942370776816281,1.6643344079187614,-0.6562019534339663,1.209367569123355,2.6039664872438495,-0.009704998636329249
90,0.48397931081585516,-1.4923942656138978,-1.279130684042277,0.6667302606745722,-0.2451867018838184,1.1537026298369186,0.4460672968607145,-0.34446704755681784,-0.7300047701317219,1.06091704917405,-1.149196236994602,-0.02807335696707482,-2.05288555720426,-2.2506953949153825
91,-0.16230928350423157,-0.40937144886966287,-0.7508244524431468,-1.4115747625566495,-0.08775850810607391,-4.3674652908890135,-2.5539293142288733,-0.440889512082113,0.8131687717769869,-1.3080734452860938,0.9806699143655161,-0.9214183426461373,-2.011474786326275,0.7641175890379054
92,-0.6899321088540915,1.1218044879518867,1.3371619142482936,-0.3980049862303397,0.07074300737409414,-0.27807998621295255,0.12568003305761521,0.5657308151383517,0.4676674561619923,-1.1344271871620177,0.9661519845135276,0.26873135668569215,2.435094888531399,1.8894220954503052
93,-0.182687156444555,-0.975825807793921,0.19591839213776893,0.6120473650227682,-0.12176026569614146,4.0356251861936725,1.806803200777966,-0.389349638383219,-2.2852271223949274,1.1590554280660825,-1.217863222304919,0.45757498245146483,1.232355235228787,-1.5866393391397715
94,1.006977815912642,-0.12172686932778028,-1.190634631276159,0.583995663547017,0.3181034474373879,-0.28112471317702953,-0.36349045193449125,-0.45011719760105345,0.5780314743914595,1.4784450192923853,-0.7468242634028672,-0.10812505666111509,-2.5949316110856055,-1.075619536575358
95,0.47621356072340265,1.721710432022707,0.29924127646539195,0.0978661481202569,-0.05253949954642257,-3.624171572738805,-1.147222666635757,1.1545166747367936,2.987863892254595,-1.4274878297423683,1.4240565787246948,-0.05529081219512077,-0.2819313794792305,2.252483163861206
96,-1.452469533121316,-1.1211390103018686,0.8560024560898373,-1.1433046640401354,-0.7077812352405114,0.5362911227916619,0.34423084274886107,0.008507126555014101,-2.0025247900807543,-1.8479284169520844,0.4173158383310174,-0.4385560008421091,2.33884219532873,-0.21830064585512599
97,-0.6311026568106771,-1.6857692214148685,-0.6310474316363373,-0.4505900040137334,0.5742729298517678,3.34329062195579,0.7390992663750243,-1.6721014416922881,-2.6750379129320256,2.1758685990401703,-1.5558507421261296,-0.037374973227186456,-0.6480327881921456,-2.442904110677148
98,1.9943856104886717,2.148785969473357,-0.40367402066480124,1.830941396543632,0.9151190362713797,-0.6431174246618836,-0.23585008442192454,0.6484174709244007,3.2335694094343435,1.9052006495304468,0.0535535153886342,1.1737933083352985,-1.5715380198712183,1.7963224481881592
99,0.5614106772889969,1.0185417737666287,0.7231327251078699,0.3522588782284654,-1.3150218672474665,-3.2785651276451557,-0.6386530156835585,1.808218133663213,1.4629894968608201,-3.2183087715454186,1.5099228934886857,-0.29823940288773026,1.2471688369758276,1.9105761673899546
100,-2.5393427657909093,-2.623708466382827,-0.04605121510857581,-2.359648679293977,-0.8255489557922193,0.8123216964397141,0.23832822817979457,-1.3250593234354702,-3.75817272231951,-1.3926720137596695,-0.5972610167333874,-1.80446128962216,0.41119875813115037,-3.2530596918042516
101,-0.23395659598071594,-0.08493496831976154,-0.5717714674214557,0.08765778646053471,2.0833339237107857,3.347786579504721,0.7577466150224927,-1.5401046385595856,0.19491195905685882,4.145144568313941,-1.2090812661440222,0.9752795773919174,-1.2417283626970115,-0.6537363017379567
102,2.9603898567901172,2.4653355242855453,0.36362857127104675,2.5392927264883163,0.42189538366687807,-1.1878092164896976,-0.4908359667771259,1.8045572647256822,3.343937776002423,0.31119679139779133,1.064142573934855,2.0902515539887245,0.81208631392286,4.131363697569631
103,-0.30174665758720753,-0.7092533556934525,0.2631260274011044,-0.6277885651077573,-2.666364578489268,-3.344563826862519,-0.8926096581778509,0.9816895121608098,-1.6857163156522783,-4.492870621984647,0.6709265349654221,-1.739539940462618,0.5570237197321559,-1.0215101778045519
104,-3.1469200961275527,-1.8629797429809019,-0.4679592681051245,-2.3607089408534256,0.20053244441392856,1.7523297091920915,0.9891632273326361,-1.9396799012639374,-2.1451590007818564,1.0126581369715792,-1.2977699409355568,-1.9653886649786596,-1.684548694353395,-4.142203588346745
105,0.9213731012205761,1.1006299008187992,0.054237412564472655,1.027162113815547,2.8887728269952198,3.0551586001236473,0.8208212496680338,-0.34496591114414454,2.4917258829897877,3.9856942882806203,-0.015707850038929636,2.301789882070008,0.6118760325189528,2.6079867518407878
106,3.048218641939418,1.1590931380910394,0.36813311878590743,1.9808195993509863,-0.849076270973907,-2.31674911186274,-1.5675459552144073,1.7227920849121803,0.635358174369032,-2.0378785847953123,1.2120888007017006,1.5604569082131348,1.896117595326769,3.3145092224887827
107,-1.463534443241552,-1.0683338967996352,-0.23137714764897171,-1.1644552479667087,-2.6755265596717535,-2.391159634781643,-0.4228364655839365,-0.15388447752437093,-2.4024638439132717,-2.7140990004888104,-0.5839566967634512,-2.484863311409736,-1.8668888702018984,-3.6207975965775363
108,-2.692326579436629,-0.6667239234300862,-0.16382150350385005,-1.6225508307614884,1.2906117419340994,2.6093231261291336,1.9699165352214312,-1.2890890615953665,0.6043694452252463,2.2627604558820003,-0.8258109930407168,-1.1142142610087815,-1.3837605901480636,-1.9824833989517132
109,1.7767458908495548,0.8027458171493137,0.18465385873877516,1.0808340037043314,2.0876817758810464,1.462844715533933,-0.2417000329838662,0.3960367524946063,1.5825283052738095,1.1339844611801069,0.9726833619307546,2.297853196197824,2.7757759491161713,3.8081219531218116
110,2.1799780289853605,0.5212096106435059,0.0015272701718408751,1.4504037993290892,-1.3372784668068902,-2.4238903310700626,-1.980921614459358,0.8435056960218537,-1.137856082698469,-1.4899829888000329,0.2451126433056489,0.834891082982078,0.35537776881050087,0.6214484878004646
111,-1.759730912238756,-0.5693237589115018,0.06858723530505922,-0.9309022576579193,-1.3036631952892972,-0.5446034370311243,0.9531382902521759,-0.4099144988828156,-0.4677644154220528,0.1335098862081316,-1.060430708429912,-1.8995554758686357,-3.0517894893121875,-3.232855445852584
112,-1.6624767646178866,-0.6429265829160572,-0.007903366978808283,-1.4910105162644056,0.9224737964767703,1.7461439818832363,1.544782523665778,-0.5497751107795276,0.8461475113142132,-0.04900306006157078,0.3802098942335805,-0.7987467197679919,0.8104655322749087,0.3649185881086066
113,1.3903453387561675,0.5526568264709137,-0.4222827042776622,0.879082511251679,0.5468239772273761,-0.056028594289340136,-1.4409627053518106,0.33800554917875536,-0.4514494555932908,-0.6021534331312163,0.8356846372284193,1.4865403968838957,2.655352571827127,2.197101101002168
114,1.3085346652989263,0.8184275177010242,0.23370204676663123,1.6354539909725756,-0.12534615030896143,-0.7839482430473665,-0.8025333960267006,0.4461334596396367,0.05529343879866648,1.7877244826259266,-0.8962861024232933,0.9412053843350917,-1.7279312332949055,-0.7870191075306097
115,-0.7415549501694186,-0.7694629459805615,0.7347494636324103,-1.0035395092417023,0.005499075207593458,0.156771511183751,1.5229200572385868,-0.34000520209478646,0.8496407063749686,0.1573974364505515,-0.3589251667797308,-1.1850138447863205,-1.7812653070492541,-1.0770890414457681
116,-1.2594824219421736,-0.8379487988216127,-0.6360677692322149,-1.7113647514821917,-0.8708359191630968,-0.12026358294631904,0.025116444218734657,-0.43688098505622774,-1.148807925377933,-3.088520870639325,1.171494984763562,-1.1287416136461377,2.147981507047002,0.6848208517322011
117,-0.023365217604836147,1.0874632711731302,-0.8943538511089923,1.2562787191185338,-0.28251477844497347,0.20057437427801508,-1.1969602553881917,0.49088374079833236,-0.6859337075845662,0.8977707861105487,-0.24495700726168548,1.0104060247412088,0.756675782271558,0.1720029658530061
118,1.5773831183095322,0.6041047159391059,1.1061074086273175,1.5789295990597407,1.861068441384654,0.6509959030783623,0.5202505395106485,0.3626413040870811,2.020406999412992,3.5330958162718185,-1.1231924767890413,1.2494976582598127,-2.0270796574523784,-0.2450081460119709
119,0.6876395008943627,-1.3191413973314263,0.8637514112513548,-1.4915797569132276,0.32073413153248076,-0.7658431293542413,0.6371547278516752,-0.7341982813031518,0.1785336522296801,-2.0035407887527086,0.7982252878366013,-0.9016747799815898,0.09145631457653237,0.3665907477660064
120,-2.204969170227442,-0.15965637312946057,-1.5245489157246075,-1.2013122005374366,-2.6933802987974502,-0.6701391248436409,-0.6972511036843739,-0.1055906216857632,-2.4366463232208955,-3.0904992382642353,0.7546227095710853,-1.2621800121988935,1.5106364562754224,-0.30666139724755564
121,-1.0501192415943061,1.3228288456708286,-0.6819234649866407,1.540046760588313,-0.2145372955845168,1.2035224256274164,-0.09881739949079582,0.9160951314109025,0.3379070994610228,2.6129615896323157,-1.1076128315650475,0.7861992195274742,-0.5449676539383087,-0.5253599669579008
122,2.9644229719581614,-0.3596668929469871,1.8141617920798052,0.6607891868999085,3.298587818843595,0.277495853692147,0.5545891259015268,-0.3324867750809127,2.41370428870758,2.0926574190250147,-0.18382914730387617,1.1867836856494927,-0.856104462920554,0.7798529745251196
123,1.0049344813172607,-1.0565991983926613,0.427963720147767,-1.288785992583401,0.054944624483851026,-1.2586698941530705,-0.21345357062502646,-0.8776847459612817,-0.590724668070274,-2.427961541930272,1.0370688892060829,-0.6229368434420218,0.5498497355775516,0.38355918974523634
124,-3.6100538502826964,0.8015204764733848,-1.9612836144797656,-0.12073586591533852,-3.6720126834585924,0.2492779916546076,-0.2821264687247501,0.8233682269764251,-2.1585903263235835,-1.0537767325252918,-0.3731172358310166,-1.066002944072965,0.3323716886553298,-1.0495208936325706
125,-0.59341367684129,0.5728506104967864,-0.17209382246082555,0.7322896539703523,0.10628956555455264,0.8790191512425849,0.24327967201586118,0.5511542570045482,0.4929774224855627,1.4983384645144684,-0.5865108504198865,0.40440666243332485,-0.21303301023886465,-0.0706526556695256
126,3.92099058674834,-1.0559279490480697,1.9985257172216115,-0.24397175311930538,3.833849322424177,-0.60207758484584,0.09692727179039302,-1.178978156021253,1.926375337000506,0.437725592853665,0.6832484777934097,0.9374111854909843,-0.12827541710636814,1.0621340402336705
127,-0.0046643693351176956,0.022209230576102842,-0.05534268917806748,0.023530664932259224,-0.25561930192249505,-0.23016988621769627,-0.0949672754554215,-0.004828190571164893,-0.15769833301988587,-0.16398427364935836,-0.08070977290037748,-0.1375693391119511,-0.25055709748414007,-0.26451846766020254
