,AF3,F7,F3,FC5,T7,P7,O1,O2,P8,T8,FC6,F4,F8,AF4
0,0.07860132539796155,0.02936269386396399,0.04452027199029362,0.028677157557973128,0.027891265445259057,-0.004564589950030707,0.03442357858079802,-2.348759556783462e-06,0.09782491700065103,-0.03158721090566501,-0.00691062449430395,-0.001721230813188393,-0.05799348484943245,0.0962025543173862
1,0.6700938233314584,0.9732700741226088,4.105939915477728,-0.2071757720427816,-0.8023545237667169,0.8328347079343488,1.6760597449946404,-1.018699014813979,7.824230476486617,6.362196217787904,2.3028171759890803,1.7162157047345519,3.9221475022167356,1.7292933748847934
2,-0.28983978486171413,-1.121464155624391,-1.3087822549883936,-0.23079059441469577,-1.074541495563195,-0.5616097187691058,-1.751281529640642,-0.7882480017305896,-2.1781133371823787,-1.9558462202295401,-1.7835803986140626,-1.1561612601303708,-1.6861505443742748,-0.8558846710768097
3,-0.8917745634633594,-0.7313302401662202,-3.5758712959426866,0.08380777461956544,1.3511215618722225,-0.6349377548361972,-0.6826308580587636,1.2222207196870305,-7.08374951549303,-5.395296445995496,-1.4824356267963212,-1.3756546120725341,-3.42011771946014,-1.3767825683114427
4,0.6886558380594482,2.124516958419047,2.3299679510599924,0.4938987092589722,1.7310834600784593,1.0590990593381324,2.873545617321104,1.4608926525649966,3.901085227309726,3.4297027125651858,3.1155072992472137,2.1206557385921294,3.24990728663382,1.4356544219887297
5,1.2221973072323424,0.2941006932941965,2.625431532389858,0.14528581455550402,-2.156076853801135,0.29803993628839476,-0.9205970642067844,-1.526776673813968,5.823241907151654,3.784064144221461,0.13781670436421842,0.7963790467802061,2.4285660824434356,0.8496200782992823
6,-1.4126888503485737,-2.9826783132254735,-2.924090197153512,-0.8840728452953039,-1.8177284254752473,-1.4453052479545003,-3.0445266191507425,-1.9794678086106543,-5.060009299542503,-4.090387440062395,-3.6977574861781553,-2.775204346363729,-4.427452576311695,-1.7796447081170574
7,-1.4260903679476367,0.2932637158789987,-1.4664875547548575,-0.40486215839507167,2.8468870107484054,0.1376609007519476,2.5422903110017243,1.8485954252169214,-4.3446987186220705,-2.0319509864217946,1.2769786347291145,-0.16370795681791972,-1.0578415858633345,-0.2891330675703092
8,2.455414919728671,3.661363295132405,3.014540289450266,1.4397148652094014,1.4196492833613543,1.6934504194147049,2.280066039386224,2.3717350971465763,5.644580647284953,3.9699044601558153,3.5142034861329363,3.1415383022836267,5.037120210254091,1.9265792338352479
9,1.2393997828039975,-0.9975517863447615,0.34124098311823114,0.5755599689310821,-3.13608497311157,-0.6216204655341557,-3.6136271208571307,-2.147699001512437,2.907653031660018,0.5860698020299127,-2.3066923825365215,-0.38326173481668085,-0.49364925150165345,-0.20662946331094803
10,-3.632917307269843,-4.127610557677957,-2.643954610216559,-2.1349121451710835,-0.8187777664308161,-1.8011114961990031,-0.9485493371046505,-2.693173125390509,-5.7926041356070375,-3.371748981698678,-2.8222876325923814,-3.3336559270015913,-4.969453015840109,-1.9743937631898996
11,-0.4745049817804635,1.8021172373607932,0.5447089775387717,-0.5224603043316183,2.954412329692085,1.1086234043212013,3.8182119573506137,2.4548582705656545,-1.6269886133030762,0.34692210803796714,2.6733564415152693,0.8189347829099703,1.9547346649304311,0.6342773596094279
12,4.611193456027808,4.322976678277519,1.9487418981672355,2.851664794518669,0.3270096822610771,1.7878805169465284,-0.3998158694817636,2.962705728832065,5.664655284656298,2.6821681495879974,2.038447227120178,3.4582159509716592,4.240231568161038,2.00100947503179
13,-0.8751244812741644,-2.6791121782233476,-1.0703372967991984,0.15646255078830942,-2.4573059629928706,-1.5750248978264978,-3.2060168047008535,-2.8431630241315284,0.47334583989370893,-0.8389303641216371,-2.380707036278394,-1.213470543972906,-3.036130953762066,-1.0746889745835508
14,-5.006994922298585,-4.159858487516988,-1.1108199996794437,-3.3943899983439496,-0.1212589942852934,-1.6784016272902784,1.275572540345403,-3.118946523797972,-5.3266784825377504,-2.1686443700972653,-1.5574988059386463,-3.5344204009359124,-3.023030614151186,-1.9885481820735917
15,2.582180983960491,3.546304270498091,1.2181242226688918,0.5015270539652595,1.9086014824980881,2.0220690334844145,2.143410355486166,3.356858854695902,0.6304243869240317,1.1304440442457513,1.700772716132664,1.6496295007874793,3.5220242572295577,1.616485329972022
16,4.53707592067281,3.560545071384575,0.30347744651914715,3.557537917930923,0.1734552099053872,1.4789338375724104,-1.4540916014398766,3.0343349873380117,4.717648534098713,1.875899550859385,1.580063021082598,3.48787583887177,1.6274098975560192,1.8061734031303651
17,-4.227198878105185,-4.247758144994223,-1.064521912608901,-1.2981533898490425,-1.5182498006012646,-2.457726507623218,-1.1262131546902105,-3.9426625699579705,-1.6862906007222394,-1.454473010377916,-1.0444987873859677,-2.1394775283156786,-3.3659295546579515,-2.2539115944444803
18,-3.1531959361641984,-2.523534470332462,0.3566321250899331,-3.218515575743125,-0.30649256091763183,-1.1655786229772078,1.0502084164456504,-2.58878778184529,-3.7201117072650014,-1.6592830948092665,-2.022623288226929,-3.2149327125545044,-0.4045286563519284,-1.2781012040054907
19,5.3337479112179045,4.587532268290605,0.7445389658021697,1.991062829256149,1.3313239174305562,2.863525636421724,0.5448005849122757,4.434050328020238,2.5560117567587706,1.9004233284046568,0.7654540990167367,2.5994407986933563,2.7326146902557893,2.825261049863744
20,1.0947634404183204,1.1732156358677672,-0.8400414241858788,2.4053246268206894,0.33177870724412806,0.7010029605766922,-0.4328911089201812,1.764038779436597,2.2847771730386084,1.3137403904723828,2.557887280359954,2.664510623068298,-0.392682192627418,0.31215054498972983
21,-5.543507838951262,-4.407280081433427,-0.39456828661548,-2.3406465092885673,-1.2279639163280487,-3.1694668077196644,-0.5113067102458764,-4.610462177580116,-2.99720087442867,-2.382141476624893,-0.9803088081242327,-2.8921050284259193,-1.9380869610932727,-3.04444777753884
22,1.172140135466793,0.24555727969036079,1.2019053641434423,-1.301740522773064,-0.18076398224359033,-0.07937354036828595,0.023470129337180866,-0.7008397897549408,-0.5309184861389286,-0.7149687542763914,-2.781637787149147,-1.881916252252656,0.7197414280967885,0.9792848316422973
23,4.75314783016732,3.6651793553680934,0.08955303168262978,2.203433898967094,1.0255143961046291,3.2644684571031344,0.8292902951660126,4.307616259532978,2.7799497559389454,2.7061874934955115,1.495684274211952,2.8956088397685553,1.2972842772976112,2.6305479676373658
24,-3.104023348487278,-1.431071952864726,-1.535175886606803,0.1906577542417862,-0.04707967063313074,-0.6262372913877997,-0.07553776363274949,-0.32311584779850483,-1.235967527055478,-0.09827181314898469,2.4395814121534856,0.9983171674253347,-0.7417852012415886,-2.243319512465464
25,-3.1560259250464195,-2.4735098677869614,0.1924059824299206,-1.5860665992091847,-0.6164542731816516,-3.0520579136763573,-1.1190399815249008,-3.5214091282822664,-1.8222014836933282,-2.6894031069028026,-1.8950718440255503,-2.555340507281155,-0.9614896010926903,-1.4832515120377825
26,4.253326339688788,2.1156187718944537,1.8924663322238933,0.6339721966242586,0.14505043696605294,1.2542206201559174,0.5447231523141267,0.9949807806541364,2.6017352402811804,0.9286839540768684,-1.6019805892111847,-0.18911949227159242,0.7069437556139913,2.980548896905284
27,1.1804241510675062,1.0808849941838155,-0.5451663815871611,0.6475471813327617,0.05912108852214737,2.526822580723604,1.036720147476864,2.4464321941989353,0.2802010363124743,2.26755937507834,1.7643634557806618,1.903061057226499,0.8539341826527878,-0.18492071681424177
28,-4.401535615330242,-2.14587957978466,-2.2211067585261266,-0.954053762841476,0.06837475839450896,-1.608375393792777,-1.1158260621511014,-1.1051816149024416,-3.188202728075026,-1.4998597893564436,0.6785049413369859,-0.3699453215127927,-0.7649804064853971,-2.7515894254631936
29,0.6428167477226944,0.1868731248485568,1.0490424437358414,0.34065455799005534,0.4324508659503852,-1.819848213109375,-0.476537115427716,-1.4199485410853971,1.4476514573824015,-1.554060398764296,-0.9500869852979612,-1.0566384713691126,-0.7570620071626128,1.846131029407858
30,3.6160727013645904,1.5315780264081367,2.3644858044340276,0.6950594310101333,-0.6216766642674153,1.559298001792868,1.3785457592513828,0.6568262244304315,2.814657874525424,1.5782045631193158,-0.23618384246795224,0.5431189669308131,0.8558729274511039,1.4134622056814063
31,-1.8369454803788878,-1.0066131260228506,-1.6727785303367766,-1.0661859487589656,-0.5969440837665752,1.167182859835059,-0.3526658185445417,0.7867237052493381,-2.8191908941700814,0.8262228405587108,-0.2973779686856658,0.21065573346025937,0.4986815742784126,-2.8223899881608268
32,-2.2246034647609614,-0.4570064092299178,-2.148808987918792,0.03696030500870982,1.3406304410234575,-1.1344823566468138,-1.0644496690329732,0.1118846228398067,-1.6159544101904724,-1.0963467416968071,0.6947534009131091,-0.28137336290564996,-0.7544379927224568,0.7338116909555328
33,2.1199302969024023,1.1452268299950095,2.235462242602798,1.2730797987117792,0.2763475980321896,-0.7999174535375952,1.025979074553655,-0.7400360092952534,3.33548011521594,-0.4318827095530459,1.4004928860014196,0.3945756323902519,-0.1063264193612314,2.574056751798077
34,0.7160010547735909,-0.7489398509204721,1.5137831341988832,-0.9682101126656231,-1.9099703116088902,0.5304019409474636,0.21753514775955443,-0.8153551130665586,0.05484271632309333,0.22851979681995904,-2.062418668596455,-0.32922263233649873,0.24745309344422864,-2.991488595570462
35,-1.494970798138537,-0.5414730430654664,-2.4732179853453133,-0.8660106235822427,0.47195190996643605,0.8120513065546141,-1.1327706079210398,1.2136735204815574,-2.7612823537284563,0.6340530193675799,-1.7362412073183842,-0.5448001380537468,-0.18526182289465043,-0.9866626993777844
36,0.4131354935630292,1.6919930134833123,-0.602670384701768,1.739578556989654,2.021806678632293,-0.020937724043230056,0.8026847419873578,1.0908905349930027,1.212624654238477,0.6330565727148003,3.8750086061629134,1.0528557865777777,0.6807088810714428,4.517581015741357
37,0.25854138861525194,-0.6444512881471205,2.1879810456884345,-0.023766853114245708,-1.3662850478198427,-1.0905786110405848,0.5163227017982268,-1.8869977066656098,1.280800507983188,-1.4510210303007842,0.9782389913506166,0.15468762984320786,0.0851047955255921,-1.4989566838801265
38,-0.8290504121006766,-2.0361333286988574,-0.2610372430469322,-2.0493167995703585,-1.539216493884062,-0.19573185121620304,-1.4985152953801968,-0.7776277475813964,-1.5992888688102131,-1.023949408883191,-5.39605208991561,-1.5643863762259187,-1.7898837073496145,-4.699808033664748
39,1.094347095157067,2.050309204200608,-1.3934929368572442,1.064647773882387,2.009935093245881,1.3640748642255822,0.6150096929614632,2.3176395500601368,0.5155651893919865,2.580557663048279,0.6976136853678367,0.6518175233716629,0.5486807356476051,4.013346928552575
40,0.48776298302507154,1.6348954095069574,0.7175989853252203,1.7969492710975086,0.5903161432576562,0.12130869770084446,1.5001917827435838,0.013288211500184433,0.873842890702957,0.634189985418271,5.981345961736425,1.5858398381661183,2.70006698533984,3.466954676891383
41,-2.0520995224010887,-3.2194796646705557,0.3618217030605849,-1.8595155397690606,-2.0729036042553557,-1.3539074449966033,-1.7766069180980775,-2.1507332352370736,-1.853766306305775,-3.48187155920535,-2.672522356489774,-1.551351388824692,-1.593682855992308,-5.615216549464254
42,0.34581300397937703,-0.6068465498894271,-0.5644166539295783,-1.141790544915931,0.4626881501335082,0.02991022012421749,-0.7711103097130785,0.8121357845372572,0.6814622566743339,0.4944532433814124,-5.407279344078903,-1.0371627318253942,-3.1041624844929476,-1.364626747417986
43,2.2907370596672716,3.7691758385438994,0.4753230509445744,2.1345717685101757,1.4593773944617365,0.9429632197153488,2.453294071220464,1.304624312111704,2.1315009498822723,3.6128409645580724,4.185712346342658,2.1467385949960236,2.7176848493814223,5.7182730360204586
44,-1.2135058645700043,-0.6982489253096211,-0.11240516351579048,0.4223768206034261,-1.1749793716284693,0.05214984545194733,-0.3679832498159783,-1.237345855646366,-2.359213959046906,-1.9277869271020123,3.9779640833352503,0.10723170234475589,2.9344357237818883,-0.6689442477527467
45,-1.8060076584150524,-3.54410920513561,-0.7308568322289488,-1.8750209400952444,-0.37438434787783254,-0.2588372509137015,-2.3644416499851126,-0.033233648686076755,-1.23055096597827,-2.717884945430799,-4.711795779643569,-2.15692502212984,-3.562449990893253,-4.370866861787962
46,1.6729764759630217,1.8420364074526352,0.9528388439337308,0.03159045067079081,1.2238871788619994,-0.5906114236160852,1.411391051706352,0.9625848497245169,3.3513263533239908,3.013392884208521,-2.353805556777761,0.8147160214614381,-2.3782846359851124,1.7309380519730309
47,0.9004626265601557,2.6725832866917063,0.26440271605357607,1.316796731167638,-0.7520531721627488,-0.3833966888470045,1.5970173200240438,-1.178729634563111,-0.39590223122471285,1.0037795769503168,4.2062979748985505,1.564913789940795,3.9310965906256286,2.234585955104875
48,-1.5000204828600074,-2.4815570077893283,-1.4879310529772098,-0.08389580896571674,-0.5666532622523386,1.581577005266227,-1.935935855038385,-0.015205151682192785,-3.153805037834486,-3.2017002592418287,1.2034086522369403,-1.3223321314538188,1.7475742642611949,-1.3718148627961129
49,-0.02399832977104822,-1.4900314634454068,0.73280464662374,-0.790288963547997,1.454569572687771,0.6485407475081031,-0.5336524652062292,1.8455664496538666,1.9330973380924243,0.9187296008017494,-3.090548587949273,-0.6316371957400476,-3.8617530180273256,-0.2640399884037465
50,0.7774137467389793,2.4963472372593847,1.3709907133759773,-0.1466002901545074,-0.5316839765969897,-2.781770180599257,1.806460877966776,-1.2448745769219758,1.8297751016729407,2.342235983418744,-0.8752534533516092,1.1889112420774286,-1.300793565728614,-0.21283805483423868
51,-0.45076455218196776,0.37293711657154105,-1.8230730432079374,0.5126806380237784,-1.4455608206996549,-0.36038720881124997,-0.37341310692257784,-1.72245663355351,-2.614415421922935,-2.32036817218877,1.9980971236558742,-0.23657431591828523,3.5582702307015968,-0.7484153861580505
52,0.17748046543517756,-1.9928917471507843,-0.5493103387974083,0.389601576904974,1.6193901702114541,3.830429851395316,-1.2045951343856618,2.2928148485791326,0.023725964447529228,-0.7789879334828961,1.2631536031793449,-0.46549674332118296,1.132893097257588,2.3124175369536046
53,0.3962238236412827,0.419444355229017,2.5336716092786467,-0.46491792871781035,0.7436638322846136,-0.41237444999496076,0.8409248440371818,0.9316992525758158,2.1098847096147293,2.7179710341697523,-1.4355157042095932,0.6888846131245733,-3.245674724036497,0.5265752543835163
54,-1.0012487496128697,1.1982129663571506,-0.716893748470541,-0.4219596932167419,-2.2681121664394333,-4.429595962681667,0.4791079842864665,-2.698883919691481,-1.5921657628550907,-0.8220419352051886,-1.9198161164232461,-0.5686054803324083,-1.1831391926814772,-4.075126956840776
55,0.04868655289421938,-0.8079556825837386,-2.5783470036589087,0.4335538074084206,0.34860478892098773,1.4084998547648455,-0.8651691461874021,0.09922759650129537,-0.6778784312654491,-2.1126114152936832,1.5455553918532023,-0.5838596968123734,3.0539893330763053,0.6141391302653365
56,1.4758227842461553,-0.32347608749687473,1.993384661115093,0.2252571554531418,2.2625987317858263,4.474883256255422,0.07438297303749535,2.3441693251672677,2.2657864652369777,1.8218377165626647,2.3317621844980763,1.5608766093559943,1.3244674626261512,4.919605412159919
57,-0.6033407318400034,0.842830903971042,1.97039339620622,-0.1842134883248172,-1.4021629679480234,-2.322867794912058,0.6544148916176473,-0.8597071962957185,-0.9984987873559821,0.9640795389624596,-2.0855750582856896,0.019927963382254207,-2.992369487414893,-1.989827694073101
58,-1.6125377024024041,-0.5109469223355301,-2.8844676845574133,0.0035409219731368635,-1.6734522146580126,-4.066788764299784,-0.3626973503619686,-1.4733955596992732,-1.9329412443393288,-1.936232996509958,-2.190867928082293,-2.2492011991322594,-1.4544355127140227,-4.770093013969195
59,1.0285566645298538,-0.6005428329770937,-0.9772906772489399,-0.3558683270338334,2.0638028715521908,2.9537721445649012,-0.4498261712793887,1.0185292866986118,2.186013916118014,0.08084637160819305,2.6025528583084467,0.7522890957566665,2.999530160870308,2.928301029334702
60,1.5918289058402517,1.2535070253857215,3.2005797212303855,0.009003250627686752,0.7855365385439905,3.41231128656016,0.4920714569763034,0.5547558125532173,0.9928489057490598,1.3580162752263734,1.5230841079501924,2.549606902909931,1.5308651535317126,4.012073043458523
61,-1.2517817100201953,0.11903916890748849,-0.03958716300038819,1.0305600250469125,-2.1949261243031564,-3.2621654910471642,0.36454844282079363,-0.5813816037362901,-2.4698039837189403,-0.5459106080475026,-2.6835096250912716,-1.4660273909376382,-3.009117935272023,-3.0923890088523645
62,-1.6141286395944052,-1.8468497712622296,-3.000944631150681,-0.4228915717755723,0.06318766888553509,-2.6935684591699895,-0.6392354495811583,-0.027151301114448367,-0.10297257077109029,-0.6117183453844189,-0.6351996871380892,-2.543821169740611,-1.5533562236000567,-3.225222926847966
63,1.3666689589392558,0.5806294693485835,0.7991274798270049,-1.5437257224921812,1.884569484982799,3.3223918205745515,-0.34185681440305904,-0.14162071116003058,1.9205899868331953,0.3646259649688159,2.1451268460945916,1.9446715282807416,2.9800282016737025,2.5865353952544834
64,1.7666857375723148,2.1851907866407974,2.512288239037496,1.1713840998565421,-0.6348746300235477,1.9915433415451764,0.901783338549144,0.08036972277566735,-0.17878840507942348,0.23499859173179521,-0.05775324821850505,2.4015984451522727,1.532289722960037,2.8630566878426826
65,-1.5267432972996833,-1.4188745221190728,-1.1979756632227434,1.6394041822490926,-1.353559501948762,-3.2171537832957884,0.2408394924160358,0.7302441781543484,-0.9957130950083137,0.12589091400339264,-1.0901794606501103,-2.1393723874827493,-2.888889020855907,-1.8244310322767732
66,-1.9878108485799417,-2.1561752687613005,-1.9916843101387178,-1.9941093360777205,0.8599841388005621,-1.305667087283383,-1.2328629455478095,-0.5903923038960659,-0.3428231229093834,-0.4748142170623609,0.2210858654989834,-2.294479608031465,-1.4809362391114145,-3.0532877803985543
67,1.8172280146710669,2.212283637653457,1.3023715759221968,-1.2533783259302043,0.824196783992834,2.9608958215687045,0.028732010394386106,-0.8877447343071474,0.2594885705848874,-0.41860790997007646,-0.15904004337617667,2.1072113123813314,2.717071986668147,1.26630432896027
68,2.137343797400608,1.7408869761449313,1.6148286205430258,2.58754485049502,-0.8067732618273676,0.6389810007038527,1.4947890662752168,1.2334665665965021,1.455805573629391,1.1684218045537529,0.27175860643021515,2.339968531563719,1.4290984296165763,3.600121816742507
69,-2.191590044994918,-2.720764037782404,-1.2691132843968276,0.5437016909508529,-0.4323544735999207,-2.507667983379732,-0.4246370289129529,0.5758449888826845,-0.09225228295320073,0.15330399552982532,1.1947002752776588,-1.963794990951927,-2.4595936946780474,-1.184109216789887
70,-2.1131849097575883,-1.0865436320205601,-1.4335520621778797,-2.7724017996385486,0.5977879543273474,-0.07276116745025657,-1.580636669522454,-1.6934541726224073,-2.70564463351037,-1.8666697915436918,-1.29801259439654,-2.5827039805918637,-1.4283729704984591,-4.147788029123348
71,2.506937418002842,2.77196082605917,1.2556025616886624,0.20861313177639892,0.21398260468410496,1.8336412006610532,0.798686396344003,0.01530868738692864,0.5384407790779963,0.6674740175899289,-1.6701023755120463,1.8394146076611395,2.1500510723223334,1.5671798357147575
72,1.9318248342154167,0.47784935950182766,1.3955444259952399,2.576534551858446,-0.33667425480269614,-0.23630559112860003,1.510455193918968,1.8290432456491708,3.6526267912292414,2.119001406895695,2.524539891033612,2.997966361845813,1.5263787497915378,4.388916362703388
73,-2.6251832680013054,-2.3786048871215995,-1.3605935515823535,-0.7572059460737643,-0.14439803712385596,-1.0264056913191533,-1.0073708195181368,-0.6207346399024128,-1.3475424984678575,-1.6826289763493123,1.4222884462177503,-1.8481611545746741,-1.8693888366837723,-2.1844855337333473
74,-1.7231136530565407,-0.20683676910293197,-1.3923573990272489,-2.194385203924922,0.08151010698589597,0.14583389945518163,-1.4323598183084798,-1.708197697798581,-4.07621410487341,-1.7528591573944976,-3.512465216633377,-3.5024206954587815,-1.7218284283109362,-4.204940717297481
75,2.5080568967332013,1.7598802835976768,1.602688021405463,1.0080375292451131,0.1841426582974324,0.3029894612044075,1.0256791646576013,1.06536548558076,2.152179814918226,2.3887757020298754,-0.5420338823635316,2.063589430589836,1.713115967879876,2.7369606951531495
76,1.6494307607865601,0.4186735376678561,1.3079192879826256,1.8631130123505752,0.14229808350100345,0.35328518667042413,1.5270851660160174,1.5123793127848537,4.034230468164097,0.9888948636225288,3.8666569622117395,3.9702732779875918,1.9410160556148628,3.687697437742413
77,-2.2446560373562847,-1.2413964546896412,-1.923662720603168,-1.0363444205584749,-0.29955018322103644,0.07532314526192999,-0.9829486205124764,-1.3370845563059357,-2.66695868372784,-2.4425250977206474,-0.6365884471186128,-2.494506654388888,-1.728292204929674,-3.006217125113254
78,-1.807015660185133,-1.0328891424642552,-1.0597983322660107,-1.7395186929153468,-0.32109494551195994,-1.076565357277285,-1.8807406550722314,-1.3946238506204403,-3.777869523226106,-0.32838174423883926,-3.390203212837935,-4.2644075341294885,-2.070061004025706,-3.0627561756026713
79,1.9993567690791045,1.09134656254795,2.2070839662736357,1.0123759429276638,0.4590120151886577,0.05010917140038303,1.0931232502469288,1.5401449292504172,2.8052638290381,1.8783553753051208,1.6413069856774973,3.068798349259346,1.867768863269359,2.9339793457825656
80,2.173047153822431,1.7907790395336403,0.6347078148777051,1.8465578346941196,0.4477330172199929,1.7018655555465327,2.4119556351635008,1.3910918187202903,3.5973935828461694,0.2750364589408815,2.1842594558967376,4.2872705243571465,2.034946796948376,2.5746898638646796
81,-1.92051493548642,-1.3928234776831634,-2.3142707266245193,-1.0990744106175776,-0.6269847265200936,-0.6196180026139306,-1.5229142863186123,-1.7838619561182618,-2.6779995845347715,-1.1209707481585574,-2.0398621400135557,-3.6465172847205496,-2.01006592790732,-2.618459125633013
82,-2.625197108771211,-2.396934642033748,-0.11144979518475738,-2.100769822977938,-0.5298649479197307,-1.9244232978650846,-2.903310183064725,-1.4327636181624974,-3.6886317417264447,-1.0410567983632504,-0.6372944839002891,-4.034125698952758,-1.873836013608598,-2.3911092348039116
83,2.070512319167303,2.026061576009747,2.1398626024183516,1.3879336777884765,0.7722439967260007,1.3551321172951158,2.283174855131764,2.0954262612794268,2.508867969697791,0.7823294550610908,1.626793939052367,4.0763002527418415,2.049108175684943,2.2541395808463323
84,3.0099963748367706,2.6645922251885557,-0.3469818955793688,2.3772466404482047,0.5925921664479283,1.6229194325698386,3.1175234248297183,1.427282003984173,4.091450351402934,2.393376120051514,-0.7134753693029376,3.610822097701954,1.7356680479191455,2.5531598802917035
85,-2.4140992574569435,-2.7603467266172617,-1.6732859239005813,-1.8956923585848227,-0.885077985868282,-1.8912839535587258,-3.21297162811465,-2.4132707468239976,-2.5308893695448655,-1.3447453701202206,-0.5322359519324844,-4.277331434507098,-1.997613450570369,-2.0527327876394876
86,-3.210194806002153,-2.579905177330105,0.5459619816350972,-2.5567593457252906,-0.6629518850175599,-0.9317969693812884,-2.923793232132469,-1.3373318505379255,-4.697240239105543,-3.7240493422615737,1.4039398105707037,-3.1864580674218255,-1.7844939431012028,-2.9724637126758005
87,2.8568423976536663,3.3864409572461267,1.0342791383264285,2.5928776808241074,0.9834381560422951,1.9671139316965738,4.063086859036439,2.6493418048732584,2.9097205152882935,2.887515947091205,-0.8135068303770339,4.295613831011399,2.0209921734600043,2.1716646710132737
88,3.174986971235765,2.262029500048524,-0.34560323980544694,2.534388149851339,0.7454403646960975,0.16906682003423332,2.3570769433827854,1.1986016152728967,5.293514723930634,4.318966601472001,-1.2501335033311052,2.894302789245937,2.063088565865996,3.463655091611496
89,-3.2957262632769595,-3.8045323070942914,-0.4509169526719781,-3.4189275292591854,-1.095477060569886,-1.5635983236574802,-4.621049794951395,-2.7593657651150427,-3.7005927040560547,-4.994411028980975,1.8621082598590746,-4.284064890226474,-2.3558356254293296,-2.6617785104603326
90,-2.9123336903381105,-1.8659727210316979,-0.25855262815959956,-2.214809978351568,-0.8119497965718855,0.33990474070658616,-1.5826449753861371,-1.0769304052980562,-5.621227512170684,-3.7036299160518342,0.4324707410012283,-2.741948715774302,-2.41409668983168,-3.80348710771453
91,3.6493981202740593,4.027435691357413,0.17570936535596257,4.268931950513265,1.228914037002654,0.9039555738357943,4.799810113674663,2.7655526394856826,4.826218313247164,6.898016622658518,-2.1974022183413506,4.403685595478937,3.149266275341739,3.442470148825012
92,2.4671258965061056,1.501549165443899,1.1081554795922997,1.531866567747927,0.8207025190037092,-0.4363789451648179,0.8004689294534242,1.0113555118873407,5.441991872991046,1.9031013533260914,0.5980801486275483,2.5993482337920826,2.5304130568039094,3.8073060551215976
93,-3.863400999843288,-4.124246288731372,-0.37457072205228553,-4.981107418624342,-1.3541715994699643,-0.3208544119055358,-4.646822505445319,-2.7246305870787095,-6.074470220966381,-7.809384765989801,1.7240110303279486,-4.706028071108412,-4.322228842931233,-4.31662276524206
94,-1.9061446731936187,-1.2104831830342857,-1.9314387697700366,-0.49758593533006734,-0.7531154574585218,0.19912779203256595,-0.15325774930971814,-0.9907961844854936,-4.616981102405338,0.5173616884437695,-1.3500803185061667,-2.2845671053339207,-2.121112460180382,-3.40315739267726
95,3.9066671714214305,4.16219637460668,1.0457093348267343,5.365105686629659,1.420590888114454,0.07552651572298164,4.285975786599066,2.678959242828024,7.133354955411974,7.289114466487565,-0.6874560371675863,5.081369433440694,5.556467598687898,5.033228826667099
96,1.3117101703742842,0.9888984093962232,2.4495926199386924,-0.75771004790965,0.6379496632294399,0.11875079725466019,-0.3153107659911578,0.9736703963118373,3.1794691466886302,-2.67087453915653,1.531436391500114,1.6945770045238784,1.0957282765504677,2.67114590734605
97,-3.7735135227895142,-4.1839185778970105,-2.011951985213006,-5.275644025639215,-1.3973024904582723,-0.23361226964002677,-3.838012825635627,-2.6320165115790464,-7.676192634357423,-5.480412795339403,-0.48547301369748314,-5.315608804186618,-6.428925692513201,-5.383710641077771
98,-0.7732819258969024,-0.8138483780670328,-2.4876795315629963,2.0007598701549933,-0.5380714297423919,-0.23616665236429127,0.6446330650221191,-0.922493652931258,-1.3621160505535403,3.74180869633225,-1.161679457425995,-0.8904378253303717,0.3502787737421201,-1.8192640574788297
99,3.489834724489891,4.212563900650301,2.9893227535236178,4.688538282744307,1.3060585570955223,0.6552912859630317,3.3618734371972607,2.5570635350697675,7.4786522843153955,3.074580947212442,1.4263472949486453,5.220679034945899,6.621713804411013,5.291009317278515
100,0.3705013467347247,0.6493000991724592,2.037487644028508,-2.973943711612467,0.5045438346307038,-0.015569267002647443,-0.9040975737818018,0.8229828585572445,-0.45305144113216606,-3.369202073661107,0.49889288611952326,0.07613322620036521,-1.80789989267099,1.0953555630006653
101,-3.112911554156295,-4.25438472330272,-3.695392528813648,-3.7245179955149124,-1.2151615634205108,-1.0846164401003475,-2.838258405964152,-2.4175566895610014,-6.517910458181546,-1.0061294193774968,-1.9973054379076576,-4.750005927975869,-6.08643494790977,-4.842909251222611
102,-0.15333672095616593,-0.4430507489284558,-1.2490422566647037,3.4943406070045993,-0.5321420801243603,0.625504237610541,1.1311867546287675,-0.6837998137613115,1.8564745575849957,1.8240113392847865,0.15788007338308155,0.5138905416652918,2.8484526711636375,-0.6738416547626063
103,2.7193128431193982,4.2849872215524165,3.9469879870801545,2.6021728225782,1.1928553540555678,1.2760632663848612,2.198588123282729,2.178916973422453,5.001039217067185,0.019218913496421075,2.299858753904151,4.02384059557027,5.0682160582421325,4.24595864768135
104,0.1304076031527653,0.14081894857345012,0.36403386912149394,-3.514199429771786,0.5540736164478328,-1.4231805198722054,-1.2879100582103047,0.5340361858587734,-2.5570717977683066,0.12028086246420597,-0.6555122464298291,-0.7411491007857351,-3.2315672202856227,0.5768398258361874
105,-2.3861288704834056,-4.237021561827818,-3.71071157553014,-1.5517849532243382,-1.2526993794607066,-1.0962592654668741,-1.3889940945756434,-1.8144798885986857,-3.3000026212631473,-0.3246600212581165,-2.536414455218966,-3.255698551659561,-3.9761868196453847,-3.7211945158280764
106,-0.2706950408640864,0.276307440632919,0.373676502111228,3.1139896968095258,-0.48587300863942806,2.1582638202431803,1.260045774112437,-0.4276512535127447,2.48733265385502,-1.5627359938627277,1.047627067160396,0.6236753131192134,3.013217448491774,-0.673697923298326
107,2.1751428376926607,4.016972078374892,3.0963986687143183,0.7434658733367926,1.334093094519563,0.5687122456899836,0.44252226616635393,1.3211556720530464,1.816391028488277,1.5234062341810646,2.8322595036684124,2.6367053546885377,3.1731159647650213,3.397914113811074
108,0.5141608472936648,-0.7563933323641812,-0.7949952945281206,-2.4470072637069715,0.28952478108995966,-2.5997004816186076,-0.9116172512541414,0.44128520546424366,-1.818980266425579,1.9017879314831037,-1.5072585759966823,-0.3039578349934571,-2.496945231587464,0.7585489322169946
109,-2.1249393081317547,-3.5561542859698068,-2.3064564590779018,-0.26262539296125453,-1.3374773906591046,0.14134835755013206,0.4818670307128943,-0.7456069119272101,-0.8350026288090102,-2.8292329327881944,-3.137962129381964,-2.2524156774861965,-2.8003235507237068,-3.263138116720296
110,-0.782556553462655,1.178498586455167,0.848371875475764,1.6804549093532268,-0.0099507527946265,2.6219080777596946,0.17889534962563544,-0.6462604306765627,0.8814279206457405,-1.0965893216114775,2.16599080088632,-0.03997216333013545,2.0587348059547588,-0.6608213053873442
111,2.248415700452805,2.8678405061427537,1.5647578549517178,0.12595924947746134,1.1925451908754172,-0.7904680701337428,-1.130213844413615,0.19732255677940963,0.43290119232742225,3.465439748014446,3.2672121045603553,2.072316024556563,2.7326671981835466,3.191316689780104
112,0.9853716255952845,-1.4048641488266094,-0.6030846247797031,-0.9661506318715218,-0.24625927886938967,-2.253981139793079,0.8437298822310532,1.0582404270293309,-0.02174788090599173,-0.357349928949713,-2.9925268657494057,0.2778804178086153,-1.9455394825495427,0.3265778494614645
113,-2.528872914062361,-2.0682732746225456,-1.0478325649967348,-0.30509664899942907,-0.9108523204306895,1.1501944325720193,1.25833940629764,0.1784181006987054,-0.4837870118022791,-3.0285964810475687,-3.033651717099142,-1.9994235936494869,-2.6834940952849498,-3.031901162070983
114,-1.023871168537446,1.3589878629737884,0.21848944780300297,0.4398964040122918,0.37768252192894053,1.6733243915476546,-1.8844404390010645,-1.5970898214561422,-0.5257379249352212,1.704170512522387,3.7877905368385005,-0.3617833479068048,2.1601439633890522,0.1715929299136335
115,2.909599397084808,1.3366986318743053,0.8343898619749115,0.7301036556028873,0.5834168672573662,-1.1011788807300624,-0.7682724013712435,-0.26816330442108055,0.7474227307200947,1.6450142665812968,2.3906861514123645,1.9349898942509332,2.392287336882739,2.6996379575786094
116,0.8032038496569467,-1.0804763864194287,0.11124979426791928,-0.22144626463392952,-0.35358519161626684,-1.1377280119564617,2.574095933505245,2.095054630042589,0.699822764542876,-2.2985790160007182,-4.293978864837846,0.30919526409674225,-2.4920106060000267,-0.6943246671619788
117,-3.280501874574957,-0.8285527390288766,-0.8838959468421461,-1.2740088649192305,-0.3234735239317129,0.689619415446775,-0.1966625614818433,0.06372140210265552,-0.9888661051867322,0.13552177069003774,-1.4833124322969924,-1.817230224494375,-1.7810820044247606,-2.2137860021444578
118,-0.2624902582572307,0.7149772847530126,-0.22521688886194263,0.3881506739543605,0.23127173423040098,0.8754063903494397,-2.6055659913499474,-2.3647324570203834,-0.5861256276707338,1.8843132521038077,4.343316035126287,-0.16401441321290205,2.6658447958931513,1.1215342699709658
119,3.4777184384974906,0.5921574740662857,1.0528988017652672,1.7481420531197613,0.1949280881633332,-0.11315125099462124,1.263920291590766,0.3082110046421222,1.0634654070492056,-1.6285880835837376,0.5832324929978049,1.62207678998028,0.9905333942132813,1.668302434551712
120,-0.5797670910820898,-0.43672875529276256,0.05864056722952726,-0.9243499769509647,-0.11359681101316169,-0.9796719160933999,1.8998403311942573,2.2972173153659377,0.3377746770864185,-0.6601949867196435,-3.952790148755706,-0.0319197010455988,-2.5122514992575065,-1.409189746375723
121,-3.31705851315483,-0.5457746471195618,-1.1522089136487785,-1.94103295424145,-0.17746193214894823,-0.36778278501480854,-1.9687483995413333,-0.630924942152881,-0.9370242307088691,2.325339012356296,0.04528095909616758,-1.3436533115018299,-0.2858644393790091,-1.1621834639540376
122,1.5891967653944805,0.34965480434763996,0.3254947084273898,1.6830740786092793,0.07877193161654944,1.362993704384389,-0.6866319748507976,-1.933682012702314,-0.09691331559885004,-0.865276145195131,3.3140176760795255,0.24292950228174212,2.060912753277801,1.5870333931355227
123,2.666405913152245,0.5362942185230845,1.03119450915031,1.703082300681981,0.19146946120268302,0.5558868990302966,1.9646771376427106,0.7039561564413719,0.6564226254298812,-2.0753538038143935,-0.26411280606239823,0.981548922253704,-0.09910563224880994,0.7427446164935139
124,-2.5247301268404314,-0.43458686227120674,-0.7599303631329983,-2.4060420974701486,-0.1338314791393912,-1.8015712394210108,-0.561782026626537,1.4605468411050728,-0.048458867482209414,2.1256522377581386,-2.698412280942085,-0.4303843634200892,-1.513783452110489,-1.712122228081588
125,-1.5283494158308837,-0.4419936005692814,-0.6527067171238592,-1.0349511003511052,-0.16110184247190776,-0.4150887220092022,-1.2029339886980148,-0.45446974366673765,-0.3061232540646361,1.0841040981799346,0.10480719221385863,-0.5466925738743339,0.08641519611580199,-0.3962029521849292
126,3.112924073096414,0.5814101560192797,1.051904635947295,2.816938118265863,0.22327982959621545,2.0535927752033962,1.3304815896590465,-1.119712453933694,0.0716618563481164,-2.7191987650406593,2.3423089128774417,0.5512625682261604,1.1288857199989524,1.8204366579485
127,0.07902049128831111,0.24488997065335955,0.11422202456211672,0.11654443364493298,0.0662787480843176,0.08324944067844182,-0.02306905008586837,-0.014959015364109197,-0.027042004245095702,0.22751543629678073,0.2644396727789887,0.07389668392070278,0.21263166531724073,0.07790526977308293
