,AF3,F7,F3,FC5,T7,P7,O1,O2,P8,T8,FC6,F4,F8,AF4
0,-0.06510388983805365,-0.10817381079125121,-0.014019036832795477,-0.07125542768714671,-0.04509849339377916,-0.07509679891994116,-0.023431074029294983,-0.04841922886165802,-0.015686172737910273,0.020808272222821483,-0.1783084792527269,-0.10458704577704736,-0.04872739702656367,-0.17581523792925854
1,3.667486059682679,-0.3892656360335858,3.1271234063203592,0.7377470891142115,1.8571086798354453,0.41729106378998315,2.850653792152837,1.6062513561423035,3.335819787608748,0.9774868864664347,2.126887810636329,3.4166541146452327,1.910947003746484,4.135106466773465
2,-0.46413719958885497,0.8894887736746765,-0.308257636652281,-0.13876048490001788,0.4470477580802937,-0.19879202239131472,-0.3175352928904615,-0.1710703247474072,-0.6203253331480667,-0.37447343903744174,-0.764302898803504,-0.2043248989631579,0.45381673029338904,-0.7544326660596504
3,-2.9264656360969994,0.30718040767051685,-2.6484567195045403,-0.34840607139269536,-1.9394425464222327,-0.12418225601665855,-2.5173976034728285,-1.5579553756506126,-2.7853530451235478,-0.40062717884532617,-1.2997520292585805,-3.1000473496105205,-1.7692227607684998,-3.425551441469776
4,0.49362952489240935,-1.6759583700441307,0.29214961047785604,0.05400474299965807,-0.7799895718300234,0.253924637767121,0.4470837831848688,0.4397302962365586,0.8189173021285477,0.2285650689491173,1.2308634708334232,0.35252508367732555,-1.0350947241415855,1.287881128548593
5,1.85684095683211,-0.07839832347940351,1.966903796781705,-0.19417975802893467,2.094966969670093,-0.31037038241142006,2.0194478553238886,1.4434703661164134,2.0680378374407105,-0.2559827099893013,0.00755786309480834,2.635636308972011,1.7107740642316556,2.299757548257524
6,0.18406489411964752,2.3999716237033066,0.20001506109615227,0.44599260034918287,0.9754699430006226,0.031169450262280154,-0.2811065317530511,-0.7855339957513326,-0.44968123209865035,0.5280673331391025,-0.9676643050507345,-0.294902324919754,1.788552402607711,-1.2179449355819378
7,-1.0447048282474227,-0.40444041790606544,-1.4831435477987291,0.5236488666090274,-2.283168292351461,0.6293922490770599,-1.57689981391355,-1.2140898995914962,-1.672144915056917,0.3899202753941945,1.164746982430601,-2.2647922882505096,-2.0588755401957117,-1.2753081066399814
8,-1.3402500559470125,-2.8670500873161,-1.0133693793324023,-1.200561501315248,-0.9790904478088965,-0.598078758137558,-0.10179325890210576,1.192970658827874,-0.21941515128562578,-1.5046236293378037,0.12220789229859834,0.17572026428081802,-2.414791439507581,0.7138125229773229
9,0.917491721877345,1.1221522104130002,1.4909666753453177,-0.386347005177497,2.4247062711018965,-0.6101542117979492,1.3350192734388673,0.8170769406733606,1.8766504936266208,0.3245512626086905,-1.7364315278083053,2.117209783283776,2.947934625968251,0.7550656866152815
10,2.438042638791162,2.8599334565892383,1.7904289024576947,1.8614313436617018,0.7876847369556462,1.234367051937551,0.5358517571948443,-1.5859895299009,0.6949077249394359,2.0189430662976524,0.8597698082729177,-0.22377368340643794,2.463269158876507,-0.22001843359509368
11,-1.51031720212831,-1.8806636526697844,-2.0270518800684627,-0.2140065198333746,-2.4265415987894654,0.16982722494121139,-1.3061205215403522,-0.23718730550278821,-2.5696786918780563,-1.6804111986520323,1.5421415569782446,-2.132490030565296,-4.166011124855478,-0.8132719085905554
12,-2.932319505645589,-2.289732667979554,-2.1665548875299807,-2.0919571230411527,-0.4733683191606664,-1.6694701994097698,-0.8841138789193811,1.8412377929975208,-0.5728840406616778,-1.5145115019084332,-1.4763234887500472,0.5878310443493566,-1.6065446620085644,0.20124281859935392
13,2.4630961744597344,2.3933570819910557,2.87329097956574,1.0289898795574235,2.2357456080280222,0.5977065196378655,1.4124364998841228,-0.46053085654215153,3.3222903207439125,3.0109412350643168,-0.7534010193293736,2.124652858227483,5.214961069470264,1.1787739963795758
14,2.5600301708559625,1.2789995876985383,1.9474043805130523,1.7435858153683437,0.16386878920603404,1.690043021217312,1.1038480815416372,-1.8402810273351276,-0.21313301451991434,-0.07666612541536423,1.3938718534915029,-1.2383152982405192,-0.13356188096553792,-0.8901016333692271
15,-3.233163417544206,-2.437211740182767,-3.6865467629465227,-1.7083855189400436,-1.887741217238782,-1.462722409713131,-1.5794701332738137,1.1169730720414655,-3.655975490395792,-3.548672186337007,-0.2573699938077863,-1.9290982990875167,-5.549782661101679,-1.4057124554108027
16,-1.4588343551103267,-0.11254566808052244,-1.175472277118959,-0.9124890735596307,0.023942906882335295,-1.2222836996195228,-1.220231038061259,1.54613886618739,1.3634670626637577,2.2475978260090024,-0.5427599165242004,2.0030376342849077,2.3467599326715116,2.1785033321480465
17,3.3858411654141465,1.9706789315049664,4.162076392694558,1.9732415349207388,1.506637508498419,2.1497013186637943,1.795431152661182,-1.5208111556141055,3.3219942006978913,2.8530400175502018,1.0959870607735736,1.5140026895126866,4.850559675805979,1.1143997252549778
18,0.06683649764257976,-0.9076891568905688,0.07670701393078477,-0.13213371890565376,-0.061192513976009597,0.3531027881676087,1.2458583516987864,-1.0634066621432838,-2.403032424779268,-4.1542707047248575,-0.9205874101557634,-2.6963484999314953,-4.395649774692241,-3.690688558397734
19,-2.7965145572205428,-1.13360751456539,-4.141062162286305,-1.7221451591395163,-1.241611910503246,-2.4332007380495693,-2.0895587875502697,1.504760274646854,-2.421028255421276,-1.0589140161604058,-1.4681200431137462,-0.9767081923545831,-3.1771079087710814,-0.16403337489130237
20,1.114805432052012,1.5986116672141475,1.0530831782659134,1.081051970670599,0.039157573536188116,0.7061380745893251,-1.125473167450823,0.633555104411112,2.9550193549997497,5.034656475111046,2.7103732986804046,3.2328270036834272,5.675804514678614,4.966824592738552
21,1.6695618707846844,0.14114631171908065,3.630338613620184,1.036049389241275,1.1698483471361447,2.2053045661552537,2.454268839809635,-1.0549616711971503,1.3089532518904101,-1.184068030623881,1.21906992796292,0.4436915898687941,0.9433653431104263,-1.3134550942778487
22,-1.7508190626496702,-1.93263726903065,-1.9507210350282327,-1.6972156929002031,-0.12142388571098571,-1.6888746703576114,0.7599585500364273,-0.543099897493486,-2.9253119822373166,-4.573119811799869,-4.492020150651616,-3.64027077204363,-5.839054949361869,-5.643453740535472
23,-0.3957006665126858,0.8398696435510093,-2.760087248800087,-0.11315293545711838,-1.2296597015334183,-1.5006618973489767,-2.7834150215031968,0.36682914513039316,-0.36994122757598286,3.031597922649139,-0.33133235946689477,0.0327361637430957,1.248445676741653,2.994870107160932
24,1.7762753042796238,1.9663797507221166,2.440367440372173,1.8646337804246407,0.43310267902766,2.3480018690504916,-0.09660384483324785,0.9744297741881377,2.4993049850009883,3.0226085965571596,5.927127891749721,3.9750731240792603,4.892649654148791,5.554824826498158
25,-0.6464543998902944,-1.7400620060362058,1.7247008502398216,-0.8096403849722518,1.2385590269037263,0.4827360399249378,2.887700233346653,0.2050002603872988,-0.1925259758114456,-3.840656119042314,-1.0761311827450841,-0.4940937617113698,-2.8210276736444926,-4.48924171004469
26,-1.3515348713396569,-1.7343461551593047,-2.4449348903621693,-1.5834667631282424,-0.9532305843673591,-2.517027758535021,-0.782249233530538,-1.8758489700572734,-1.9762413130310783,-1.041196587562891,-6.712556185020638,-4.221026204155983,-3.1637286697158804,-4.749598960863705
27,1.2312994994722501,2.5366667104306537,-0.7360073301118312,1.5118820131701756,-1.0004158177065974,0.5971293253574103,-2.5907132593171114,-0.30005422347323146,0.4242392559482375,3.434694745177524,2.74386698367685,0.9991001683430626,3.398580825847623,5.4458976879821375
28,0.7304776659059015,1.2012744541618217,1.9773290586921677,0.9462249771219805,1.485812485328562,2.149852641616041,1.6440367760144636,2.9340316098207304,1.5613227488853918,-0.6477750328778065,6.643865586343395,4.261504840683044,1.1709845988633247,3.458964657014197
29,-1.3159525471090368,-3.1584238541857412,-0.006661587649231562,-1.8202811859926549,0.44482845567764306,-1.4569778000247848,1.8481616583732334,-0.2598036531383057,-0.5234944165213588,-2.1180343227470733,-4.296047451316815,-1.5169177235074027,-2.9012779635849024,-5.634842550834887
30,-0.1365437301740873,-0.31505105926294596,-1.129822770165914,-0.11931397645464752,-1.7430692890829746,-1.3376510741893803,-2.1889570213185015,-3.6855978866102577,-1.2508058428849766,1.5812792951890633,-5.693945949065891,-3.9544683639980303,0.5413008221931569,-2.0427331962505377
31,0.9827166244799286,3.437298891933505,0.3388796285824541,1.6344735694088999,0.28817798349909496,1.8508517368240711,-0.8106911658485011,1.3500758678742342,0.6585594850397845,0.461713117932259,5.321162321386386,1.880912474467476,1.546656889791858,5.010462903734273
32,-0.29175847922898823,-0.8798985639848531,0.06663670643115588,-0.6729590481615723,1.505332609039806,0.3002378727558569,2.190598339468569,3.7263993127392863,0.8762713278300117,-1.7037509222937384,4.061342548337311,3.2598137944543355,-1.5592870109155572,0.9095267417646389
33,-0.36134417061194424,-3.1641350543799804,-0.15635811674949388,-0.9609682778651242,-0.8812866392623221,-1.638319378657625,-0.21798863239137545,-2.568685713450763,-0.8287343202463706,0.9975235285324217,-5.4984280462185495,-1.8500244550484084,0.2324306491919151,-3.7530290189260684
34,0.4872519891075028,2.1612988820333072,0.9864956464283868,1.1823609049908188,-0.7692493284806304,0.6551723329057249,-1.6135292832678616,-2.913619964396391,-0.26670069520666384,1.2860408564178207,-2.143166962626483,-2.327122549798145,1.7072920905168154,-0.4005021736483622
35,-0.41356962264833774,2.22783627754528,-0.5525912194926101,-0.05481669128226442,0.9881831351571172,0.8436202103543675,0.9118123577730428,3.4077341581164964,0.8633490569945863,-1.9721951251221204,4.719528620827026,1.2482708876188942,-1.9279267133405111,2.2541665330511376
36,-0.4191740006702579,-3.1596657022285495,-1.769441024160421,-1.2036894578496091,-0.2065629662583459,-1.213306579322273,0.6377839405039369,1.4492828235428408,-0.590021457483684,-0.700770590798169,0.4236586633816803,1.4745991071530746,-1.078417002769668,0.6567276448886107
37,1.2007877705655368,-0.7504837717645307,1.67355187220717,1.127816827008725,-0.4249985665554482,0.32030778521546643,-1.0710390493010182,-3.48867750607233,-0.5555772251963413,2.452469114951475,-3.146166748203835,-0.09771649861461022,3.1120469620818088,-1.0147890065217346
38,0.08419788069638451,3.511360423942038,2.0451035517645826,0.6646413697507995,0.9980201186313316,1.1588997634850706,0.4258633465174453,0.20636547640701774,1.5014076874633893,0.21189806945359932,0.6847833315241971,-1.0585325689556255,-0.02131913140798814,-1.5293121494842052
39,-1.838518505316532,-0.8819127857749209,-2.9525225892760774,-1.8922907335912327,-0.6991040456477776,-1.4912516581636863,0.706835461865612,2.7367302478638296,-0.165808698082888,-2.5750388887372653,1.1695336474623534,-1.339049585049966,-3.5553759887853467,0.46848097173727893
40,0.46546450761860897,-3.061576587294484,-1.6860116696521112,0.3004344963368213,-1.216465754186301,-0.47907480576125133,-1.2830005401362434,-1.5487541564865317,-2.1745677820541456,0.09620463887142991,-0.9836328761718068,1.300396283405977,1.1939151658970564,2.596020872172076
41,2.15968123192772,2.142187968433662,4.0331902851956976,2.0233891122080805,1.9915393420180343,2.2713250975400547,-0.017178295516297418,-1.4012711394599624,1.1492521558214823,2.4580208882390666,0.7191926705292541,2.6395042322136413,3.266545118417274,-0.7985548901853617
42,-1.0869330516395261,1.9987643185653947,0.7597475129599016,-1.3442916925746886,0.7148978422776373,-0.593348727467497,1.783856065403898,2.25434122455479,2.4001389100325126,-0.2380983361057195,0.5522048426123696,-2.164200310961907,-2.0860783416228905,-3.303177969419717
43,-2.0511399645103006,-2.59902954941495,-4.5620842076334025,-1.3839821409940842,-2.9355064619128344,-2.3868460008072208,-0.7288942766055126,-0.08394633787799381,-2.082192006848906,-2.1313212682792573,-2.09910378694761,-3.390049415517714,-2.4469598567918935,1.8384478815126664
44,1.5510557390496724,-0.8227758430977775,0.44195972980161025,2.0006525590522783,0.31062135975479344,1.6403931790623205,-1.9640349160100736,-2.296196763178529,-2.1904355383030736,0.1954604331436224,0.29670384280285683,3.3497730110426076,2.4875924192365435,3.1842585152205554
45,1.5297771909224778,2.1509661395419086,4.336374643593243,0.12718965023723705,3.1283836298293886,1.8263135658158973,1.3312825755259612,1.3157268451559632,2.6653374573744513,1.6016467026069923,2.762218195624114,3.3629730708456576,1.3923953859880578,-3.1136313634175683
46,-1.612969393854959,0.13205386918416392,-1.477618707460293,-1.8626296710617933,-1.3866881398577937,-2.22337580588479,1.979984306544929,1.8963760357426804,1.777229861045286,0.13520481393019634,-1.1542027684685014,-4.409080491066044,-2.361683391601117,-2.0614619565359695
47,-0.7806548398167766,-1.1198146118783399,-3.4224511335885315,1.3135616756222437,-2.481382241813298,-0.876270547733083,-1.7433600753174883,-2.0875960432593974,-2.7869259589341246,-0.975330886581296,-2.767585074170593,-2.617745638056496,-0.39086209283247103,4.017572448818553
48,1.1295300233130774,-0.3215278261974057,1.928556380927591,0.775197238318218,1.9729393065578813,2.0888475937468933,-1.982607615325568,-1.3604146094614853,-1.4679977520514056,-0.8577593254725606,1.68765047332284,4.934071954374759,1.8146316107703049,0.13977166551367426
49,0.1110445725888309,0.12555931235402934,2.163934961207173,-2.370163131071423,1.2752110103093823,0.011461907069169905,2.0541845575281537,2.4214702897634712,2.5831600675156405,0.5087600302418258,2.381697993879369,1.4778527350238941,-0.3463188352071933,-4.05259952331177
50,-0.16075099925954622,1.3520924172676645,-1.594816642656569,1.055603514369099,-1.716551616863584,-1.3118327740661082,2.0093201761249677,0.9052456951533553,1.4515330708551175,1.917486363058274,-1.769886457636185,-4.730969416867278,-1.0360663023750447,2.051462211928371
51,0.1802513371180485,0.21777204413611964,-1.0472918600608003,2.573693642291343,-0.03674557225989286,0.3284589221536234,-2.3830927402077835,-2.468413907971558,-2.343871039451573,-0.5076522653263058,-1.9326500755001972,-0.39051769295624833,0.7120357038378909,3.0377446691030925
52,-1.0168141904978825,-2.734027996333157,0.6048875860451426,-3.1080294786752716,0.6225176030834182,0.2857127437318936,-1.9642353738222231,-0.5832902031360634,-1.6761084569578502,-3.006941328614726,1.5045130534349975,3.9002265986299234,0.240286690888017,-3.851545944461823
53,0.04002624054587777,0.3665739528506606,0.4782932784916966,-1.7719886464340404,-0.7056481708515631,0.030326196931806063,2.756828585479245,2.3623012357859032,2.3200400883586862,1.116571269182585,1.6498859685655034,-0.2688340470683614,-0.7028146190183245,-1.197168201590264
54,2.017277655664908,3.7577425690994275,0.6355835382551697,4.743706848938483,0.9481284878352203,0.458441840689205,1.7013370470040148,0.3321963953248157,1.878429422406582,3.647171793459514,-1.1372642526045376,-2.782769264853277,0.37915528299673396,4.723726930479905
55,-0.6478231978327686,-1.645496882277618,-0.5864681006573701,0.21985070700446993,0.6658432528252546,-0.8859172526317883,-3.053403237824798,-2.129349427012379,-2.550209622854513,-2.141108393316305,-1.5708161618167593,0.35665309770619796,0.40532782100652853,-0.9128396922926812
56,-2.534379753976019,-3.8632190876757107,-1.6418375569943886,-5.4784083571654385,-2.4514040749997785,-0.5225794080395781,-1.1582920323564807,-0.09492963728737007,-1.7504778835839252,-3.437403169047455,0.9031471924562041,1.7956908114573649,-0.6853247445210622,-4.472252219743818
57,1.3056321362064356,2.9725597409905693,1.1699015261417178,1.5151808106760747,0.07976437860652208,1.7469401105436768,3.0573883569435303,1.7068582598363902,2.812248874866474,3.0517383967847196,1.560351777963713,-0.00853109704544461,0.026289948584252064,2.6177836583209
58,2.5123817529876447,2.950536678402474,2.0921063555401345,5.197577209504293,3.4154919467795968,-0.14102148183819546,0.45146410812598325,-0.08474595086003417,1.1500334834732617,2.337517963066155,-0.8937389455783622,-1.235881750434052,0.6289143279795487,3.3291179797272425
59,-1.6400351952147787,-3.617048101770304,-1.8175278521227245,-2.799449111756343,-1.1534251052013005,-2.0836499052254704,-2.600606570017948,-1.0451645406782175,-2.7361306625652326,-3.218411736938194,-1.4276002316888508,-0.45089814728117245,-0.4081915724845979,-3.4000020902502177
60,-2.191298282423587,-1.4557540236718327,-1.9798019584441258,-4.207577057340612,-3.6475238506552556,1.1924508609140516,0.1391935966204386,0.060340419492154344,-0.23351514025231665,-0.7949798078892177,1.017312531861445,1.1492461178992297,-0.2679635284977199,-1.8643738472639981
61,1.4665059287741595,3.156416130084721,2.1446049697125726,3.221390872153202,2.082512311684119,1.6129152347711757,1.703759792044988,0.21238797151875882,2.024610858377581,2.275352778390096,1.0706289723602016,0.6916169567747867,0.582868801339195,3.122602267541774
62,1.9787965558733693,0.13978139894656966,1.5887558340753751,3.088369344444463,3.2886142416024304,-2.0781157791627463,-0.3023168644772576,0.32437989530006767,-0.572753699524196,-0.4057762739385308,-1.0720245370832246,-1.3335942924112247,-0.24016270261913022,0.7444200390990489
63,-0.9303721958504493,-1.7216378599081839,-2.0091647120612093,-2.7826844894153977,-2.540269170880662,-0.4569679864921168,-0.6249498639320605,0.5764511460262841,-0.6676101003849211,-0.40773167267614197,-0.5651258154812115,-0.5608950046544562,-0.4821476939892044,-2.100692597332633
64,-2.2013866926014387,0.3068977236144546,-1.3040131852406938,-2.4098182554608703,-2.693901552893824,2.325218082159965,-0.12231404521202187,-1.1093200057916965,0.7656154314892182,0.5352063857658871,0.8888586467064838,1.4765986666346211,0.6879892015106324,-0.4318719102865666
65,0.46317529606483415,-0.04197810792014732,1.58378495079261,1.8931161791331654,2.4921505646720714,-0.9180392053712547,-0.23147049300467593,-1.033510548069704,-0.9699121512142845,-1.6383690531034656,0.14383154277032376,0.16457907815422912,0.16911009384774922,0.9733750122430561
66,2.871120404707893,0.36135500875121845,1.3668350137670087,2.4457945166047437,2.2078675637705336,-1.7918782484776004,1.0171449444844267,2.142473570679996,-0.038185959209400475,0.6469196224314885,-0.46158108282844157,-1.3568367601420064,-0.9027351406116868,0.9583202121292136
67,-0.5529539152502783,1.2879097623165066,-1.2380303148176488,-1.1619122183630686,-2.1696806266466666,1.9509913178330167,0.5114789456868378,0.9376220186801556,2.2537303926157035,2.880322754368803,-0.07399048600394109,0.20513147842492394,0.17325882671757986,-0.4142912901448246
68,-3.6147773434028703,-1.791607122929302,-1.7186730331618383,-3.0301621705727535,-1.9642167265930648,0.7311439990395888,-2.001623660337049,-3.1091619672631676,-1.5040800675865749,-2.6742824450671328,-0.013171816569137042,0.9938242313713181,0.8344361483665361,-1.884881659843257
69,1.443034480296905,-1.3991900220459925,1.2986273111755342,1.081356429594808,1.8903362571652764,-2.2791125394542577,-0.11004058209913252,-0.2596124025315375,-2.5530822714482313,-2.6129954097103707,0.4977600243379317,-0.2627386162866177,-0.3199195557879789,0.8005797803535257
70,3.83151280284559,3.187731561419905,2.0292607685086215,3.6350986010359323,1.8283305262502778,0.36314173914884024,2.5982597841735546,3.6587881405512634,3.3100642134263842,4.535651636020378,0.21444222803302967,-0.6516957763135208,-0.5986437864654495,2.490222827072274
71,-2.9334293557369984,0.31354302111790044,-1.8300403899760989,-1.76026031107172,-1.833924897850939,1.9083716335185457,-0.7448425850316549,-0.8012155333950103,1.5594122110770252,0.8294381269496899,-1.3244170881456447,-0.06669083098947512,0.12324482948718109,-1.9980235241970368
72,-3.011639630884305,-3.701333117151284,-1.8942023607071592,-3.6406875012323123,-1.5172074207860098,-1.0315014651988346,-2.469199291188611,-3.5632264244567224,-4.577139576950507,-5.161679047092167,0.1421213889053538,0.6813593078061719,0.4361925357442962,-2.1166829382695402
73,4.414712769161174,1.4298833823258525,2.567525464951161,2.8469495037187906,1.9161765559175983,-1.172029740519132,1.5813108476238409,1.894719232063911,0.5123180306491055,1.7065775617055916,2.2386920234494045,0.5613110041057415,0.38534131851388453,3.381495029892929
74,1.0448931370772296,2.857450288030329,1.084853608036802,2.6623300236874257,0.8208884448464119,1.0808712492665797,1.5932342501223131,2.8199926742639927,4.598840015732061,3.980945000389474,-1.1444169703072782,-1.286767424046068,-0.593688073324906,0.5156944617872216
75,-5.134226855290169,-2.9487171159905494,-3.041748420615007,-3.6858408974849666,-1.8420789990682798,0.5181160640384711,-1.9046363031817517,-2.671063505260932,-2.9585043701620597,-3.797586599029003,-2.8277884319833664,-0.7991902089018758,-0.9742897178629623,-4.100085218459882
76,1.6582412000538738,-0.7936095416856341,0.2957686641893394,-0.7686113352054127,0.2186122428845038,-0.6459278917833959,-0.28232572855640325,-1.644303222392495,-3.1000201281259248,-1.236530411849406,2.6114675261676834,2.357317301431253,1.178042727048242,1.9803985023840527
77,4.557908353527646,3.443226004184656,2.819220651277102,3.6285476845830367,1.3058977356060277,-0.2641230364548585,1.4287521234085212,2.9220345039642863,4.857842797868094,4.380842358106835,2.764163524301129,0.39078063480061004,1.2969730777097686,3.469834271516445
78,-4.3059649538885925,-1.8074851337165374,-1.8354520860424295,-1.5199705354761224,-1.2898902236292207,0.06473299165874445,-0.9692195731621281,0.35994255688903387,0.38928290263087556,-2.108254070325787,-4.149632072105487,-3.4757946861068323,-2.0628676282394514,-4.554095388847901
79,-2.635408792561807,-2.5655165282747765,-1.7214502067075739,-2.341424917627572,-0.20786524734451914,0.4623724484609612,-0.19184317464964634,-2.6373134996996956,-5.450859377922804,-3.0209761514062934,-1.949908863968583,0.7881705454448995,-1.0507471517071998,-1.307299384929163
80,6.053240250615372,4.043580134999241,2.9904336454172578,3.444305007696049,1.9697399732365244,0.33409338116269,1.7113178294915645,0.7415798114427051,2.7477079413105625,4.809231976288293,5.309070883104941,4.105211210998443,2.904127390078963,6.227941659429808
81,-0.165551658792667,0.5489942851709971,-0.0879139267076063,-0.0381528968310729,-1.252882579163958,-0.9356721943155364,-1.4960061799460358,1.9561135101384763,4.443937041635139,0.08037928226565785,0.5508022468963671,-2.5009343590476214,0.13497750456019483,-1.9544349929670688
82,-6.347982515929564,-5.194153136484382,-3.314291330310124,-4.318730378503327,-1.9546589761427204,-0.3953998813223332,-1.7115246778370998,-1.490420148575164,-5.354562722785611,-5.879010426174449,-5.758166720227903,-3.8485873216461886,-3.2678708729318284,-6.269318291364885
83,3.0597521856048697,1.9431457736700848,2.1732901631036925,2.9566815014159196,2.6658437999324325,1.4319695674860107,3.222320109851326,-1.0619976181666444,-2.102714094279689,3.48276213243896,1.0887888660424738,4.243940243544594,1.2704527202765903,5.418225451055399
84,5.128615026097523,4.992356036006804,2.6255710410218063,3.7924711378263765,1.2209530237104258,0.16606830709108591,0.9928196068518538,1.835767712308814,6.656962415740407,4.956424727165069,5.388606846812863,2.63656295434293,2.816121972865799,4.491986971632559
85,-5.26475898728369,-4.139769947673617,-3.9984595609699274,-5.662992713195162,-3.6157041625578765,-1.7829669610182337,-4.647143133634775,0.10101024602356619,-0.8824376861379577,-6.543101754634812,-2.593490519264178,-5.470799497419656,-2.7487791347418553,-8.069383719803906
86,-2.798784479490069,-3.6578159378610073,-1.055053450065062,-1.9562724812249355,-0.022439441435866236,0.20069945821205057,0.2534914960443937,-1.7802403102767292,-6.308279369468154,-2.3692772589833626,-4.311125685528269,-0.7499038664150496,-1.4680055810717543,-1.3274475737545564
87,6.281782110203992,5.473052907671896,5.111220480854203,7.476949168104426,3.876112601887332,1.9699385234518234,5.589257662638411,0.8247184658872929,3.6680729131722627,8.23622370458424,3.6837622210259306,5.820529129186781,3.7996464654923434,9.160368324478062
88,0.022985109384287133,1.7223267902828168,-1.0189353978790319,-0.7223259302952939,-1.2553324114613174,-0.5790371231690999,-1.7965072734518484,1.3252048960400005,4.452122970372441,-1.0759386105790236,2.7690702602336397,-1.31575063419204,-0.5372743314972214,-2.3519525965097654
89,-6.021453731495199,-5.739964719979917,-5.274297658852875,-7.997310065410461,-3.4810678260400794,-2.0764474506966444,-6.00462815022205,-1.604563166095476,-5.537272463585169,-8.2108010920936,-4.226683769756266,-5.239693869415683,-4.040428763445181,-8.472059812084803
90,2.5373092076036183,0.22387473710846564,3.099980280828317,3.5778396899043137,2.279650200573094,0.9482416778290297,3.44761586952814,-0.4840113268043671,-1.619883868052359,4.432259425342823,-1.0369190138556443,3.0563865802251935,2.7088688881504455,5.569513032613929
91,4.751922369450534,5.083096258875687,4.5166667706551085,7.189448102706973,2.6554764548674292,2.183498653980921,5.911065211785927,2.0795451765845785,6.091238201107303,6.65032385598056,4.214067024275078,3.9606991184986455,3.369969907588355,6.354206097708442
92,-4.425339262911726,-1.7352717882482598,-4.718883302756939,-5.956172542204158,-2.883784157574406,-1.3745239036100738,-5.062228104765943,-0.6480085949385382,-1.4648944181167156,-6.921844155210815,-0.6413999545785584,-4.13444665532613,-4.483133600177757,-7.592752019276468
93,-2.931560600279322,-3.8544282566342134,-3.1091450262497147,-5.352946787083414,-1.6759546637423084,-2.2894244739397815,-5.334022306683025,-2.0783830913901897,-5.318188023160136,-4.117067438105984,-3.7148074229533123,-2.3732965073194894,-2.019487464523649,-3.5470440668737586
94,5.463774278612181,2.6006881916320683,5.560655860994668,7.3869356139768305,3.0662575743427425,1.9260834999957945,6.494627146676272,1.8410039104675373,4.100998017466468,8.119253937240218,2.066846917702803,4.457114516748756,5.441784391378187,8.154623795768705
95,1.0237902516623665,2.4543925478088218,1.4777742835242202,3.0047227292576384,0.7587888617386588,2.3070185282291207,4.312157539874155,1.5238997038856104,3.5497912029448666,1.3192642831898558,2.846423285154177,0.8631402213071251,0.4594032374323387,0.8753970230084488
96,-5.71064725834777,-2.829888352571799,-5.548119853426686,-7.682791246058322,-2.91590278965152,-2.590184958312505,-7.567820164300515,-2.76961509641036,-5.789073649962522,-7.985857550938305,-3.084276489066704,-4.148516043940259,-5.472467414748858,-7.472723421058497
97,0.628366080202626,-1.2090236067283027,-0.0722175586545397,-0.721981869401755,-0.02661993826112505,-2.132939696555975,-2.9445537881873407,-0.5308953419534886,-1.3328493129710226,1.104840227236665,-1.7728402923499063,0.31397933309100867,0.8038483140550471,1.0501428008187932
98,5.353462921619357,2.5818749171113433,4.857710954433912,6.954886294764286,2.537897635334572,3.2513997778118076,8.097894898830626,3.1476364296977524,6.338328836116406,6.7875994717284724,3.599487546107905,3.4486382709402505,4.791876463041008,6.0816507416770555
99,-1.840336048939121,0.30460661544157724,-0.7807965522290623,-1.0140135277832052,-0.4646789836081217,1.737765838983078,1.4281780180701777,-0.5952284815180446,-0.7477726782207488,-2.7277324285690803,0.6995175777421074,-1.0820843466578771,-1.4475895287737752,-2.006307697118448
100,-4.606308539859176,-2.0744830135227734,-3.8503936102886884,-5.548928354726577,-2.028181794966532,-3.746125372150101,-7.964974396492624,-2.878723786223964,-5.874191566768198,-4.954185499306735,-3.615853483440194,-2.5920019234809533,-3.8144571989658638,-4.569942523125751
101,2.5556933619152242,0.22374010338700676,0.9899850845125698,1.935891900477329,0.6947617620247718,-1.2141841691290198,-0.04267110780789152,1.483488654130708,2.243797201590232,3.379551722417738,0.1653169654429276,1.5135166914113498,1.4575235300657237,2.1498668077999814
102,3.650799840071133,1.4994438947520974,2.9278853186742735,3.9207447238949307,1.4863535871291242,3.9598708340186994,7.187227962282289,2.117675354484934,4.744780436975484,2.9393245394690597,3.2583840135162547,1.7188364593584555,2.9325595848658312,3.344443937666423
103,-2.7892395457944317,-0.45628477017254104,-0.7243029635119154,-2.0376193665413997,-0.6809700060612178,0.747614987479501,-0.9237731906976863,-1.877105319163324,-2.9536163449113793,-3.11620965824274,-0.6829208377353999,-1.7422294053047052,-1.0896054595717604,-1.8578992055545158
104,-2.6271041649015423,-0.9624621037658556,-2.3647601977873145,-2.4876269466948586,-1.0217948918197697,-3.9071163213282145,-5.950021958950927,-1.1929542602096925,-3.364071081313517,-1.1240202977469418,-2.7476604802142544,-0.8522442342970159,-2.327888679536302,-2.5196382948617573
105,2.582001047044041,0.5166792380227835,0.3243495148060587,1.5351307005017345,0.5030010047952508,-0.5205775385077261,1.276637822819161,1.7549616546853979,2.924772847704999,2.1462546349382428,0.8517924296731546,1.8691030594759126,0.6919764251257657,1.5081280782792346
106,1.654888280019354,0.4690901941648242,2.1938359243034196,1.5056204319078195,0.7214644033159427,3.74163392636074,4.565550010174942,0.4357176858792904,2.063499173998957,-0.2255834080046136,2.31558158117374,-0.05809344095503548,1.9192448654185976,1.9611375664829587
107,-1.9873007350771694,-0.4903621923772378,-0.13038542568987588,-0.753546485221643,-0.3064181108511762,0.6031680061664557,-0.9971034435417712,-1.3209299494196374,-2.358893734835924,-0.7575672605954682,-0.8213324807311405,-1.9063458184496085,-0.49319887698719655,-1.3086578197435204
108,-0.8548223338183172,0.033509635773741095,-2.209009625265999,-1.0198821234074356,-0.5942069476027005,-3.683508921280516,-3.3730561488471253,-0.020776030059413052,-1.0203744677360775,0.9637998827020279,-2.098511923916721,1.0570885997202626,-1.470520700843541,-1.436453556986801
109,1.0836774092809005,0.3740721364991828,0.3088268568543382,-0.012520536240438382,0.2537849686455195,-0.8945381899454002,0.26214808529228756,0.8760312523931665,1.4829435432973488,-0.734441754192542,0.8279032639683004,1.7842917993666074,0.48278851729310196,1.2486475166098994
110,0.3486263936686639,-0.5771019144119715,2.0932659900530806,0.9072261772703663,0.5416613131274188,3.8973196890111788,2.6190837946229446,-0.09095315107809712,0.2832780013828766,-1.0630849747864923,2.067954069682197,-2.115853117000652,0.7853572232099564,0.7808659645369809
111,0.0061608254374448095,-0.08889281609138497,-0.7702541419748681,0.602661680777197,-0.4395288747356089,1.1559514031928555,0.6134942363614231,-0.6583131492177886,-0.46313974083373916,2.0249545173138883,-1.0775117552591975,-1.409995397749479,-0.45022210373013627,-1.1717470222540045
112,-0.23314479638883887,1.1020495864816222,-1.6085110314942932,-0.9854317694875626,-0.3958214037841228,-4.387044031157424,-2.3692110230501062,0.09123987363355454,0.14716253439287943,0.6168473984869178,-2.043281096576476,3.109461848365051,0.13569246078151598,0.007703119831236163
113,-1.1135385473473414,-0.44540900383900944,1.2283563715293393,-1.0112113235098745,0.8256341510331338,-1.1267240548759159,-1.2952530112864904,0.741316879045564,-0.6012405863581901,-2.865884393703935,1.6361409445515895,0.7430060770396318,0.14886332464028645,0.9125245358502817
114,0.5426345965077638,-1.4458529363324193,0.7426635923836081,1.1278382468243842,0.013069256128727936,4.968793214334826,2.4923928387286693,-0.19854748100408798,-0.2523839901159072,0.16736806277575478,1.7840850186903496,-3.850927587747131,-1.0708202376308227,-0.7815581734633161
115,2.050069833988316,1.2175193784587914,-1.3717986165152047,1.3219158595100973,-1.251607824774187,0.6671302874206604,1.558531422324707,-1.0318569143773786,1.626175962909451,3.1256185891346835,-2.387979485425197,0.1501104632782091,0.5223994888505928,-0.4143812960907418
116,-1.223632527063227,1.4079967786813548,0.2722812061804233,-1.3195135116401855,0.6348042638765935,-5.343997517670762,-2.728823851699673,0.5455063150011253,-0.008878598319088118,-1.0114734899425597,-1.1135019237773451,4.164633844837008,1.6942004724818864,1.3392012625410246
117,-2.6535841720727738,-2.072919140394451,1.0537505646170802,-1.602834132743292,1.5217957418447923,0.14646394203674312,-1.3723406416034392,1.3455453748395383,-2.490236695592367,-2.836453574098715,3.082832590198069,-1.0883255691732143,-1.4298908037040174,-0.22930576188454857
118,2.1413314247928676,-0.8603551275164911,-1.0864215034613522,1.6276028192520857,-1.4374759016550875,5.243681748564506,2.8135229914356263,-1.1317629803288212,0.6504761580921289,1.6546069742621765,0.00868754028644487,-3.96645630080457,-1.758319242429374,-1.5411681177416743
119,2.831102132466887,2.7422820635723326,-0.38795648757391243,1.8299327601147797,-1.5146213521116638,-1.0290404615560973,0.8965753007568089,-1.5046462025312024,3.028074290607891,2.1888545083146496,-3.443639446654356,1.8215162442409132,2.2551848922263606,0.8207024485805955
120,-3.1173157697155585,-0.15836950400241495,1.4329607842978218,-2.1118133501642773,2.209349452703543,-4.575521196106643,-2.598929677703449,1.846815865470392,-1.5986695110196039,-1.953088654289758,1.3826187922795472,3.3167298052091296,1.2340835690669874,1.3836575367579362
121,-2.5767712147449044,-2.942749818886325,-0.3101009074332725,-1.8879298740983905,1.2397308018826187,1.602928867391898,-0.3929195446284969,1.4083459099934699,-3.0782051810218642,-1.4529523606684787,3.276630966245146,-2.114041301591728,-2.6478484608369794,-1.1550731331188742
122,3.9788193208096465,1.4189360734010399,-1.285845130856689,2.737931894841304,-2.794446476958388,3.4983085235173768,2.1174304833415887,-2.532529646164832,2.6685352533902162,1.9354395213919062,-2.7975418764222915,-2.4227899595643856,-0.3364426641907933,-0.999986024287182
123,1.9584277125941112,2.5035241291332797,0.7071901845530799,1.6462777452621111,-0.807272038284291,-1.5736528498494857,0.09246165807039164,-1.0542035563432597,2.5566411505855555,0.8543194273703759,-2.5351929840895453,1.836686699725095,2.3928447315271084,1.1165200414084575
124,-4.594371730852503,-2.565983222224492,0.8755443992059723,-3.354381905473127,3.1381441285462226,-2.3781894465962172,-1.5531800139566823,3.0471470353886354,-3.597053786855404,-1.7705064492030194,3.948620971413153,1.584576235880629,-0.5673985939826811,0.5992275345304539
125,-1.0862706786898697,-1.454421825490716,-0.6517575502159574,-1.0589336524472248,0.33949895912163586,0.8821644212212623,-0.08576547161519607,0.5179038069593878,-1.5147529802015953,-0.4694148029422716,1.322531682277262,-1.0310558059819774,-1.5094259459693864,-0.7281582075385167
126,4.883686027208152,3.244341219519161,-0.5480993962244266,3.750519006275926,-3.2788214517107064,1.6371534141578001,1.1387673739564979,-3.305498339830207,4.121014872743563,1.6572403327579757,-4.605597154192942,-1.0965715610542242,1.1123465905744325,-0.3772016633441613
127,0.08556533175153316,0.03477522368341652,0.2632198381746295,0.2206951284975562,0.1036353452506348,0.2454923291238035,0.28976358762372534,0.08737009623988003,0.15030196727175987,0.20505151295604618,0.14867679160162267,-0.08386547730900844,0.24444551219446,0.14031929414646235
