,AF3,F7,F3,FC5,T7,P7,O1,O2,P8,T8,FC6,F4,F8,AF4
0,0.029576558215126683,0.05395485593274572,0.04476286236687484,0.01756730413937581,0.011990060405619452,-0.11634224976834626,-0.08248094691958303,-0.029306245166048184,0.03685584522964003,0.03166510089169533,0.021799961637330084,-0.025990707909998252,0.058198440483331296,-0.033186126697925394
1,4.108326410666326,0.3077423769804641,0.9572484162427939,0.20950732496933414,-0.17795970656447122,2.0335495560972117,-0.457325651498,-0.026924088287928426,-1.008940130087323,0.40598108239924785,5.636278180360818,0.5402422202270861,0.40136518972194946,4.019519445405461
2,2.916014479585258,-1.338997624181818,0.33907409709398695,-0.33131908160436313,-0.059037739908751025,0.737999531414302,-0.4317709400380772,-1.1284124101675705,-3.0594718469975324,-2.052182601597107,2.19317657810266,-0.6636365517213512,-1.2190937058722289,3.575526904863679
3,-2.436421230510787,-3.3633161678322763,-1.8348072570206033,-0.998261557820835,0.1957168428625998,-2.3508766571322943,0.0696431045033545,-2.6810224332737747,-3.8656875688127146,-4.71524836331878,-5.694152425960796,-2.7650525767519922,-3.244140976974748,-1.129639794383172
4,-5.742135480354837,-2.703213589502176,-3.3837049862451387,-0.7284228556354101,0.1470988142042754,-3.080410403854877,0.3614448638883406,-2.433078092095387,-0.7128402590350477,-2.597466666287588,-6.604710904049993,-3.2159216422660752,-2.388457517861324,-4.682536930912042
5,-3.1615687499125453,0.5690391334118089,-1.9579755842607396,0.2876185460209693,-0.23793740018349238,-0.8151637583287236,-0.4153963051472182,0.66685505366973,4.620400148398155,3.9036027324075393,1.1167620483092766,-1.0097135804576112,1.5786414300014033,-2.496399431116912
6,2.389034691646416,2.9494704276176025,1.6201213519212567,0.841967261626894,-0.4265913847177776,1.4059152853430643,-1.6393721844303122,4.112489119271577,6.62622223496092,7.956200221536761,7.650159065231471,2.162718062170941,4.835866859942354,2.8873123701866525
7,5.303186860084724,2.4529980964098788,3.869723141141639,0.5323437683858552,-0.07676346579238084,1.804110553411663,-1.2334580985703754,4.1635195642925975,2.5525925769555533,4.52967954691882,5.762370261388968,4.001233513862003,3.9547980786784853,4.679756213166099
8,3.8596435295052256,1.099602420828108,3.064795776853819,0.2243411629747251,0.3129324157969486,1.5712840382793332,1.5004523888228838,0.6888141232849367,-3.871627052717835,-2.98273727395927,-0.8702755763029015,3.7235843681104317,-0.06810543361571288,1.1934322318129216
9,0.6242100810289848,1.0409618518278774,0.8958774165722627,0.4230417515717507,0.06937276815778567,1.543953772924117,3.940889506508519,-2.5660653116586167,-6.516980472911292,-7.050912943186135,-4.866900890874064,1.701296645187117,-3.3816669771541585,-2.2927883026430713
10,-2.065688846796685,1.0295317476587653,-0.8100593277261438,0.32760494809056806,-0.4128562370315047,0.48115190380900025,2.7557008845993773,-3.0354197337403286,-3.5563940744113403,-5.11426708976757,-4.408359225403585,-1.5223543660067151,-3.817512346261613,-2.19890357872599
11,-3.7730149467245524,-0.985012144039164,-2.1534853930380904,-0.6964854775318198,0.0028562364995478305,-1.9486014693062659,-1.610012927917937,-2.0369943549205995,1.2311757477562426,-0.9577175201946239,-2.1924042275620366,-4.5030966908097625,-2.2481824073428904,-1.442638371417759
12,-3.866239954123117,-3.9301686603868773,-3.0307272392091473,-1.6185674268499382,1.2515876369417254,-3.0971921896257455,-4.763891287550352,-1.4226437270174608,3.2760190993276956,1.8872287947386601,0.20489775696325907,-4.7243628837346705,-0.19863408169797883,-2.5173013974708187
13,-1.4308939195570012,-4.752779246631533,-2.163930616787311,-0.9670639364985519,1.5454863052515293,-0.7640364647329838,-3.400199234661645,-0.4236343204936496,1.9335121675054063,3.583790017847127,2.669676188392726,-1.4946969088284454,1.6844612309924942,-1.7805475985419348
14,2.2713527651718515,-2.186289579719499,0.2651933001604214,0.8474946707503012,-0.19380092866787124,2.717468250016648,0.8020504075196916,2.092089496114041,0.17251816553731375,4.4633030467212835,3.8019084997340653,2.12472688657756,2.8001397902136316,3.688925626743706
15,4.127177084243025,2.3089790913993236,1.920164482716978,1.7665282867376029,-2.3445762281995504,2.817462032182981,3.427107358635433,4.393318418609069,0.4661361262522475,2.868395224918968,2.0865017424832497,2.959197567205259,2.383661494269465,8.08452813789161
16,2.7031217384247284,5.988299471030832,1.6398432420585498,0.7392921404388832,-2.4943851920214115,-0.9337972227418327,2.4889019846744875,3.6012707683125704,1.813182467925347,-1.3056660941963003,-0.9520530743944378,2.0065927912404344,0.7144172764821447,3.5419515209923924
17,-0.3035821688949869,6.018396298297028,0.8338638403697523,-0.9319744186181319,-0.5988816383460528,-3.920551728038188,-0.052415956800709915,-0.18612620327983115,1.2326536734434226,-4.458245981027239,-2.080900523241074,1.930727452742029,-0.8864650276674201,-6.6100076068852465
18,-2.2260733828631185,1.3497082921564603,0.6532327741551911,-1.2856349889331478,1.4072519867308868,-2.455005923711398,-1.3592565456102228,-3.663898512123373,-1.9317003141624824,-3.383043901248614,-0.7522081417013295,1.9094308043215193,-1.58404151453699,-9.645091915642318
19,-1.788044485057398,-4.835868413012694,0.5020446860540471,-0.0452924075740838,2.3550556988546947,1.5994893528301928,-0.7954629487262846,-4.121823635918787,-4.362037966395127,0.4426565267783252,0.4010563512317997,-0.6788206405253968,-1.5282250532342563,-0.7270147435302305
20,0.13420712269954482,-6.7372130410967745,0.0014493775948053005,1.2300343822596567,2.2693866658502855,3.635717468677364,0.13373231060096488,-1.9633286107617014,-2.6733712628861492,2.713710674286918,-0.37508988387187114,-4.371436633537956,-0.9843380322386702,8.857429790426348
21,1.171150707584084,-2.418634631525045,-0.3304612854915802,1.0783303333891674,0.9591565959363297,2.0810716797724447,-0.016874237230949975,0.5808775608290885,1.7040815495933543,1.3650519130054548,-1.6079582801230667,-4.456992679144864,-0.045588814149326654,6.31001146259809
22,-0.07832244956275006,3.1056508780241625,-0.7892369545077329,-0.25390588374408424,-1.4182349008705868,-0.413338108719505,-0.9133236456685355,1.8557962039919433,3.637349094583453,-1.539288370235916,-1.0653405186846423,-0.17695886180864398,0.8898269918894877,-4.714942313604584
23,-1.8311907914648053,3.8927724239504897,-2.0795627344319,-1.2901774944478435,-3.014425790925264,-1.0216920940006504,-0.9976888577194144,1.6182719332472912,0.7684826728270535,-2.519286525408106,0.9575450973421958,3.4712896842629637,1.1435365341312744,-8.947700311453495
24,-1.2088599195631853,0.4604898705057354,-2.906277565531828,-1.1192693044880724,-2.036345991857233,-0.23074979531259096,0.33378920848631355,0.7415142734814075,-2.9930796977311402,-0.49852184536552097,2.105846317900455,2.6611729782959643,0.38043002263210773,-0.9860573214092535
25,1.3234211293790565,-1.9248917505524152,-0.9778619527064419,-0.2117925184241325,0.4538637520973154,-0.38275813912212464,1.8515899256584232,0.5672541273566706,-2.040863534896588,2.331414082542985,1.2229225220431041,-0.24308414672938575,-0.7964326426120104,7.596902398621015
26,2.3864506339387703,-0.8477050610005811,2.9512126014044706,0.5588755628038217,1.7076013326413755,-1.7108774188138005,2.141127664053955,1.4841981263914763,3.5487128075925467,3.327493753524768,-0.20012069926316947,-0.8205014787120153,-0.9376516219457139,5.658394383673928
27,0.8851539777476496,1.1199279051426245,4.910226844304428,0.9547944924371555,0.9651658219489856,-1.9170490218256193,1.0456090109203307,1.8336065206453298,7.165185366362111,2.1248977841472625,-0.3368029868230397,0.989675781873718,0.6586499372552813,-2.1002675915521425
28,-0.6613796085373757,1.2588533516576457,2.6170173380783015,0.9905802387334852,-0.07617479572040002,-0.07408804672428983,-1.0271625849066839,-0.4046361734943235,3.1361912613205982,-0.2039568782748236,0.19843340808937357,1.4111348087707012,2.1622367120543946,-4.404631959419715
29,-0.699770799420654,-0.01917738072620949,-1.6601351066892427,0.35237670214384104,-0.13577304674819662,1.5622606074172412,-3.4787826852396906,-4.251830545224727,-5.988441839990012,-3.1138424171732737,-0.620049047893724,-1.3832191348575078,0.828137847306044,-0.9896110935232778
30,-0.6541244260919297,-0.9527569796194241,-3.9527493121055874,-0.8368905060713347,0.34488542098246433,1.197533530497458,-4.268529687399379,-5.611519586747159,-11.236665623793144,-5.440054886308883,-2.432570147030237,-4.3736759476116225,-2.537867192904357,-0.07870981689920817
31,-1.1033401371066562,-0.6634176537886287,-2.5905096548543782,-1.3331531727929622,0.6284658953878526,0.44903114903566604,-0.9286452508730463,-1.8844830608132637,-6.581005217361552,-3.9337100528818527,-1.9512580235588295,-3.003757064237841,-3.1804378219973226,-2.230642698104064
32,-0.20643819386493134,0.5610543751799917,0.812924428525071,-0.21785562721637017,0.518610579793686,1.1665095000226473,4.937574848166915,4.1199990202981365,4.35457148746919,2.7496594618852876,2.047501886304653,3.0250658358690594,1.07402437479966,-0.0011903329594151468
33,1.9353164779745042,1.2313613405789694,2.7574404935930428,1.2926155597880777,-0.21910593068309012,1.6870038701560819,6.960003471868838,6.531734514451151,11.544446791780885,8.920366817443409,5.142336677634073,7.76282529755898,5.10619541443071,6.17277776438265
34,1.6981984722382861,-0.3671632066060264,0.8008218974118627,1.059252602641424,-1.5273812548967451,-0.26955722923298525,1.5721117883393652,2.9280092419910555,8.526727529758206,6.409931968448467,2.217618593273822,4.627141482188417,2.4198529428644493,5.772495746891992
35,-2.0184414139471984,-3.173733528355734,-3.086949002494751,-0.8798730113244558,-2.1575717847122777,-2.838986890987444,-5.699555873250268,-2.6555730685800967,-1.1538775149978142,-3.8474751835107543,-4.511125342658517,-4.798625095741382,-4.967748522645606,-3.9281405136774796
36,-4.159696667493093,-3.020570840975445,-3.485230575454711,-2.029769550366083,-0.852020569759761,-2.372575698442043,-6.254682735841184,-4.179096589084912,-7.946260864492094,-10.445502622495093,-6.824083432363208,-10.35960234178814,-7.605125625443483,-10.500495681991588
37,-0.4490714242494801,1.736646844354227,1.5901397464102518,-0.7640450419464533,1.499722456063771,0.49518998949383913,0.11187358067230743,-0.6546744167247178,-6.528687298209482,-5.504097301631319,-1.217890134282361,-5.059071455356935,-1.1142265681098924,-4.1611208800698325
38,5.075239183770253,6.10587130713116,6.544077832113577,1.4962305124417814,2.563346390713615,1.626305191305953,4.966929403379493,2.7344630278224415,-0.6099375939319442,4.714440904651462,5.8307314593825765,5.26161276182196,7.15148309275622,7.145949318219572
39,4.973856119071037,4.136159971219782,4.694572329313263,2.2557246629189622,1.5160638303906342,-0.08408542919747639,2.86282803788447,1.3245910927919784,2.964535682299213,8.261128491217516,6.21324108379765,8.960938744100352,7.602126584659223,9.363231641680164
40,-0.7778247921819471,-2.3922781566570777,-2.4076615639188317,0.9661286488894736,-0.22308420457129843,-1.3891128881192019,-2.116070598560666,-2.7987429904245995,2.465901105673501,2.988047105068184,0.5657386727393459,3.650441718837611,0.9486227782706184,1.7760824143384175
41,-4.873496999748947,-5.785185120169042,-6.718748101688953,-0.89386475660644,-1.196541101127313,-0.23054820348473143,-3.3079095755929453,-3.632043171809806,1.2493582642682264,-2.7158905655221126,-3.720191707548401,-2.236993926864969,-4.04102159533407,-4.791354968650399
42,-3.3450123967735035,-2.85242906975969,-4.34503481295691,-1.8488068460779032,-1.3134202324762663,1.5536617267431918,-0.2733422175262645,0.28992987133687276,1.2490199868145229,-2.959081342750838,-2.9203001347818924,-2.6882742825478743,-3.3466782866521614,-4.721204735808823
43,0.016268728305428148,1.5529239107465524,0.5043920004876198,-1.4522272436189199,-0.9732746665282426,1.915431074785075,2.4889577436612647,3.7963530364882416,0.5397552054173168,-0.9113505995580242,-0.5210258524994793,-1.2623239256560765,-1.5629534366146136,-2.309665200988028
44,1.0890229862616443,2.3773427258519253,2.8089352914603256,-0.013969005769762392,-0.23724281453843074,1.3207440914893285,2.2567100502115314,2.541641695098917,-2.084127998968836,-1.141825594914715,-0.3423343856470083,-2.603601980910912,-2.4148323010259953,-1.1063994974776297
45,1.1172014503024348,0.6947545564627798,2.773692670893936,1.4638411175588106,0.6750840922315783,0.5605373605552574,0.03180857288462448,-1.062477505693467,-3.8469617887452565,-2.071661098082514,-1.097800845359039,-4.076953685449914,-2.590339660268091,1.1630223717365553
46,2.1295204950394946,-0.053994403333374186,2.4723047451275573,1.579202240267127,1.0562373800968725,-0.9604483785104322,-2.0740722444969975,-2.0456530408002136,-1.792397161382348,-0.1500159982421476,-0.0006262241441694774,-1.0392535943676457,1.325936978645504,4.848244182564424
47,2.1838365468104324,0.2907171337251551,1.2674785139683573,0.06354460243983129,0.5308145265150542,-3.078942649762376,-2.354225781193475,-0.05813237486302336,2.320306464050357,2.9900782129228474,2.0840377159770913,4.421874053875413,5.67386318419102,4.62748470573919
48,-0.4945984171091805,0.05069785864830885,-1.6548193260859072,-1.3335199432020144,-0.26460979003318974,-3.6108578968416176,-0.14970387200669077,1.3429724842356683,3.983931253316376,3.0122681059221152,2.511578280753834,6.112431004332532,5.024108351023765,-1.4409020414132
49,-2.8845802092364146,-0.4303801267128779,-3.601267447004298,-0.8779008717570181,-0.4367316139816304,-1.2707841220599856,2.4970409172193873,0.6559664641796807,1.9798739386473803,0.24430087017193353,1.3615309366204773,2.6969696448783567,0.6548187504177042,-6.0934016706081255
50,-1.6520356658793125,0.0047212428665520875,-1.8077810766273679,0.5812976062279783,-0.051462050816727174,1.9823449988841955,1.9796921916943084,-0.41872562814656356,-0.5542775690111934,-1.0071935206685585,0.4408159346023587,-1.422017554698262,-2.1980912464229125,-2.7495403553601974
51,0.9108871544472473,0.41166242360245825,1.3826896526047068,0.7697949833305855,0.08493374366109796,3.4894551675657737,-1.5559596292805402,-0.846288404874963,-1.1070101296321857,0.20565423507282893,-0.4550928568456789,-3.070750937332442,-2.6184688188579677,3.748933461386173
52,0.6439181881967933,-0.5600271848085375,1.532294688376138,-0.4725553004700675,-0.19772056151483028,3.188653578587981,-2.9402828546701647,-1.2586366945724827,-0.8656897455566599,0.2989549753832817,-2.497505078192338,-3.207202427218159,-3.335796060508025,3.9677360696966804
53,-1.213497117744524,-1.5585107421194127,-0.6870246653161957,-0.8969860676171378,-0.16552477244729288,2.2877513341084175,0.6412932573290177,-1.3675304148245266,-1.7845485450447751,-2.0626108206726133,-4.1175935847024085,-2.9289215780969258,-3.82909744303102,-1.6485546630010248
54,-0.2185614374224436,-0.37369591221850457,-0.5273643381302408,0.5235517645650846,0.4280545798932742,0.33912173902066967,4.2543793957234035,-0.08804623818145912,-3.0109109707363384,-3.2470632662236647,-2.3251274236230923,-1.0940266894948218,-0.8356841394999867,-3.832162253552553
55,3.043779943819191,1.9583499851781607,2.4266671098417323,1.766516264302358,0.640088134950935,-3.367627520851181,1.8664019642567093,1.6902540102858736,-2.095276039375226,-0.7475885455195155,2.210815872930123,2.5761236463068973,4.488965103680568,0.5614447628859577
56,2.996656112791708,2.07413939045119,2.777830607618191,0.6959752229948686,-0.2372124353991825,-6.377589364787361,-4.16524370428989,1.83630465067035,1.4000677599932472,2.4305236988756103,4.90857484243979,5.049262422285618,6.168031676293764,3.8292964251777573
57,-1.9059107815345635,-0.6284456547771913,-1.6591120568379976,-1.6702602963755724,-1.2665738798219959,-4.650207783182468,-5.8181717846030505,0.593895863021078,5.048100680245548,2.5047159042362193,3.0618069163947763,3.112855616837637,1.7869932133664133,0.2865189143413778
58,-5.623383884511976,-2.6974727322462493,-5.133382746559003,-2.4018899880585325,-0.9384670067577522,1.671232366082288,-0.5584095207936315,0.19958789421572248,5.80550405178439,0.5967670725664342,-0.7976408944250633,-1.9527798691785545,-3.4671978918994495,-4.40514214198757
59,-2.7192944845892426,-1.4327639196214506,-2.3600398422287645,-0.5665256638261101,0.6283356080873513,6.96089887174225,5.51496549735228,0.7231262014558913,2.364480437914409,0.04029689677129747,-2.6487321802138886,-5.023554964448001,-3.7854579657800307,-2.4334371358994007
60,3.668672985454271,1.3692071469713065,3.0600180819426175,1.6571470162498545,1.6802605339102272,6.251547225352321,5.904998109415285,-0.25738051978619314,-3.6864176642870516,0.5847302259350898,-1.8941445939484252,-2.981109029013713,-0.3613644263868402,3.590615262891362
61,5.837153937558449,2.218965288728438,4.028541708454023,1.9556863826442878,1.1149753880545266,0.8219494670995579,0.9180744022776719,-3.0401855456359765,-8.058829919149641,-0.43194132598896495,-0.7200594921506446,1.6395736864877377,1.3660643379694908,4.742870362712534
62,1.6121456535187286,0.7157389071443414,0.5076812043259629,0.6367325303403887,-0.2750245754573557,-3.9748884813247116,-4.159912721623398,-4.113961979076956,-6.5221195919479555,-2.5017759745329906,-0.1929492093934077,4.032901809721091,-0.061767822203760425,-0.4680755023872767
63,-3.484290481277378,-0.7025043820413,-1.4330541226406477,-0.40298210429571907,-1.1654162526055882,-4.831135543808261,-5.072062589560294,-0.8309447114398204,0.659403567254212,-2.123402497656469,0.620287218325873,2.7910789876003768,-0.9229877931030576,-4.228037817439831
64,-3.923183197640248,-0.6768667373167105,0.3488036371049691,-0.4832700233257695,-1.2565764357486238,-2.573122773999048,-1.8125431433388217,4.326694127633429,7.685733843242366,1.2596077983053042,2.064114235117805,0.21249012814357487,0.9607687275701065,-1.3480778099567319
65,-0.5685115360727081,-0.20260834313991904,1.3017299454447742,-0.5364999311565368,-0.8322273755778055,0.3964852748217118,2.2241162413460307,6.098573320685204,8.387894570388452,3.4977194210350895,2.5178582226253714,-1.9275949730623056,2.618326898102577,3.43122120274387
66,1.8289423260995812,-0.3614148821336882,-1.694012243030142,-1.0112937311726684,0.20279209768989134,2.3368550984343024,3.430951537130394,2.3023851951549035,2.3310649558857457,1.3499559487627537,0.37829007665830305,-3.74017078972007,0.7678105209829992,2.5698784724902914
67,1.1550780340852462,-0.8507012191362079,-4.805718779085175,-0.9838081036801376,1.6280900981042719,2.42312045329591,1.2383898973517267,-3.820057716238369,-5.177030053731251,-2.8723197916939367,-3.3053505061423074,-4.3372243440164535,-2.828128184539535,-3.5771798756170186
68,-0.3866927647551091,-0.9189552072139854,-2.8802889745667213,0.11856596783284078,1.9406253255388217,0.9350782362553707,-1.4929536967868842,-6.748081728115364,-8.38690871866459,-4.181085154722803,-5.023385151906889,-1.4219870273439938,-3.6464586087151813,-6.785541037821941
69,-0.3899521450766997,-0.26804116964603464,2.7267229521018175,1.2266053615324088,-0.03291688637360273,-0.6121620974284884,-1.7554815167488396,-3.702522756063622,-5.367364118401171,-0.9731349347761863,-2.1661204397467158,4.374703879081479,-0.576007743820806,-1.5409119161141924
70,0.5903898512551655,1.1310926969842945,5.904134637154621,1.1192440457367883,-2.473090141999642,-0.8149350626769201,0.2913190174259264,2.813046894327515,1.6192799545642305,3.5186944003746574,3.6773052454700683,7.8249439721381675,2.9934195819008327,7.06255145204373
71,0.8158404720118811,2.7179243015909798,3.884650314159218,0.2907357109772098,-1.9112137068816937,0.02950723142578956,1.9414041697250053,6.939366589738302,7.783257386398018,5.140895007738922,7.323678579264921,4.702048002773636,3.8120749899792026,8.79864312614774
72,0.18173476503457633,2.705718704209492,-0.3579595083223909,0.005858378393157932,1.6046796602118523,0.4895491761116155,1.3317625591307332,4.668954983149797,8.38058173433488,2.6938572230022286,4.782732901837545,-2.589328538511239,1.9236135653244923,1.3469441395640191
73,-0.31112729111141146,-0.244820951700548,-3.1927159196585344,0.15184022164803201,3.315141760126865,-0.08286196614305599,-0.7690476449423711,-1.9898615260001093,2.2890460015722596,-1.7484060325505144,-2.2370146222887417,-7.487993755546005,-0.8870112112413658,-6.354166074892378
74,-0.42340823179628234,-3.976140944512971,-3.762856722011282,-0.33380666627888184,0.17766190864271056,-1.0819736046865955,-2.3078086166954512,-6.55794962012463,-6.000274963757187,-4.898732742421164,-7.365543417284529,-6.2708288390651665,-3.16908686474399,-5.986509121122664
75,-0.4714304145548962,-4.066332517062988,-2.416376436582188,-1.248202848440483,-3.901089911095238,-1.7417497504130952,-2.1001855443485495,-4.76518421630015,-9.640929843792719,-4.6229324197063235,-6.0604425756252995,-0.8014909013074438,-3.6785281379656194,-0.6026523669503575
76,-0.3882949452431872,0.0979768855594594,0.2013441203643806,-1.2317777875818214,-3.037469504196455,-1.54503946889996,-0.4852782557779096,0.8825966671467869,-5.880397976283581,-1.4797180389230749,-0.46763095024904566,4.263871355453697,-1.6820061990694126,1.3057925149447023
77,-0.20250831551411508,3.3587036842612226,2.121389294214912,-0.13232619773251048,1.9214568796088598,0.13444626599538806,1.4541164957659787,4.482679936598236,1.6643636591144526,1.9540811157162559,3.6668485662836168,5.319181335795246,1.4540558932994896,-1.0294212076220985
78,-0.3636543946957283,1.7251940198213978,1.7017853604314692,0.6903840280081225,4.348885104924165,3.0806062943177297,2.689622004596788,3.7456629645440946,7.351850310544062,3.748239173392853,4.04574747611055,2.2393669166161487,2.9730633431880724,-0.7336832686153573
79,-0.6374833858542066,-1.6379271816102272,0.3741565871178583,0.7238150617071958,1.3886582107104168,4.8168650780348035,2.387613492261329,1.253834585358667,8.194363864520025,3.865931889814298,2.9696430427246696,-1.5313291925596832,2.0884922792895013,4.197377983792594
80,0.13686905114494607,-1.263540665552378,0.5516833053566904,0.9250113884238854,-2.349368275902989,2.4519043387048116,0.2709003843848201,-0.5958762471950114,4.197563777940492,2.584615203975303,2.0000592511825745,-2.285198968284384,0.8620100437721804,6.6760056126796625
81,2.1163901513172636,2.222317985738446,1.4832703844117996,1.4210272045282162,-2.072567010916764,-2.9831795808628203,-2.396802328802236,-2.1330054452563254,-2.4934294697802697,-0.2714635021297516,-0.16702311806961395,-0.12702593274626778,0.7914046984030049,1.5938369755625805
82,3.2482459908646835,3.3469285338535504,0.6095780744450721,0.7964331431830548,0.6051985972493164,-6.321349403066324,-3.1763910817221497,-3.327900517066521,-7.57541766731949,-3.640398722144971,-3.5235802716242843,1.337303132184982,0.39342314334833955,-5.6657261041715845
83,1.3244452706892589,0.17314236880658693,-1.8529121622609444,-1.2581842681916267,1.1757443985611662,-4.168444025524651,-1.2101812088496082,-2.4542632568447744,-7.188072411483048,-5.042573637979116,-4.9562665231392575,-0.36554175815204115,-2.1860690758531662,-6.692681075260064
84,-2.914969303789471,-3.39751967070689,-3.1500559172276787,-2.6635894928825787,-0.7871872759090273,0.908203045194615,1.2558810454270684,0.3665213934060983,-2.2330946825978466,-3.2846806161135405,-2.7671211525253865,-3.4539059727153685,-5.21780097462187,-1.5114802473808628
85,-5.682284698807716,-3.6516055074098728,-2.0387469313639635,-1.7524313634091921,-1.7806757703473042,4.036444831712268,1.7868745938367503,2.2281623264410593,2.630689577556825,0.3731501005802016,0.6975558139742549,-3.849137429955674,-4.3479854254064865,2.8319136484492624
86,-3.6797298676833123,-1.2466031829467528,0.35906293523860255,0.3722100169908621,-0.1297420507953005,3.840968352314449,1.020597013208033,2.0033050266551373,4.81412765304706,3.9238607168042434,2.895437652614307,0.18048534034356475,1.6309359646539299,2.5042952503036457
87,2.112126192586823,1.2345223158633714,2.6823722689361245,1.65922628394099,1.8300995624995384,2.1174398570920956,0.7933853189311804,1.8195170845925728,5.1593977431633435,5.470255714210447,3.9507772461122577,5.517415610517079,7.587645644702208,0.43002460460066805
88,6.480333349827892,2.517225059544614,3.6331915723870907,1.6639231886202412,1.5202422853886302,-0.24348940875262598,0.527237739643826,2.1849566425408526,3.7325312151029366,3.2562387913200537,3.883188462170164,6.811628460886355,6.964686994336614,0.36065090829824226
89,4.908050132948863,2.458977715609873,1.7201221949265444,1.0017390581337249,-0.3395623391706959,-3.2637733235771513,-1.2510118623508975,0.43958941366355664,-0.5730297100229165,-1.991944548559699,1.1157328771365866,2.2594486740908435,-0.14416018776476813,1.7483815996223002
90,-1.0427353956761412,1.20030597958466,-2.2747477971544905,-0.053687283659650815,-1.0563745664665023,-4.687715357187348,-2.930496122987088,-3.483904628394068,-5.391991383918569,-5.537217721985209,-3.612631314480961,-3.978305087992392,-6.34172089165642,1.5754207878434805
91,-4.8926273775181075,-0.5089737583636278,-4.2043319637866645,-1.0609352791539164,0.21448217362112854,-1.4725953104555929,-1.4546370621964646,-4.847912303714293,-5.51747839598147,-3.325026626134848,-5.70186609209238,-6.389925046549917,-5.6219201864970945,-0.9417417541358793
92,-3.0724715744018245,-1.7234082596042097,-1.4382296668326309,-1.074768546947084,1.2784307654929437,4.359716724673728,2.2077188226130984,-1.1771938545964358,-0.5035004104664667,1.9290562818551287,-2.5706096386233748,-4.2045051258513695,-0.533769779318732,-3.1700706295006644
93,0.6277303358562493,-2.2750542737127835,2.5449117281681835,-0.15733555501743235,-0.07024477052493028,5.934962098665135,3.454419015721492,2.936800827214606,3.300358632139305,3.4152244666752694,1.8537072141867752,-0.8948956998777391,1.902515591374257,-2.6498200148356443
94,0.9474842776378262,-2.048635935041513,2.418842241155712,0.2302749932359197,-2.5752587358228514,0.5453107711677578,0.7505570654331742,2.3561197239385403,1.4312013532576158,-0.40493748080132436,2.4037234928939117,1.4248477201238685,0.054770583333844505,-0.5475924588435916
95,-1.002305989390111,-0.13486558879979088,-1.0867856156416857,-0.42858557563800564,-2.6054352086964476,-5.440191752348221,-2.013941404963084,-0.8361167594955584,-2.1775752718251433,-3.3769556157858056,0.21187390573739562,3.739027541501158,-0.6993945508472571,0.39454752338487026
96,-0.18110315290281456,3.158914491974022,-2.178597606994549,-0.5617416436963151,0.810174240535663,-4.821245458806948,-1.5213842783838385,-0.9790934277093378,-1.2994769502574044,-0.5684586062594497,0.4096921521356562,5.883183932669511,2.986516710142091,0.6552278384962847
97,3.4187723313259806,4.493939048097324,0.9525484073307227,0.8089983464812198,3.8822417760464725,0.521724569740403,0.2170172958576002,2.079984095509572,3.1596538415887307,4.280646433468604,3.330559277645613,4.549065065020467,6.36358180208657,2.8383928489918175
98,3.961216700601757,0.9656911298447066,3.1329229431728436,1.8458826296865933,2.73296232198887,3.1606111390018463,-0.271854431748265,3.034048621185951,4.691968941558666,3.995095832152816,3.4158063143403727,-1.6821835305881818,3.1437837805631554,5.267066307207413
99,-0.939523637000285,-4.654154140936784,0.3560357127094833,0.48561153731349516,-1.2183091727061175,1.2428623709252598,-2.0606705644676775,-0.19007736850699816,0.8904229146725572,-1.5442390959997259,-1.807893656483879,-7.817779796040497,-4.776544295091285,2.4248766323325217
100,-5.429011660958098,-5.7336578522800785,-3.5293428323037936,-1.8398090609307325,-3.082273231204109,-0.17095507567604556,-1.290618089883967,-3.201550664122685,-3.2945883649644214,-4.969840093715887,-6.644158441121818,-6.998123118831744,-8.889936866660872,-5.271302506664125
101,-3.3787221268260215,-0.20519138728688566,-2.4653443967383426,-1.779942121872268,-1.133665391822574,1.5956819942935652,2.608970723613753,-2.206235896641504,-3.0111580334035097,-1.8398452922836355,-4.699860288365225,0.5750960218492452,-4.762543168522906,-8.615909168148134
102,2.4775671594446553,5.778438008305734,2.231466571254081,0.7953774604788475,1.2949185404122399,2.6526706321920024,5.383702636824872,0.2869375562875867,-0.2887043331645758,3.0062904173950926,1.8487228047989093,6.796712148094663,2.878552152267346,-2.16789746179645
103,4.218851215444578,5.085814706918998,3.538234113801983,2.1961351270908454,0.9871743681048596,-0.4151853788120707,3.162898694433963,0.11006023211967662,-0.2867401435733255,2.409458897359721,5.197960242607028,5.159367717381332,6.400956773351213,6.156019217241876
104,0.04506220466210753,-1.2800245744376118,-0.47996438620304505,0.3826609645641954,-0.8822171129210161,-4.3974759199153475,-2.5703886354046714,-1.5356272551731098,-2.7873303735818267,-2.615346008660927,2.6160908955260624,-1.495603006292493,3.717257009323473,5.679158126200542
105,-3.5128119413515004,-5.451270849824419,-3.6209327941032483,-1.8444426128608402,-1.1443690916132105,-3.95530269792584,-6.307467543343834,-0.33298163487809945,-2.116221691511718,-4.172240162926195,-0.9582286272543401,-5.045978893675261,-0.8224682855426142,-1.4426288895451065
106,-1.45832479844146,-2.749817613459337,-1.1900954545812408,-1.1789149356330413,0.6761903387129361,0.5074064206535738,-4.508714922827549,3.390811711388584,3.54362512442742,0.8589968933658804,-1.1330688858431568,-2.1971013952191663,-2.30328951733844,-4.296531150315237
107,2.7650069064968386,2.7707258560159147,2.8975851023319943,1.0816508148276012,2.096091448897147,3.41351594496864,0.6050114701739859,4.396230522616289,7.6701878434248,5.912617796109936,0.3353068059234209,2.6038343574108724,-0.3598243446784166,0.07803812107739087
108,3.143763762134129,4.079399607055251,2.5611941910108764,1.3152135026151808,1.236722094121613,1.7648650740262637,3.8753856609320656,0.5647984711876454,4.084859914229564,4.1910440445132355,0.046419273172089326,3.9086920920249653,1.4762398690563387,3.9763377320075155
109,-0.17595412175592134,-0.004627317945614023,-1.2210721949674328,-0.5812131450075256,-1.0490996106915895,-1.1922947534385824,3.1457887825213433,-3.5962904940510865,-3.5191210952417897,-1.7318636487197479,-1.383953619347715,1.4316762172290742,0.4921097140153473,2.206571005810573
110,-2.404448134172365,-4.06921905152338,-2.8183366318467176,-1.3488590026366805,-2.4587909448998113,-1.0701857270387172,0.8346290199066464,-3.544156145466067,-6.343033552793515,-4.517453933063262,-1.3841769116471425,-1.6140541973383322,-2.1535962881063795,-1.681432852299067
111,-1.817044570630898,-3.2161871931357626,-0.8561354735687281,0.053566125467560205,-1.6567256163610724,1.5446932915294562,-0.23719557978463238,-0.7955305717986012,-2.7396191643029475,-2.722723599149238,-0.0975706682173633,-3.2384341886550247,-3.309357079954213,-3.384766351494802
112,-0.8547290134323555,1.4309608241498697,1.049792552848914,1.007533107750165,0.5440502200934323,2.4686674658901793,-0.1922775223506737,0.6385469749970559,0.7207382319248054,-0.7805483030302667,0.5568995207585984,-3.274768063511095,-1.7161534114388324,-3.3540014800969136
113,-0.5258287452088021,4.726403327786717,1.2374539397168465,0.1359548716167087,2.0209463357126793,0.14548509969001108,-0.36835100163139034,0.590255868938473,-0.014535195578313176,-0.43193613977597634,0.5587927832046423,-1.3263367184643935,1.0980968676724547,-2.1121977472918574
114,1.0146149796776918,3.5004297956287758,1.6411959895479065,-0.28039862597012344,1.5878489506693,-2.465140045982019,-0.6718722621152932,1.39965385342628,-1.3065288830038926,0.9649794814113078,1.1214197020073131,2.527033870459904,3.1517813246287845,1.9442207409966035
115,3.617508063130422,-0.5741396269715665,2.2478562392778043,1.195399388638268,0.28352587731129,-2.3933758062368846,-0.5333623700341756,2.519908046200039,1.0740166356878427,3.7535966488978,1.6257856093497502,5.524485784022879,3.618037995336144,6.736091841323172
116,3.5318904579780734,-3.652160794391895,-0.00886829553834325,1.7506901357520475,-0.3061428863933652,-0.4610176147314886,-0.7232392770412176,1.231753872584254,5.034311758056437,4.101280090180351,0.48106758076539463,4.089048485912266,2.279813504561241,5.846488840514727
117,-1.0781247079628329,-3.846256742591896,-4.82750937368041,-1.2230633081755657,-0.49587240796234827,0.5445176426938667,-1.9117302552636746,-2.078671470802062,5.274339346227676,0.3408899503552275,-1.647865811288233,-1.3383302534560506,-0.6692131439199358,-1.7458473283095508
118,-5.980500059932077,-1.974115063912556,-6.353260640799987,-4.660913454589347,-1.5147372962942327,-0.11423872715199251,-2.438664340236229,-3.7380847498445062,0.468835612956262,-3.747248306775862,-2.4254188321830994,-5.826669692863374,-3.6755221344936855,-7.653297083599012
119,-5.246415195009502,0.6294527935875728,-0.927823757778467,-3.1416681668028787,-2.3723986224277596,-0.4206250127563337,-0.037011702305910804,-1.9384999093073623,-5.167782014655502,-4.062722083195314,-1.2732115256603662,-5.332810869495551,-4.299903683984319,-5.090342478338007
120,1.1097312231920713,3.1128339127940676,6.57461318281983,2.876880285676419,-0.6464536788356134,1.2656590177899498,4.208688498915585,1.3301076879281464,-6.5619102935238045,-1.1956605099481794,0.34966032874354774,-0.7365447544275447,-1.74627828310387,1.652220255259142
121,6.491425759073776,4.128624904749505,8.086021293632298,6.460841161550307,2.893331299579462,3.4162041642695153,5.933696911526329,3.4472687613127597,-2.797687134378757,1.4603643189328581,1.5733967104033475,4.000174418818554,1.864352413873887,4.296275624916567
122,5.367058076471984,2.3170338427533834,2.251528483013661,3.1509415989879965,3.963139194550822,2.875837328384559,2.6298409288502254,3.4028214144638342,2.3325649905782964,2.0712539900410256,2.4218315555065884,5.653678497290456,3.537515307041269,1.991771756620133
123,-0.3694297003048659,-1.2973191897352465,-4.401917877723545,-2.937119198540172,0.8518694956554572,-0.707183926159737,-2.805999035547779,1.186888214297792,4.373178886750283,1.203870882582908,2.031718076688755,3.263401866606385,2.322133422354309,-0.3412246564934522
124,-4.374566669085149,-3.513606350035976,-5.719668289635125,-4.69435745129905,-2.7019270432630433,-3.890571542129758,-5.336912197470073,-2.32022627149593,2.5132653770392595,0.03732302343595739,-0.5142193352442517,-1.7280638024817059,-0.2060045485244388,-0.6657443168422784
125,-3.823627510535757,-2.818996804879518,-2.4861512045494263,-1.4520195137974243,-3.0465902051288327,-3.9122896558724745,-3.747129519835069,-4.7953753282961324,-0.3524284434627726,-0.6869233190449212,-3.5255318119443593,-5.6942665901623215,-1.868674655647564,-0.607040856344809
126,-1.4661883130342834,-1.053412650158768,0.17300630495830202,1.1214396076515234,-1.329092081507106,-1.86026651612793,-1.1735541843867696,-3.923276073677338,-1.2294690759491207,-0.6380108826438136,-3.623129468418773,-5.083227850551514,-1.7111726803891103,-0.6710381849238346
127,-0.008246249821968754,-0.018407220287835285,0.016863401606253867,0.0006733967690766007,0.021531651252387693,0.17168815265321283,0.07515655869490243,0.04623509833556219,0.13065871555271763,0.07013203059297643,-0.12744609713333915,-0.03642846830112072,-0.22031543014631297,-0.1094831254501821
