,AF3,F7,F3,FC5,T7,P7,O1,O2,P8,T8,FC6,F4,F8,AF4
0,0.015228842389517707,0.024769776845971522,0.047153846121574354,0.011323906722424264,3.250911072883757e-05,0.001849834938499311,-0.0009205219089873616,0.010986276969283879,0.004964015553417821,0.015164008137199064,0.022741368877075493,0.06304987445384759,0.04590494776929502,0.037085436944031935
1,0.9334847244337348,-0.518826387670024,5.15265988274035,1.096978295812229,0.45841424085068533,2.0155683393195267,0.8801628864576915,-1.1204315290980384,1.4241937545690455,-0.8344282907842677,-1.5675740438668788,-2.055646073298786,-2.8545009781331347,1.5080780786032217
2,0.681676865773247,-2.316028147532417,2.5304214418080067,0.9197551729788963,0.04416880223132112,0.5144836718896985,-1.0455623471372544,-3.6263522938404935,-1.4868612164909782,-4.330289096044572,-3.9329423371702394,-4.4229126093629825,-6.716948858109806,-1.4986727970403535
3,-0.007198963303491776,-3.538877186122319,-4.21696982763895,0.3862749122279935,-0.7646340477860535,-2.839725354720562,-3.4683029198091777,-4.522332271147045,-5.640385643042385,-6.938786916184262,-4.638051997916576,-4.0294712878402805,-7.454738036842352,-5.582166434291421
4,0.12476312504246806,-1.6409548216018601,-5.775551788510865,0.8445020037806718,-0.8155853803386853,-3.644667881509462,-2.4968623547426705,-0.8334719330337294,-4.5599676460339555,-3.307877150439074,-1.1323333975870777,0.9831383336641266,-1.4023197456912537,-3.6676343820757524
5,0.44946626438617526,2.2721918568662307,-0.47290025119127255,1.2481887418803137,-0.017871861002667588,-0.7589319126782602,1.0807865595790023,4.485452286828542,1.9588411249708726,4.854535408224093,4.340430591244854,6.183236559780899,7.141276148659757,4.183273633891712
6,-0.62889907536173,4.081076603759713,4.349778830205422,-0.5352226498248502,0.5567847168141471,2.694565024871132,2.9901955766982464,5.579157871492404,6.7421544893688665,9.08455472377555,6.178568958920239,5.135833037310677,9.507152626712479,8.93170809449454
7,-2.3587448608492076,1.9823961408112727,3.3208970891943443,-3.5805608475540573,0.3832178252930897,3.55951986040472,1.7978021836599587,1.4587426598056537,4.443258694319355,4.563983198647928,2.13404721147152,-1.5627982973334016,3.3827631611355913,3.772742766163386
8,-1.8309689943245702,-1.1258314047635436,-0.5629575097240932,-3.8707404714724647,0.1496279706466989,1.73376755248877,0.21868939851362304,-3.058407726904174,-1.7132477758515614,-3.4719054764134865,-3.6238768548787696,-6.190148870659355,-4.42898216036336,-6.042169842782316
9,1.4650372876862088,-1.694629371338118,-1.6788441481615335,0.30721439657270505,0.34166532915840625,-0.6912387862624433,0.24352750131603937,-3.7585149575163372,-4.358861830686804,-6.28010980507333,-5.092567540879484,-3.6799738234205335,-6.413856612633341,-8.85508688606073
10,3.993360810300602,-0.05091543839811559,0.576161015578037,5.160048028192631,0.40982334647917684,-1.781481460974632,0.5511550995783525,-1.2607450851543212,-1.04527657606074,-2.1256815389512056,-0.9839792329305493,2.4735851177892383,-2.2332586194112647,-1.3288363813090247
11,2.9272198364778017,0.8242414524717542,2.2906691023316474,5.516908157580681,-0.032521602490411444,-1.2187391297216585,-0.37855962732508214,1.2919951917162817,3.472030930418231,2.893940987251731,4.070165031214297,5.523944601931717,2.5536709230746792,7.18260089761673
12,-0.1635267522595761,-0.33723946325626036,0.6755780365578362,0.8799915344182196,-0.4204457875663635,-0.22661498298318494,-1.6271793049229746,2.095964082857345,3.404098586201809,3.202341906219603,4.480896287216862,3.1680409429601335,3.140255721418152,6.600046658461622
13,-2.5633402592024095,-1.977522041029042,-3.0587709297719043,-4.353613107562468,-0.38090979149020526,-0.013247368705666895,-1.8154941370487403,1.2864320995103768,-1.5382708358074362,-0.5085906406966931,-0.4701374759506914,-1.888957875931022,-0.3230187101959777,-1.5375795639373804
14,-4.07067862107238,-2.251817570148349,-5.287517878695752,-5.831604300946741,-0.45041988605363287,-0.31871287084070965,-1.2829093392702748,-0.4749038376096016,-6.259711527486395,-3.834053504364025,-5.801706597510023,-5.812559760526984,-3.761699282802035,-7.1962166556606695
15,-4.495783842502683,-0.8123110144139136,-3.1754830822671027,-2.9339266326878124,-0.8370959670315044,-0.1954492215167457,-0.637136667919976,-2.371677404912428,-5.894179111208857,-3.888586324208628,-5.972727278302024,-5.756432515381078,-3.412895517359698,-4.932062384221975
16,-1.439559662326468,1.5885885273199685,2.5409382457645333,1.6830006508376891,-0.6565150026045502,0.1576303732031545,0.6314825618847412,-2.906736958877449,-0.4229631127998629,-0.865672648436478,-0.5983094307205705,-0.9174601552138677,0.5586705051744381,0.9157564477001963
17,4.990680932594506,3.645422968132388,7.176248090488735,4.60779808240899,0.61341310538561,-0.10639613506327292,2.3537341305491633,-0.6197292470272174,5.907605407353321,3.471312723430825,5.551154293060966,5.723384204663485,4.512914377966951,4.116527038536916
18,8.760993164111309,3.7964743511571193,6.091670168180352,4.043423479903299,1.898098035105007,-0.2937362505077024,2.8054982302869416,3.749077473124482,8.573853661664481,6.824939058510932,7.732573041583726,8.594899732016799,5.4516675581565295,4.463259654303388
19,4.749370827610523,1.4023817019690459,0.06585713763820586,1.0187818947705864,1.7769940010648169,1.2032343048472958,1.4338998346785536,6.414523469373608,5.890977669738001,6.58517629597232,5.020772792828844,4.973313816404114,3.6327317074234897,4.709833182086228
20,-3.37723529056172,-2.2178339489362964,-5.088651968246107,-1.7107546270676404,0.26582986853236085,3.396831922614252,-0.027953932439055446,3.525973995167696,-0.5304217489601122,1.2964877155116736,-0.6593070898245428,-1.9594276606112175,0.40046266308637724,3.464441103475246
21,-7.576128797673862,-4.751047511920441,-5.3725166046637725,-2.5515668559845883,-1.4406274262764789,2.5507818001519387,-0.8799380809030577,-3.9975636768619913,-7.050938873803589,-6.90624378318903,-6.664546720077602,-6.955338488224113,-4.316804651286882,-2.898649019314922
22,-5.671900808593541,-4.740632714544262,-2.712223997057218,-2.2544494808746514,-2.2575398779051032,-2.3874055094081754,-2.653323431825601,-9.625203819480486,-9.840120446155511,-12.197890185079949,-9.715595450464532,-7.784080229411918,-9.494417074556496,-11.489866207923937
23,-1.7000490287816408,-2.059852057903792,-0.557635484418419,-1.7404709173536879,-1.6203688031728645,-6.494660078525233,-4.801588616229725,-7.1881613818576335,-6.788766353072323,-9.163247341025556,-6.596025470717134,-5.087289691006664,-9.968418123376683,-12.448287175496366
24,1.7990198706864229,2.343803042688975,1.3840721731696053,-0.3707202644062986,0.3441458907955167,-4.348329969209157,-3.2536648984877883,1.9305150803741797,0.9434493952928026,1.7349109722780314,2.1373300645653344,0.22242814186208057,-1.3188532660475147,-1.0649000427342674
25,5.211910311728136,6.016631870045364,4.434125619988776,2.0955839971961745,2.2345394661296325,2.301032682627902,3.033510365945909,9.325186727673284,8.735028524339755,12.791851657906637,10.151970716682937,6.579248532463695,11.526006542968418,13.350303988192362
26,6.622230734470136,5.690487586868382,5.744669498204458,3.4738401340560277,2.0800441473005096,6.10671979777618,7.755896735027077,8.390163926938428,10.94122044689182,14.6428588196759,10.435612652044643,10.174457107808248,16.23607605886583,16.233051221532072
27,2.5625472899825783,0.6724331592887859,1.4226979736317542,1.660498064608999,-0.2507066273024894,3.4562724327125838,4.585706352088476,1.1446150512727022,5.3814315128870405,4.954560857046285,2.8958027706436016,7.107405296423025,6.888054977592201,4.781990644149328
28,-4.673994524685963,-4.913965751869896,-5.641436934903902,-1.6261734720178962,-2.205522789676335,-1.433770389405925,-3.296662191760411,-5.0727071400762025,-3.9502118467137395,-8.311749527255827,-5.4302950723873025,-1.7812903850475288,-7.815483066471446,-8.743826298478854
29,-7.063732144290529,-5.66084960465172,-7.050911122970805,-2.444327001950289,-1.3746797554484549,-2.8380102785188432,-6.444149652632204,-5.838216611011342,-9.602891012064452,-13.665991697243758,-8.01182264688766,-9.6814145792873,-13.74574100593343,-11.679987922087117
30,-1.4856002379632849,-1.1225970472850726,-0.14562382787887054,-0.05346862210125,1.2973937980937973,-0.6950202474117767,-1.6167191325741075,-2.509118148980883,-7.257507197259942,-7.110791543498936,-4.636214469644249,-9.49571465156977,-6.888768526571671,-4.462630068296687
31,4.665744820845877,3.314625438613563,6.8026484829076495,1.881149487459706,2.4356668249709017,0.7920182210328445,4.058775041517177,1.1499306817310426,0.1071528661145634,3.8667552620940078,0.24410900699467594,-1.5907932748346805,3.3777098407702475,2.7819564149282536
32,3.0879575348760366,2.787047608755623,4.7487877812362145,0.3509538805565846,0.456949972888743,-0.2768313625952339,2.983871536337661,2.3265993810316985,5.167365961272231,8.141746011031925,2.572898051156199,5.692540335705399,5.973197607890746,3.395794156560786
33,-3.525951492044558,-1.179500816924297,-3.5989668506254264,-2.7987935193854727,-2.32532191182119,-1.3901398618533363,-2.857579111802064,0.5070433962006706,3.854458202421127,2.828443174664309,1.749439674401123,5.248987443713982,0.45139726040500083,-0.01609328837873604
34,-5.023616574920273,-2.8323746298388155,-6.929613832948947,-3.2053334856679316,-2.5392266540286466,-0.1551095003031502,-5.1276506528379295,-1.8447419267326255,-0.5221447790368331,-4.003527818861224,0.35598114650482493,-0.3062652666488811,-3.8239252764818583,-1.3927089575981753
35,1.660830728969865,0.19389369107506996,-0.8019712557025365,0.4390165915473968,0.0493383212584747,1.7572291924588201,-0.5070414580587822,-1.0960719513720036,-1.703605347101175,-3.3982318213875584,1.066828176117128,-2.452751148617197,-0.06576776243409782,1.2392490298215444
36,7.7751386532127675,3.693301273757424,6.085536078494485,4.55436780503851,2.336093214598737,1.1961558802681838,5.279716760426184,2.854002639906963,1.5120723207995206,3.483458691422576,3.0443423817281317,1.4818514068899586,7.1149266415557015,4.6477182868225055
37,4.75104348047183,2.5976712576296275,4.154602303403963,4.608620866370539,1.8513030636888752,-1.2707447403662613,5.308653720032376,5.240622803989837,3.8472198116391323,7.219814897289121,2.5393621671058746,4.820898948888946,7.61818038218281,4.50822408295891
38,-4.001474918211756,-1.8996115882268108,-3.4192999808590896,0.3084947070411855,-0.2751534765151016,-1.8022616012384973,-0.007974079306460699,2.251560071284816,0.950573466746179,2.4473415433408476,-1.5731783721955517,1.4819360557801666,-0.7697032160211903,-0.11896703767674827
39,-7.832241826793314,-3.7821178323059326,-5.3826897323655105,-3.93420889211055,-1.1716712599997785,0.7746302639968441,-4.328256864409577,-3.4058771506060053,-4.2543075176848,-5.503891006738686,-4.940400913293182,-4.9028793708573515,-9.059438043525283,-5.509061501503431
40,-3.002470498918123,-0.6663594843624656,1.1457519571541952,-4.126730285958177,-0.2831086535914431,2.712282573401283,-3.6257086205916833,-5.751549980984444,-5.427597528563357,-8.004776821494872,-3.3591159262254586,-6.130034032770289,-8.511738271604436,-6.725616854836387
41,3.359347244754149,2.6131162747068926,6.412925774503591,-1.2367922259334985,0.1629438932559241,0.8066281378700029,-0.33814916926031807,-3.2617841041815727,-1.6019725719478906,-3.850136275522556,0.6436030110050311,-1.201403173455974,-1.40179067321862,-2.884012071746067
42,3.8693031067030015,0.9705458242486946,2.383581885426262,0.8955372078543459,-0.9152128444313737,-2.581172575535991,1.0401593346849325,0.12915447630483162,2.0299912297711855,1.1610603772508559,1.4603814474471506,2.9671279345701556,3.593367004874234,2.1431241493289637
43,0.2686692894086916,-3.0849080848150305,-5.411319444381587,1.1551431871966034,-1.2777042738076982,-2.801430518206836,0.2248426741328337,1.4660692113084468,2.265110482601869,3.4642653571556665,-0.4282819181271276,2.418249377508765,3.780521448666696,4.58433525039238
44,-0.9407241173193088,-2.6860103902946664,-6.058423491616778,1.6866988783654906,0.9319223678130856,0.4032499683610522,0.575682649998852,2.16393095839949,1.880681414649886,4.914746125058237,0.6932853986242459,0.9743185442479743,3.7176109812924407,4.215702115457543
45,1.3271439836200671,2.9681453284540162,0.9373484321175212,2.939668935454823,3.164335138458095,2.786769070011477,2.8493139897405304,3.7078372389272034,3.330374425390174,6.092013092790355,5.007252206848477,1.9516906454850023,4.8385848152583115,2.3912803998538665
46,2.005398125419783,6.417595573885829,5.621652486407819,2.1858899121741664,1.5814665386994735,1.7819631591833196,3.17299259670784,3.8460215173737105,3.403160786862819,3.062526245700486,4.944311174672992,1.997423816217292,2.2554924507719125,-0.41038533109320086
47,-1.4461757012228622,2.1201645493979053,2.3468867758702694,-1.50266534747187,-2.5824330220224723,-0.48290183031442613,-0.839218372330737,0.20600572717765134,-1.3271220420246232,-4.998960909366581,-2.5975353371283827,-1.9575058909755707,-5.150867285862142,-3.4768756403013517
48,-4.788993058370392,-5.382630966004565,-3.1325531465251544,-4.565178919001479,-3.990281764413066,-1.1753790363066994,-5.187232882596748,-4.651262183983703,-7.0908135160646575,-10.429888884933582,-9.097887912949462,-5.481576240136765,-9.439622181884916,-4.741523562798774
49,-3.220302971006288,-7.229346176988476,-3.2395860708863915,-3.6961655249088836,-0.8919280284323372,-0.8222006350720906,-4.4012031018239135,-5.65636349090104,-6.721610117188175,-5.962788896120899,-5.6944511176479,-2.9719242316291434,-4.294893805056012,-2.7120185964352324
50,1.8539069781491009,-1.6298801941377232,1.1049581034789295,-0.23676376826976456,2.5458715050563274,-1.2729992184172216,0.6221114681726532,-1.9559559252121428,0.18652209960282964,4.0868078116075255,3.7513431844218657,2.9088770334509255,4.7530360678834125,1.5756773290775974
51,5.091327297256788,4.766065054786414,3.662215813560909,2.573535513258591,2.733561542159693,-1.6758805102060268,4.049859446531087,2.3235904442510633,6.260208551209625,8.625448144156255,8.084222814993971,5.045009884817179,7.560981969056284,5.133746991204459
52,4.026475619582861,5.832027082383389,2.12951416187319,3.769570128667136,1.057730361616665,0.29554998279568057,3.3514959044296693,3.852923417700713,5.88251262224767,4.370385341834535,3.8928400632927938,2.302171400755777,2.940080000457781,4.841770070336415
53,0.6482893108380468,2.163288424128794,-0.5996512276518945,3.5480075287246855,-0.0020410850956771812,3.6989669106732697,1.3230288763423703,3.037396066107482,1.2134985313275182,-1.4585547831179129,-2.200398529283313,-0.6288881340928519,-1.8646742406057586,-0.054867752248717705
54,-2.494493605719532,-1.8914772913197602,-2.298413984265555,1.0104363933594933,-0.8479468156529275,4.266314091459029,0.0064779924008745784,0.9899620594568912,-2.474575685519206,-2.8527379796529466,-4.36033125510978,-1.8075958274775636,-2.6816258023942416,-5.650892268383084
55,-4.5210356987314375,-3.696018460397692,-3.4591276522864223,-3.574635373735014,-2.2786917081913423,0.2238716455294127,-1.9998350489351917,-2.164125902157161,-3.350739673264773,-1.9944097592992116,-3.3289889528913688,-3.359942578487157,-2.1241796370181523,-5.845187294812505
56,-4.644000686803349,-3.259270280380723,-3.6025335127805196,-6.282812460667192,-2.594904839366543,-4.503845272781721,-4.566785021183541,-4.564922555552552,-2.619290876268166,-2.5166519452685265,-1.491498227268495,-4.741538399740506,-2.3149407766111985,0.2052275174799701
57,-1.5652391085059136,-1.2524563800924717,-0.48497358305533655,-3.248582625121098,-0.2760440322851476,-4.861182747727854,-3.7029872855348227,-2.660519589283978,-0.8048374137259737,-2.5192230435386156,1.1339878482778483,-1.8462983245776956,-0.9700597140632422,5.609110073616751
58,3.854479100802624,1.465426529896527,5.03072309732024,3.3628541410092776,2.685580174513638,-0.7882552854187859,2.0252775057250667,3.0357649074252793,2.0715959760731497,1.1274989792272654,4.099761555212569,5.225994962208802,3.0774600914918113,4.164067185965115
59,7.195938925310024,3.247248602091942,7.352618050574409,6.517658724993907,2.9647367648158003,3.1665256884414266,6.688399659305221,6.037571459916686,4.015662603359029,5.699285609676917,4.612662654221881,9.175695679711401,5.681747328282923,-1.3063957454825392
60,4.497486333765255,2.7485822428756927,2.881629926894472,2.6856256522384325,0.39348266776615737,3.3815791435347062,3.9212101946748845,1.9212063288752654,2.3464758862885478,5.3359624083053205,1.1953702132315525,4.160479129402727,2.5694475090630107,-3.339064485638737
61,-2.285735314619517,0.6593124103497889,-4.251291140505624,-3.380540210020159,-1.8650941128699094,0.5971724000959742,-3.2959423006280684,-4.600726258125329,-2.1580912006571755,-0.4924151467015257,-3.3919044710895125,-5.439764832741154,-3.876735395293572,-0.43899438744637476
62,-6.353188088449646,-1.0875257552872122,-6.9261553263368985,-4.4379778343835685,-1.414960845737266,-1.7510492388467411,-5.739337820523682,-5.542259144418817,-4.994144998994748,-5.815626014627494,-5.086416860331062,-9.184047846864535,-6.782992185347119,1.9532675925981093
63,-3.8715941029934786,-1.7579829891136778,-3.710431743756183,0.07600516099715401,0.5656219192059377,-1.4089707194955103,-0.7831761547104955,-0.5372150419324091,-3.0400525679931913,-5.676258856084279,-2.9766744958422393,-3.292093083201578,-3.0672470714277615,0.3729496305346651
64,1.3136306962260496,-2.0520962028516547,0.894476283420766,3.6736556208076756,1.1136077791723171,0.5600835193944909,4.02947387876362,3.5725816455680084,1.551416984182538,-1.451108814278253,0.4758643738573446,4.464453428757111,3.108534775817256,-2.257876215410771
65,2.895259230946753,-2.0228483582209877,3.2623428912094363,1.704624368844547,-0.5567395387039432,1.3448925825546,2.242195399187351,2.9021031407225912,4.032259300422717,2.2538466760189464,2.602026417084961,4.7155373063888915,5.358858986155741,-2.1015658156116466
66,0.37223368349925473,-0.6025878641919524,3.534073373376075,-2.6305382206693735,-1.95171855788817,0.10968295405348072,-2.467873564396385,0.47695668545283476,2.882116162973555,3.491966162712948,2.8735726227010114,-1.241893417015062,2.133278766276757,0.3400323746535987
67,-1.2196090024497523,2.132309479676626,2.5286015959224226,-3.198198416328469,-0.7308823852465692,-0.9220379851842292,-2.674428088152367,-0.15121373188317258,0.9699382824735812,3.7415593804690817,2.458230892860738,-3.683690919165705,-1.8539482538483887,2.330377389390348
68,0.6366667352663697,3.7767324411700196,0.09534726026807472,0.410367830410364,1.7667112918252186,-0.11378355849346625,1.5409174232097194,0.17496686691831637,0.5280529852372456,3.7119088181257847,1.9421512636721574,1.295399400165997,-1.5558810170787156,2.6424529235912604
69,2.3830856287249236,2.157340592525117,-2.8483837308239823,2.77002068317325,2.1652503903957063,0.6202199686787938,3.3887116707894327,-0.745675609005738,-0.429713828282722,1.2876184662877583,0.1378994969664063,5.955858403221957,1.5170382641359574,1.2559565934045283
70,0.4995632508711828,-1.476553542577983,-3.875197224553743,0.8600144572444038,-0.05596386413686447,-0.9777267134778751,-0.10720887888966121,-2.4532608711818957,-4.123564907096253,-4.454462827954927,-3.6123439964455373,2.564769889687918,1.0951160969716958,-1.4753023475277778
71,-2.6323719043542764,-3.4321304751566393,-1.8849352778460697,-1.7641586112712706,-1.7124900392388192,-2.874342903081117,-3.9925938821004823,-2.8575785540195566,-7.335152631488999,-9.083301287790675,-6.394573954025544,-4.817028726026954,-3.958585093753406,-3.5203766318680816
72,-2.3495871987563777,-1.9680357648781068,1.3791898809141363,-0.88800473893951,-0.6868744148977937,-1.2277262124420982,-2.8063790898674617,-1.0506559955444543,-4.2635724085874855,-6.564944006729615,-3.9888683255500905,-6.402376806492892,-6.224308570306837,-2.269965946626189
73,1.1762267845368322,0.814623954605176,3.3776094559883685,1.9170213610641722,0.9920536405812647,3.0344655386550414,2.000433338761956,2.160800725306288,4.603547315446668,2.494727447984071,2.7797964474584522,-0.9450808140408509,-0.3335545538760957,1.2889889832991799
74,3.3767466650503466,2.1186589341807194,3.100714549259037,2.2690461304129306,0.6290732516802375,4.698343699040173,4.591004006259317,4.876284950104414,11.06828563268558,10.042900486699747,7.387253502318107,3.694514313333388,7.656495086793553,2.916601000139855
75,1.806787556484498,1.7117380522043342,1.0488439585624434,-0.08433807628321606,-0.8022052935645304,1.849552671202731,2.4743994057427128,4.676711272466946,8.651879190178356,9.399965969550735,5.483188418066994,2.992411576148565,7.940323695715565,1.28032744048551
76,-1.4611561075698787,0.6738150972080139,-1.750614923575585,-1.6935002996839608,-0.607173968088893,-1.6733670983283921,-1.281464785766888,0.5335289683376936,-0.10572304257992933,2.0113894123068974,0.1414768057743524,0.7163793660956599,0.6084206041361712,-0.23589184760533158
77,-3.612834293819642,-1.1239133126412433,-3.965287299165093,-1.5291487243270485,0.7523152577359218,-2.6094148574907092,-2.9968356726025513,-4.957194627204864,-7.808830445212699,-5.695777787754162,-3.349741881808213,0.42912892793093943,-5.657351780759003,0.19676947420315327
78,-3.7262906740776387,-3.5945630395118218,-4.029211356142338,-1.7881663849815612,0.35502267287945527,-2.3216424304894225,-2.5297300694424507,-7.013291740504394,-10.103895766405586,-8.991841572218455,-4.270302315192263,-0.15948949819465247,-6.131217776440352,-0.3599616360449349
79,-1.4504516978783812,-3.8779535250257795,-1.090433863541072,-2.4670693917616577,-1.7036927939719084,-2.5005078828581233,-1.515479543962025,-3.5896121587428915,-6.9053956304861694,-6.801565839607258,-4.367668769286323,-2.924849964980607,-3.5261693880549587,-3.2612706970257874
80,3.1616355704904553,0.7237355919351847,3.6192608753445805,-0.32395434966066494,-1.60255880272532,-1.4399463486211337,-0.06430714329937627,2.256870128350479,0.34687813451676863,-0.41689329619584325,-2.636332624474382,-3.9209617948898106,-0.3261031296065282,-3.7676721030791605
81,7.131723760134283,6.923459802502962,6.561354260407682,4.737888642264892,1.8649532803890267,2.1302009883929425,2.2877439658238194,5.728823551505649,8.237479636647308,6.538291206487044,2.3227803881892415,0.33099043392337646,3.910556337700735,1.6345838051349106
82,5.557609593142035,7.124333665804755,4.3269443168701,6.93200216164239,4.1550786651842575,5.012453204933042,3.7902710511070272,4.860504365128633,10.68794519190016,8.762512391500332,6.845335090856491,5.449553152122156,7.066261434160673,7.2127031059123095
83,-1.8822149698142177,-0.5979463746895368,-2.2401247276351106,2.1033820894948474,1.3930935412842003,3.3805499698365677,2.0624751552329172,1.2687424041815334,4.396321030567045,3.8281436601111003,5.466157215228552,4.4683301677800715,4.553465636517805,4.619142898980609
84,-8.135574332334354,-8.117190545219886,-7.2206384932143814,-5.241232646520101,-3.266456561132396,-1.2341220031587792,-1.5994454454233251,-2.103450161113975,-5.1355638794028415,-3.8086804291943754,-0.626240918865758,-1.6039470219189456,-2.644736010900121,-4.047217041918173
85,-6.504697766705031,-7.0263405824553935,-5.464811695038937,-7.1835695093224246,-4.039627923967967,-3.666791372833026,-3.0682842825672036,-3.247226975810915,-8.253983891071487,-6.672195828070315,-4.549392890941153,-5.032061649625643,-7.005111928589212,-7.896611440313781
86,0.4789023558791697,0.19490752976903952,0.9160623337253867,-2.7730233106764786,-0.8903471027794938,-2.0816351342727675,-1.312188335887822,-2.2751838054959506,-2.9640973082421183,-2.99125629961554,-3.6315731354174123,-2.6497445922973886,-4.5365216960017625,-2.5310113649493213
87,4.509112019765365,4.363440433344479,4.91936257468412,1.9420722587393926,1.5065189191080202,0.34781492711541795,0.2767199272453017,-0.8854767747283329,2.8226732139131543,1.607818725603335,-1.8480794879019782,0.7723631801737451,0.36908717822759307,4.3468249138265
88,2.865847186639904,2.89515304406816,3.5425937331473842,3.144581915275372,1.4677077993071617,0.7364466750416852,-0.20328404349910079,-0.13925539621211946,2.56960255231334,2.2180095845769703,-1.2868152701886033,1.3424063075131296,2.8333585432420763,4.870296513789781
89,0.6774052915047106,1.4719993366328559,0.45620797214280223,2.7512837116923645,1.3791540469832235,0.013324892402359581,-0.25717654289799335,0.5952291181668763,-0.8131678340737679,0.5190441957249483,1.0931501865634623,1.256533796227057,3.5283961123408636,0.9563334075768011
90,1.4338229989271865,2.5592900265187497,-0.766139255392076,2.5460652097551337,1.867505162895199,0.1534993204672913,1.665814954916225,1.7196625795407126,-1.3861478627034451,0.27015617028089006,5.302608451115209,2.497359043462058,3.6460478563030425,-1.4841973636369927
91,1.7471213310664107,1.2944272461630317,-1.2047470041558743,0.9057222699698544,0.708433504687666,0.8117015121588855,2.524373297627784,1.9857445891266872,0.6811916238905503,1.043962520632906,5.12175808079854,2.052119748104876,1.0013235085033692,-1.6198083384146882
92,-1.5704949019244883,-4.121909998656942,-2.2962193989458695,-2.599699596906519,-2.0382687243685917,0.5263320140090355,-0.02456832759500003,0.6287293154282619,1.3632344580411377,0.2413400044244497,-1.6944838576274064,-1.9698234653092173,-4.313680221510287,-1.846335230235707
93,-4.950198411587828,-6.791372698470316,-1.9696212729921818,-4.436439950591983,-3.0757466946949337,-0.563678703084788,-2.7879607507034416,-0.7300096320339601,0.21778911516979682,-1.5851151410656195,-7.173647484493549,-4.975076690555394,-6.594344779573872,-1.8164076424741127
94,-3.384356842902078,-1.7934623275349821,1.0964059363922112,-2.0595163739901206,-1.1911752776735673,-0.9998440582175847,-1.8135139284391677,-0.4829349350595307,-0.020954169874662004,-1.6270088033291732,-3.87486400285701,-2.331978572306046,-2.0309773100163335,0.11126676371870219
95,1.5245379254843336,4.745157268956543,3.3713645287009566,1.8852200877267369,0.9427207571781723,-0.0887937661935097,1.3174997493100982,0.23045959700364774,1.0242821106382638,0.5016872203849154,3.660465501884448,2.8624473386357465,4.890519704748443,2.5444576284652416
96,4.007131932865254,4.6506206165374895,1.3734345627993803,3.2560051608222373,1.436658183971066,1.3704454375068456,2.3061570539297978,-0.3847973315560493,1.203310041744673,2.369254028183078,5.607631532706642,4.223990500001768,6.953416849027991,2.9384421683184856
97,2.3061126581041784,0.083091225589947,-2.2543100062763477,1.6429058444103757,1.3987378198809768,1.789300453014459,0.45906059599560284,-1.585344472571105,-0.21216568793531107,2.015471280566294,0.9412147820690151,1.2149687177851791,2.840078389078896,1.5114919036506413
98,-0.33480871118967365,-1.3186555967184472,-2.5244058062274792,-0.5623915541892757,1.3476840616088577,0.048809028264107476,-1.6882799178563537,-1.6315660384765085,-2.1388090221006744,-0.5748491597560039,-2.9713209474473916,-1.6732151256775964,-3.107209407872943,-0.3475471687849614
99,-1.290785084405059,0.7084541664969999,0.31847644132127106,-1.8065060018287904,-0.06969892503477976,-2.764018167263583,-2.3959437853130736,-0.7374279723700744,-3.574282701455034,-3.745528511306333,-2.3804370027338897,-2.223634719493006,-6.484449275151092,-2.6752466003282143
100,-0.8668006122264875,0.25158671338057426,2.0512244542124227,-1.7125781133082378,-2.2197159793649277,-3.3029122107397875,-1.1059446926261958,0.31434578431113663,-3.0203901363964554,-4.301034785133567,-0.689593205030447,-1.495355111854985,-5.212977579399016,-4.421994440066283
101,-0.05706146684764544,-3.11273747742925,1.4469521218340868,-0.11608750744773783,-1.9448446431357143,0.1129976124295561,2.1174436216246204,2.2229072319117473,1.1530194193422434,-0.021321403033635125,-0.4465976003439943,0.18024500122367643,0.37884995177385367,-2.2473656242275517
102,0.3680764755048279,-3.376898486370702,0.722018009025925,1.8606706760907727,1.015294790383737,3.9544430693472923,4.625050997878145,4.483238012992914,6.537790548739042,5.9160771173767905,0.4273915191988166,2.5469282699352065,6.423613691134752,3.527276637004397
103,-0.48859880922885107,1.029933531392498,0.1925724958640829,1.808303199555074,2.4500106473900267,3.224720634896374,2.3951581118960314,3.4334856470187023,6.584646788747117,6.467833539082518,2.7526827603395545,2.615855591289727,7.075894365204399,5.931264321167886
104,-1.9861225162858842,3.985128577752218,-2.0394846405675735,-0.6426882593518035,0.05030024240826362,-1.2404083687137417,-3.6486126629962747,-2.407054705044275,-0.8294883513018012,-0.25055287875252924,3.0234391976286745,-1.542075883563624,0.9072365699142588,0.5597877272377563
105,-1.436681066744645,1.4863917868769927,-4.892547643387119,-2.3704956387563274,-2.6339848526485463,-3.454006244942142,-6.556813538242694,-7.450724332382537,-8.110081979151687,-6.921746750474026,-0.6124471603257806,-5.418357946765141,-5.938130244251339,-5.799184421770644
106,1.9024281449875675,-2.110776095024889,-3.7901587887649,-0.874768528869271,-1.5585691662280656,-0.9412308801896778,-2.2477996155644613,-5.179456991079412,-6.617814629408069,-5.934040087538966,-4.101358923229325,-2.7712987297756126,-6.365221809339493,-3.5947551887259555
107,4.321060831025253,-1.2385242399475038,2.7004998625221623,1.8810824378554034,1.7697999659285963,2.0480572117381763,4.24743108070058,2.1810758046118757,1.7634933820095042,0.7686742936549021,-2.8635839024537924,4.513923629420125,-0.8003046239936443,4.625124982449883
108,2.3889920396633757,2.3496606793120853,8.884293782209832,2.1611964121275222,2.877513514593575,1.526197716527873,5.463434451633951,6.1465111273155895,7.236288194340961,5.2346496526040385,1.6238873869326198,7.562456361574105,4.146014709079423,6.955269778290997
109,-1.7319316617343956,2.6748952787502924,7.5538786712978885,-0.2900435925457851,0.7487511660966933,-0.7613273841569252,1.3015414598705597,3.5658911410291725,4.713147945451844,4.158265823035187,3.9825665202276874,2.497209616519892,4.241386450290779,-0.18105063763702425
110,-3.2976053861646064,-1.3514419021252209,-1.147574561643607,-2.2220153248332126,-1.5684698112705646,-1.283234273295842,-2.2400239522661667,-0.5710572803321831,-1.5548297467391972,0.7861959065312525,1.9164835525788688,-4.450308851021081,1.2815568501396257,-6.772986023667757
111,-1.7747567898537508,-4.57038525439701,-9.037611749699083,-1.543986554266605,-1.7352062639517736,-0.21095485645595222,-2.0351076130501657,-2.0176853749934676,-5.226957716747538,-1.899654978526733,-1.8070444179122342,-5.926612584780297,-1.3066514099778084,-4.584445408478231
112,-0.7089987555718327,-3.11126603357737,-8.862001342230176,0.35127287554683584,-0.6211800694087108,0.07486379580159015,-0.7533214650306932,-2.0817462708508923,-4.475119008973553,-3.9745627801075303,-3.5375193644465845,-2.6668148578647415,-2.681149475909498,1.2646285122630523
113,-1.396681592031211,0.8216415803175707,-1.9920809201444087,1.191379628912293,0.016512753481633998,-0.5348881599404033,-1.0632408345926214,-2.145218168755793,-0.9081030684905231,-4.670971542009917,-2.4290551040709394,-0.23811073070183805,-3.277621847490171,1.9702786405003225
114,-0.7873727213856743,3.1309220192219587,4.439936847978996,0.8511818860035791,0.1297500201091914,0.0012444922995339634,-1.3314302715241133,-0.3175467938471777,3.3652256876675946,-1.424807230382083,0.12931790962243603,0.0670210877532062,-2.1749466205200294,-0.8838256826804503
115,3.015508343097562,3.2296968748514985,6.12677782435637,0.6740025128729561,0.6670996906652525,1.9802042958162407,0.8458246687381129,3.314738194557335,5.778308427992797,4.990895126819446,2.6184857780384965,1.9568235123345215,1.5491165295568041,0.46102318977872203
116,6.290919308290529,2.4748043503472923,4.333654304182093,0.808306253298614,1.4343422854729724,2.6521394522510255,3.5550089140144507,4.020099501597126,3.8056754336121297,8.370262177397894,3.8088426012127488,6.051614979494838,5.541930191395894,5.516719864513419
117,3.8899254268935795,0.4026462165145677,1.4732772659140199,-0.020469262237875745,1.0975068940336155,-0.12760098839124162,2.6066720625734963,-0.6308531109269293,-1.8519573482098,3.787277866984957,2.607256557772242,6.65810802928345,5.261023427118229,5.5089463636107325
118,-2.999324866395584,-3.1779799565435582,-1.655971525205626,-1.85371424459473,-0.6340834315225382,-3.9950193949929202,-1.6987600528848676,-5.401036997165729,-6.13812990469343,-5.040340273315537,-0.6138648941276644,0.12267015946297008,-0.18582962982033205,-1.8647447913420268
119,-7.055908069297591,-4.809897229466987,-3.921981330341474,-2.4553869502395935,-2.0196172547797597,-4.024021442997655,-3.8312871966544213,-3.8400585200944017,-4.4443214070429065,-8.851179539138387,-3.268591742413699,-7.629784019240853,-5.506601399216887,-7.436471579505754
120,-4.106134879341035,-1.5656474160869485,-3.5194553251911045,-0.3773668046244844,-1.3547153401308112,0.679870172606929,-0.8615319480053819,2.3854567520781256,1.4671705080297928,-3.8721959687125254,-3.1855815596685355,-7.907858820115419,-5.252830937883992,-4.373516082887806
121,1.308508152380018,2.9294685601459207,-1.0442824033457894,2.2761382597011117,0.6285301631813492,4.764330285992533,2.672576810788969,5.486268126153918,4.730664494938015,3.542592072286692,-1.4783510785883318,-1.6076602112593592,-0.8845697388860019,1.3154936760693487
122,2.5885283525438902,2.7127113198271915,0.5781878274699791,2.3226587148624698,1.632889092756256,3.2941076129295674,1.3892186251255647,2.0745352294081876,1.749524232546077,5.266755333722324,-0.5849965884498877,2.5367225618440514,1.7800819309401341,0.9260970684598587
123,0.26965352138995047,-1.10503107620847,0.5463035096198916,-0.005225022377374976,0.8057077986047874,-1.4470660539258242,-2.4180021369826408,-2.8396097447270088,-2.8622740439289833,1.4183907106468234,-0.182783762675516,1.5423251118691925,1.1380649270014038,-2.6437802519349076
124,-0.05722027441491756,-1.8155233495419059,1.1290077894341768,-1.5306025389881655,-0.4719436497498623,-3.2755995330507623,-2.2348329607784483,-3.252916007424242,-2.4110724450629855,-1.5357393786473053,1.8628317443691744,1.2933215872205666,0.9660147793923738,-0.17267493999995712
125,2.7104322903670215,1.8763362205632363,2.9281921990187727,-0.8485825141808039,-0.8235728132007628,-0.8880500832760462,2.1447091996911287,0.11181307367879006,2.318381614026628,-0.6242331853868128,4.697830893114625,4.521675667794209,2.8510560162914067,7.4341828132819625
126,3.5926789221607134,3.5927305264269584,3.072599293499593,0.16906512705854593,-0.43048849115782295,1.1062215288990036,3.954259641039095,1.9242334855402976,4.076822709360858,0.7830060854378501,4.4121505586112795,5.32294829257279,3.1993015333036707,8.882144365859412
127,0.08238832427793404,-0.07186297051867352,0.12962335645606413,0.01684104118175357,0.026798369744992837,-0.010164624278343727,0.12273198309512706,0.09175099965058625,-0.04255321506371687,-0.036724130741905905,-0.10695225850370685,0.05713313900336134,-0.09561382606556486,-0.06266215617671685
