,AF3,F7,F3,FC5,T7,P7,O1,O2,P8,T8,FC6,F4,F8,AF4
0,-0.12333661488669527,-0.12972134890076167,-0.2067854550846471,-0.06839025123220192,-0.043503012741979014,0.06760651727336735,-0.024875843756964985,-0.05512672105599705,-0.12929198395179206,-0.09914890905295706,-0.06955696086332341,-0.16986572602725575,-0.052880381476944724,-0.11600329697107588
1,4.1402999089147325,4.450888456096147,-1.6286320722926972,0.3765070358736396,0.759722888580827,5.047628265200443,-2.4370543714156567,-3.77770383005872,-3.138779697789025,-3.447911129644549,-5.0848398781830255,3.7151818924773474,-2.602535838984402,-2.311721089947415
2,4.787415301220175,4.810611556883832,-1.5202331596882628,0.6564314803402364,0.6577747268078453,3.1134121625519415,-4.696469744928961,-3.9935358133840166,-5.526617747891613,-3.7840015799655946,-4.590864167541908,4.43871364377722,-2.8703225060427955,0.5952460096394215
3,2.4030409569759885,1.1070413224652884,0.5858772767368207,1.2041330139785333,-0.005541968647020093,-2.719585535307828,-4.123807675779703,-1.0489975950631756,-5.187331807665606,-0.7541984898080134,1.3510749041934778,3.107312965710361,0.8743545582089989,5.498691821382658
4,0.3734666841280629,-2.60678801292084,3.3723629800417516,1.7660446049260308,-0.09974917242041642,-4.652480161974403,0.7039989211639976,1.9635750362355953,-0.6413308983274886,3.0836664878313105,6.7429170468007555,2.5030327262051038,6.206789125626429,5.978772792765098
5,-0.11338898315729684,-3.1241037118729045,4.037843574758668,0.8585619795742876,0.5288786001349622,-1.3860520657459632,5.736699892627305,2.977474469178785,5.664565224711866,4.443556248775697,5.5809841717329896,1.831708517747732,6.372473493779419,1.4174933692234744
6,-1.2506484760236336,-1.242045560301686,0.7349334540800453,-1.7713649752722092,0.5845929435737103,1.8317952952388081,5.317508713050231,2.2233052306536285,8.491835594827656,2.2053016703840846,-1.4288485282975878,-1.9508550172558654,-1.5286272652986848,-3.68804604992829
7,-4.128046703574426,0.2447014331583005,-4.531927359705798,-3.5064868833672684,-0.6747636521679843,2.265109627741956,-0.21772845465225213,0.6762496246753421,5.089705262678641,-1.5459070079475086,-7.214477851734755,-7.641173328591978,-10.0641776631243,-6.459948301204487
8,-5.693726339388364,0.3392757358371658,-6.7864470233881855,-1.9643122243794071,-1.8363805835168123,2.0616674111465847,-4.628498585922679,-1.0099159320436442,-1.8547859980822228,-3.6250962061355785,-6.067483600708791,-9.010519090975896,-8.888552739055086,-6.770648297904874
9,-2.588057857427571,0.25214147946224114,-3.266351401167912,1.2689638843922686,-1.1036663175418477,1.9710006923223515,-3.809947180821969,-2.1853198988288565,-7.138413015327995,-2.9262592927310296,0.1925082898174285,-2.663868486020491,1.5835914271098313,-3.876104260708644
10,3.541922094234215,0.9350260207074591,3.1921024392135773,2.65010523543349,0.9206596155352882,-0.35686048433208506,-0.16566932961292227,-2.199144121048344,-7.768219075922832,-0.9583788519491764,4.995625462538598,6.5093347918141475,9.823702003785531,2.816406498295948
11,7.41555781017213,1.9072705797280747,7.1497916490891775,1.662884572230232,1.9342114388662393,-4.218682588120912,2.0847604899673158,-1.0638853049708255,-4.224420838885814,0.6183725152745948,4.788657091898061,10.575262152308065,7.723277551242849,9.815547681165608
12,6.098719533836668,2.0878678451588892,5.829274693921463,0.6820590375521862,1.1051600861388,-4.481290564608484,2.2819226929606753,0.44019260480424943,1.2633917983311829,1.6790579313892975,1.6928737041364614,7.061595178816236,-0.2846732421336595,10.705237522103495
13,1.0993315917075057,0.487044928644464,0.49837392684581344,0.29256995423969445,-0.2799267538017573,0.3961245545545366,1.788785442820203,1.4725178759090543,5.9212109105962725,2.396786693106181,-1.1404279668547141,-0.2782656983992052,-5.1302140742695475,3.0141369019364816
14,-4.474562904737927,-2.948854523118516,-5.33906451557977,-1.3282602690737424,-1.0880311257044006,4.488141025799128,0.38347803998151114,1.7041621391842368,7.047878851362497,1.9729259162559003,-3.1314658184476225,-6.600058730178891,-4.520282676989354,-7.784378214014647
15,-7.711482917947268,-5.665723214128712,-7.552567094478555,-3.662660637401263,-1.2636326695461875,2.800690067638594,-2.3019308206597677,1.2682071089517521,4.043091570709713,0.13662994023292166,-3.8859751787593773,-8.604741430521843,-2.155429303498389,-12.65758681272022
16,-5.853818552032061,-3.5022669728806206,-3.6607119072206373,-2.7996397918257068,-0.656716137009807,-1.177053808600691,-3.824176099013917,0.4765695271759615,-0.20994414508485465,-1.275547234890066,-1.4134156680791543,-4.702826131003101,-0.016140476235890128,-7.415585806287429
17,1.1689758023087726,3.7196973231417734,3.765703862384454,2.370039976327118,0.8758917222165322,-1.4085841309031182,-1.4821707690226749,-0.3402212807880229,-2.382976330899931,-0.528199512188252,3.7239195114623795,2.8471675309604314,2.581509318728956,3.3270674870257992
18,7.7575152003997205,9.098733322270755,7.74058230567059,6.371863605789098,2.0842444382686978,1.0865666486194703,2.7836650329276087,-0.9680038113103759,-3.0833780696718587,0.6525080680295974,5.849582165811602,7.355995758261924,4.212709342618009,10.307590234771103
19,6.822760670264051,5.497020555567634,4.025117544953741,3.4995339065169344,1.2011997336688707,0.7365263355231901,3.900699606670387,-1.389026270662853,-5.124338379854525,-1.1317732787731032,0.8480646069487854,4.078975383370656,1.8763451348088933,7.99780160439264
20,-1.0570516611360943,-4.4668060158178475,-3.335256745302064,-3.800725823747626,-1.3301666606245144,-2.64194310017875,0.6416610973860422,-1.5141531679463616,-7.126895586610264,-4.97756606900055,-6.352432341369294,-3.062192374161793,-3.105265573688933,-0.49338306754202416
21,-6.769681984807494,-10.005186844745863,-6.545150813636678,-7.237319800407236,-2.8349985011254826,-3.181344290950537,-2.3518304281329296,-0.9544597524727836,-3.512787614580052,-4.881778110513047,-6.634268623337734,-5.465028244778776,-4.857157920940499,-6.814721016796036
22,-3.954327257741272,-5.328117508489462,-3.2242370465431,-3.189251507060501,-1.7066340020194868,1.3226060636191186,-1.1823008756190294,0.3860675188942201,6.331764103053141,2.138919161669511,1.0133202953309317,-0.7213362547883966,-0.7589205691226701,-5.821011223955051
23,2.680545603880864,3.3538232646883563,2.089498068504147,3.1932515796994574,0.7707637749008194,5.051287909479376,1.6528794603295964,1.6374959325226641,13.314188894206563,9.700525351186554,7.559639680952437,4.759524205608242,4.306597861548197,-0.06002745931070343
24,4.45717425010068,6.775650364989296,4.70902698751544,5.325265289635122,2.4003565663066193,2.32742192735911,1.2048150902053263,1.7932484060851572,8.58227649878876,8.604062778622401,5.720104697490322,4.708509351740326,4.315937255010698,4.303576887534394
25,0.7057570541641134,4.084149486890657,4.153751796998078,2.8423829328352612,2.4104532527209703,-3.922873483168887,-2.2747589129630907,1.131654989533134,-3.8532834148659525,-0.8923145337579164,-1.2306833153791719,0.283347931067234,-0.07195964669720954,4.266879656544748
26,-1.9720913999183958,0.9622442231913862,1.78084590418861,-0.0824139676128825,1.2460649322250144,-5.852585144548459,-3.609711887032583,0.6424792611862643,-10.805667181922729,-8.566826804669786,-5.043588188808536,-3.282055592494265,-3.315962730913831,1.2886793879383267
27,-0.48400552874948477,-0.18039748123160027,-1.733568401276025,-1.1317646837274826,-0.5129856557640178,-0.9653077321174606,-0.35351298602980247,0.15488014581959011,-6.358629888736566,-7.069909949309804,-3.026367054526566,-3.643302660294444,-2.7677893463737027,-2.2102807464215677
28,1.0013750838508875,-2.1588794831461438,-5.205922252830144,-1.6242228154460716,-2.1596475039313527,5.168576034455726,3.7086434214365895,-1.3099011560946752,1.6505044322401565,-0.39750749500365046,0.4436182376840275,-2.4432138316623773,-0.9610795112989249,-4.7103252209349105
29,-1.3970230163885704,-5.973871823431634,-6.314257845412591,-2.9614330027268427,-2.8215538132192117,6.169294001523913,3.824982592132664,-3.134600115460113,3.4608918483170314,2.8727086422169132,0.810688195497959,-1.6376518141032774,-0.57423883771051,-4.727987368769349
30,-4.932091193309386,-7.314011039792278,-3.7962300253357792,-3.8081449723543384,-2.1361108583445962,1.6930298452303398,0.18061334732280582,-3.055759649226278,-0.3965998694825716,0.7425295880082935,-1.4448747413298841,-1.0671311007231927,-0.5907629073950199,-1.3063773966831174
31,-3.722600431347059,-2.0741170782758425,1.3220861026039539,-1.6440026064059363,-0.32265957987222565,-3.5409386971352093,-3.0447964602659523,-0.3433845888018921,-2.6884777331834973,-1.482105993713991,-2.1970365409926798,0.8859237927976017,1.3091478383774233,3.9902444758477658
32,3.3911256053761454,7.170039417076069,6.916314022273536,3.402349748214633,2.3216468234723537,-5.313122258345122,-2.753177830720098,2.7180818901517254,-0.42319650071018355,0.5400373557724466,1.183409462341119,4.9433842732987365,4.538833304621512,7.48508090428815
33,10.23310779111197,12.455687812353721,10.195764137427332,7.256693917061061,4.702674082232458,-3.4161342099165894,0.25881362817782483,3.6213406234719003,3.2614359580331467,4.876560223867757,6.194412687182424,8.670998561820605,5.563591033328027,6.384330486356737
34,8.975585233056796,8.265622978277076,7.682079461995484,5.581324676481903,4.179859200691758,-0.6058332815804851,2.5467701441187414,2.4375203999620796,5.250418268749293,6.2127521583144505,7.029358837153975,7.221069707019952,1.9171108455923493,0.8480702103018426
35,-1.0969523839958264,-2.605422822517255,-1.4557283245097465,-1.05728285593778,-0.7255804587650418,1.070732684889349,1.4308285404103345,0.7108097470894248,4.853467340239988,2.014272173177085,1.0104695540906359,-1.5254863766767057,-4.490401875819971,-5.978317009159512
36,-11.304602135059245,-11.468546648559585,-11.54034777172809,-6.940794234240143,-6.390949993933144,2.3981180488923473,-2.024794948995456,-0.9552782610468402,1.5042249291007288,-4.749643726715276,-7.376131997394527,-12.350547496797994,-8.532903849866935,-9.35296866700881
37,-12.176970940693058,-11.942984331686564,-14.015340116783328,-7.039617827792045,-6.451692691584909,4.6678343605597785,-3.5387309504095326,-2.678266240210862,-4.5537890140207224,-8.556773555203163,-10.565993818279134,-15.81585523367126,-6.695360944078482,-6.390293474011628
38,-3.952881364369368,-5.124581133719425,-6.718425530904096,-2.2485563496983207,-0.04710139723856891,5.940325245254083,-0.4277822866791405,-3.7130109005393583,-9.441970540801416,-6.6464895821068195,-5.826923535508464,-7.648142640480822,-0.5994935291085736,0.47996435332769655
39,4.628784689907021,3.239042006295871,3.7569728910574445,2.4545372404763683,5.8396119474126955,2.483537059964375,4.372412217616355,-2.8040252128351333,-8.183577375606438,-0.9865670842034999,2.5409945074530955,6.32175156780778,4.961808498912211,5.508059927349007
40,7.711398256260183,8.78041504941497,10.237989117432763,4.233416662212373,5.162612172631736,-5.0538026959293845,5.11421638224199,0.08863620778334183,-0.9935175244069018,4.583845965788656,8.422858254542236,15.789649005565538,7.140444208630363,6.154481223926848
41,7.467721607693845,10.285986737722325,11.414050824493076,4.343896387382679,0.393790205797557,-10.121650411575574,0.3690794428368882,3.3798431601645946,6.216845734295807,7.455927285407934,9.037031480833658,15.130620846455685,6.602308641568093,4.926010789537114
42,6.657717932098728,7.388512832746934,8.538700259791963,3.826119479619475,-2.3524067544323475,-7.486435683148325,-4.8885626845740795,4.977753669215208,8.449191715330695,6.488043797190007,5.049365271100296,6.150127312673228,4.193204513371828,3.753416755845822
43,2.6818120877774674,0.15365859046908537,1.3545347120095392,1.0321525537361713,-2.074492902555978,0.33457292821277407,-5.35892907461048,3.551110316990792,6.137519304146412,2.000917546199064,-1.3386230516996946,-5.4041159955960305,-0.8209363855069751,0.6844978284444405
44,-6.105128640951955,-8.355723572441287,-8.469421624542225,-4.214757963616213,-1.7850432547274786,6.540108860186628,-1.4897079464179785,-0.39742380867470795,2.451034367247233,-3.1724940091096787,-6.943050576566383,-13.412563490868827,-7.418140605656608,-5.256340709481892
45,-13.244001076162009,-12.290564667738153,-14.32812895249343,-7.4271252280891,-1.7077007069038235,7.810604362489098,2.2036245805146986,-4.240237146835566,-1.1020761026005341,-5.286405879634281,-8.458428879871319,-13.743779953340908,-10.732691232425712,-9.778494681410809
46,-10.477467890948136,-8.330862555513995,-10.810704852205888,-4.509136321577396,0.3335759903174574,5.638118562265036,3.1067332983124394,-5.089728472369261,-4.63814800561635,-3.975726534544627,-5.059892941802447,-6.88729160568807,-6.92710772608195,-7.905513218048191
47,0.532510030232552,0.37248096696196786,-0.8602331634408418,1.8778304303445836,3.155094192098014,1.970849737693309,2.3494974870190424,-2.6015213521827723,-7.158223659240331,-2.453029054932102,0.4235480334075979,2.0444852730329806,1.214356369275872,-0.7719246546628575
48,9.253884345502344,7.463899497816928,7.611723769538219,5.23107782177677,2.8971550300883315,-2.49719271957417,1.5892222275931551,0.9175864442485154,-6.322618258986775,-2.072620577452793,4.296702439529014,8.132254382321614,7.167637987118005,5.855346779712811
49,9.17359788166254,9.54440665924544,10.560767267363676,3.6270408765378934,-0.442903511192392,-6.253644961328554,0.7257545004089629,3.25689090635244,-1.6090123600401705,-0.16401271436891346,5.424500766819634,10.577513737243525,8.26525560294499,8.546862331900467
50,4.14763685566754,7.307616911084424,9.32967571443715,1.1462723184895962,-2.388063286165592,-6.899109229576878,-0.8335196107425709,3.8364252475139664,3.6518327125191483,4.423149378271686,4.843748111088099,10.284700764039098,6.650600269766239,7.999858938049752
51,0.6793763922713814,2.309299594262693,5.334712796473412,0.8671833913601703,-0.849806439952324,-4.052915864771837,-2.626773902975151,2.7132360798477584,5.39976396460627,7.459360583966386,3.0706067937618613,6.104423670619544,3.615717893092707,4.777390984180227
52,-0.8000968309343941,-3.97123800435807,-1.5794865682724168,0.6268350750520532,0.9021784054073217,-0.05323442746254267,-3.5455158438769,0.13842294925245563,3.969765189395037,4.852505238246381,-0.1394849784993622,-2.886031020797237,-1.8433067856983085,-1.7905306241537435
53,-3.4130091087270418,-8.408770886581646,-9.285560045711467,-2.3514091711066123,-0.11412774148512528,3.0856029997434344,-2.7307531275487777,-2.567483792954161,3.228432271137486,-0.9025577581887493,-3.737040104872097,-12.564227507532928,-8.16162728700815,-9.236466375792112
54,-6.3638105558571265,-7.605311227456121,-12.400771522400316,-5.7217104116531114,-1.8324047982825609,5.47921310780022,-0.01939433450773757,-3.6088638146536027,3.6823623278579825,-4.267371623895868,-5.517087132895787,-15.438116608396724,-10.198943238094996,-11.37851997010728
55,-5.504501752994448,-2.2268571481096795,-7.6448253633501855,-4.511583878387877,-0.7892967908017988,7.079530612756608,3.4273926093733,-2.643541701884602,0.8417689624579994,-4.4746654575099765,-4.763094372330457,-8.36821260884524,-5.63437230015395,-5.552732437948652
56,-0.7013779754680992,2.87496973993847,1.5177300590076144,1.3558208040663153,2.08984825655678,5.723948096450229,5.142163173075093,-0.7470955638615302,-6.441790436249777,-4.6811994444180485,-2.6830281324124794,3.4467490841179287,1.387931352648393,2.797940483624517
57,2.800725189332206,4.2463602987336415,7.818719717434771,5.781518590877124,2.7679488565970582,-0.07542745113493649,3.3086883720100304,1.3239126852696022,-10.914639312325436,-4.681845975632387,0.1214907758880971,11.395366355879322,5.6461968185435945,6.573128166696512
58,2.162614885611492,3.2597433258292314,7.7702697936943474,4.167409298986865,0.16454618572271937,-7.34348801894258,-1.0386244205666042,3.18501557189214,-5.970625593306795,-0.7274161748944634,4.049023256797516,11.445600865051732,6.727736489666531,5.667881219457221
59,1.5116219859007831,2.75648785672477,4.652604850137829,-0.5037496881726606,-2.312175110349133,-10.438245524287796,-4.505367779627984,3.6210914962752727,3.787063091624646,6.579652098931916,7.592509015210838,6.396039903779134,6.665762066351779,4.962684477829705
60,4.9249216010046535,2.6414186343160697,2.997429411095622,-2.043124014400359,-1.7122786843460034,-6.9133477791343285,-4.3204709109647395,1.5145244616598645,8.002616434067805,10.23345598734291,7.060603274312961,0.9830785347932152,4.711789852078472,5.331869861280834
61,8.197058559255035,0.7963408176616379,1.9938185701561015,0.3065798824078399,0.5769629914691059,0.2977331753831629,-0.8538975577164664,-1.9289375149451882,4.46493625389259,5.608277842018992,1.2179929236314293,-3.237397808370252,-1.1366390959158092,2.11895644800296
62,3.594919903558267,-2.9377849198400656,-2.433479883820881,1.4781532847935643,1.3076202140014268,6.404646596846135,2.61000767870335,-3.7975976735664165,0.2646747674676557,-2.925672203468299,-5.807200478811845,-6.976184321746166,-8.349805280686759,-6.300790455101673
63,-7.706901653853755,-5.685294841794944,-9.429625666074324,-1.3105688210850261,0.02056516392704054,8.500449843382139,2.8900600261916023,-2.71273616638577,0.1882283147033705,-7.478670538988497,-8.407813729506397,-9.03947751980925,-10.302359327224735,-13.15150698565674
64,-14.444458715767981,-4.557218811226406,-11.718848380217368,-4.262836019507773,-0.8492326100338108,6.29403955256818,0.27615084406393586,-0.0729855643102818,1.5180135984742524,-5.779789583560626,-5.2819531951685645,-6.524016258865016,-4.241156575184214,-10.294096481231966
65,-8.932462063772832,-0.04759154375231466,-4.630275084076432,-2.7799979057510162,0.04255660778272513,1.6556950791623806,-1.631114673211144,2.05137205882231,0.6914640678284487,-1.6892742626649024,0.1414639532955227,0.34135775416010994,4.212009151846631,1.1553715635653983
66,3.086812085968625,3.933702447265369,6.6623594299689115,1.6710214461988977,1.0558358152712035,-2.5111102934029548,-0.36094054741342085,2.7636371295105815,-1.742890235043542,1.0816490044001013,3.9826483446417065,6.693886645830329,7.323960074902813,11.127604378219052
67,9.861169875016904,3.7709515454761924,12.160455754940264,3.7663830559705125,0.29742183724022153,-4.769651243030748,1.9855884736570715,1.863720111407482,-4.088668518486368,2.1170595161826338,4.798521724534942,7.963580234436864,4.16439599028587,11.502287876064399
68,7.36839335264559,0.09185127219389445,7.870817542566411,1.7939003973089753,-1.3947424041791556,-5.9577143610306935,1.4702606959704483,-0.6185168070218089,-5.845755858368841,2.0876176023651083,2.8750014455979906,4.297635759233605,-0.06937949829826431,3.7456543021911552
69,1.6265541042045089,-2.535068074874429,-0.7582564187135872,-0.6854095913165036,-1.5893545633702442,-6.10895146391042,-1.9636370777654388,-3.3390034092765726,-5.617687276422766,1.075685743823703,-0.6689100030403401,-0.7661368596339379,-1.9454051444333507,-4.383733263713003
70,-0.6485083683826302,-0.628921958485018,-5.523243396028999,-0.47384781733965164,0.3537476917522569,-2.8402591690546353,-3.933865368013875,-3.5641656510221953,-1.219046894037003,-0.04649287760926307,-3.2036191754312893,-3.772644277027362,-2.193482138586008,-6.788461041471103
71,0.5061786938057501,3.69145856706545,-3.846688854841928,1.1888499961093724,2.454473649363434,4.190052515286587,-1.4489746545564437,-0.040103579767957406,6.214474193807508,0.5634110216760555,-1.742668564527416,-3.0362927916603724,-1.1638534015317348,-3.389436578897015
72,0.4894643552060975,4.62989805056024,-0.1937470799136614,1.2068735820190344,2.5282187965420286,9.549919063804548,2.937493355260631,4.445764948489351,11.31448007723384,2.6124333155114052,2.8342818367489504,0.34084737574079793,1.8241343919346003,0.9161080320361024
73,-2.8325838303258606,-0.08303500895762524,0.2550043286942082,-0.9126336092601298,0.33990759122221503,7.398261623095044,4.413482950998932,5.211156698631794,9.675131826368643,2.63345324732899,4.851970632588396,2.4962855760019087,4.082959128737695,1.4784520325169195
74,-6.231846366381701,-5.650963766111106,-2.046526189984965,-2.801880427726791,-2.541448573530585,-0.2677639137520863,1.8254924259417717,0.9960131025885941,2.4205061619088686,-1.269350444940853,0.4910461616520293,0.5219454537867155,1.1936573440406413,-0.6269078838010378
75,-5.481847952621746,-6.0735563520576825,-2.628886036173039,-2.5656224134364405,-3.98684794528695,-5.454160689243643,-1.7016165885613828,-4.1326816536339495,-5.586211135930236,-5.546413834710338,-6.139309813794142,-3.5128259904648114,-5.2549741951758095,-0.31365055482930976
76,-1.0053573975418164,-1.9832543810757086,0.038920201775606594,-0.8734906392691415,-2.567548239954822,-4.390492241302638,-3.195920332650044,-5.270536187031228,-10.582727937601494,-5.511442945613869,-7.517864398125003,-4.852235634619152,-7.806433423495007,2.88329951350415
77,3.067171050384797,1.1463659074486359,2.708459082404815,0.5435988721288889,1.1621908988312057,-1.25174377146542,-2.614101806129722,-2.2006908183698717,-11.479840815407721,-1.8534087022682304,-2.313220362956786,-2.072160501366985,-3.0837704580538965,2.761056200850174
78,4.796634348123002,1.735894127706399,2.8777460827050265,1.4593437946690375,4.4714816690723955,-0.6354243224785731,-1.1817477908971188,1.1528172904616398,-8.0151554933915,1.3021427890416737,3.8168203232183417,2.128330986013198,4.028436224922807,-3.025930225497775
79,5.701872045570003,3.419837090323627,2.014284841864868,2.8517045238304197,4.561166930116306,-1.1922611198330082,0.7382662195166346,2.259498448626276,-0.19452122133627267,3.1542268780018174,6.2796574937374094,5.245403877478683,7.699593834236951,-6.528817765797486
80,5.603145190499322,6.593732834079637,1.5247672931306537,4.050081144164122,1.2228247004868882,0.30840013543469225,2.8470983124165152,2.4102288846471183,9.615148010033549,5.618608680120539,5.458410285637484,6.290784289944817,6.904563477611934,-0.7725561158411445
81,1.3375489422112927,5.422603675835376,-0.16958600675074526,2.3800715328839135,-2.923322793621814,2.5256844356569004,3.5188006555896796,2.9607907146224983,15.906873937327244,6.96082800191678,2.7421338554026358,3.8388305566386824,2.7191210810992543,7.777918720574007
82,-6.432065562671089,-2.5632006992987715,-3.4555883523284736,-2.6374617238948748,-4.694654712498887,1.9009985371945652,1.385175216645295,2.2197797506146086,13.498850087957894,2.7853624835770225,-1.6903158465013366,-2.2914173023219786,-3.6807868485120845,7.387935251416121
83,-10.248384110509065,-9.713747570783154,-4.4814839441963725,-6.633589228926483,-2.868265204457888,-0.5331245874617325,-2.0032889972520915,-1.379800179745182,2.5168832719495717,-5.607221909297642,-5.846563542461953,-7.578372829298494,-8.481317922906632,-1.5618645913935978
84,-4.948101681978155,-7.506073252513666,-0.6605688645334541,-4.953282486820954,0.8025096152213018,-0.2409808766965764,-3.2988392718489075,-5.111776753684636,-10.396840514896482,-10.215548112645983,-5.865823960543825,-6.405913116895339,-6.887796853323077,-7.393298169102897
85,3.926920654979096,1.1179223866681818,3.875326226139615,0.948164680708233,2.999803683624424,2.889441640331376,-1.5466899351429277,-4.541784473122063,-16.581257728817675,-6.240903021618059,-1.3479013238451683,-0.03950976310367761,0.09665233897987265,-4.187429977511421
86,6.795262423115423,5.67400586470332,3.3044015642650986,4.873182074945344,2.097055916671095,3.3463324752078525,0.7183799649135842,0.21187528485412,-12.142596330366171,1.7679942648826017,3.005372657682165,4.048481188753963,5.371193683527047,1.494632595153839
87,2.6261435237454145,2.569968748868416,-1.3894829224671705,3.562477766248981,-0.10137933099242254,-1.4101029852280331,1.1772062858165302,4.100446857728641,-1.1943850452887508,6.169967756188141,3.184817387917558,2.2888017004858914,4.394907645002667,1.9100717107271559
88,-1.3009487676624516,-1.4297134446481146,-3.852268435024891,-0.0019388047175603051,-0.7810685893840617,-6.270635721484647,0.45033412213255614,3.4953387974436225,7.739275583564767,4.771322156298779,0.4793033052795862,-0.5442120143788516,0.24436153271963437,-1.5455795955481306
89,-0.6341265289012499,-0.24332856909362494,-1.2505639645285833,-1.382627623146353,0.22808414753328848,-5.617270647080523,0.0922651725930558,0.1830984154583517,9.32343481787103,0.8882083279021513,-1.2032322504898958,0.5689401841790498,-1.609785438627654,-2.0756174005952666
90,1.430126047286936,3.468820406299112,2.701767272297971,-0.05167426549426701,0.6878593951326274,-0.8917446789947929,-0.026544842203613667,-1.9065591006233027,5.589280130087999,-1.697567044671503,-0.16884416255500825,3.1447543032278453,-0.0703845511619986,2.6741726570595454
91,0.7756612081065407,3.5298292553315824,3.4668652454461144,1.1259320032901763,-0.44627286025063634,2.844208750063217,-0.5727515997810417,-1.5372098197943775,2.2060243155676593,-1.433156145099648,2.0927548384886783,1.779662941530523,1.8669851522607546,7.334428271343492
92,-1.8720221981529785,-0.8609176232353013,0.934739139968812,0.041656663202708805,-1.549398971619178,4.218057033597954,-0.6051391536887671,-0.19377401340438155,1.439358653342339,0.8510062556641942,2.9255832120367185,-2.709673603243409,1.6125574949806627,5.043905721372421
93,-3.227452124918463,-4.825971481672886,-1.65261041349408,-2.2749116795463293,-0.95691421299318,4.821400078119688,1.0407221832247673,0.8498390268515189,0.5914928535075824,2.336871149138606,0.8458010403723727,-4.206093191569618,-0.7156526498330336,-3.653941610328424
94,-1.918982465757114,-4.552607184560693,-1.9134343923491768,-3.014928676916344,0.5505117261642786,4.068051721244079,2.895090646131484,1.3829986222235853,-2.7438482767449157,0.5084977048399213,-2.782001811585721,-0.6400107258465598,-3.1673278007341374,-9.882060027886656
95,0.8600236409439178,-1.233047002794824,-0.5341964731058942,-0.8932176166169985,1.023602233403905,0.11775930250648362,1.9566550493795911,1.057199971452293,-6.647290936071928,-3.4263778129950166,-4.488959446935147,2.9250192534196877,-3.6458241218562057,-6.462491679772282
96,3.032394186197997,1.6285859436895291,0.18930709869169726,2.1248001606126277,0.09386441024450298,-5.196919846835917,-1.9481727274087755,-0.5693814049360195,-7.571184779163798,-5.1253228101554535,-2.4996940708505964,1.8280075269248786,-1.3904647273453745,2.8630483739201438
97,2.842261250200771,2.4039799466563734,-0.6011710189400635,2.959740325371037,-0.8472425770346771,-7.142530892821052,-5.109823826878945,-2.6725260655712426,-4.857161778493288,-2.4928587532654527,0.734103755511066,-2.011162261380831,1.9862904661211294,7.753700773968035
98,0.05355723683271449,1.917577818229283,-1.3989133489047014,1.1657247350383846,-0.6006566200117947,-4.005974845899555,-4.218805612169813,-3.2453666065678664,-0.3080639205124819,1.5553700876684162,1.6216433855917813,-3.688246796670979,3.4049320484268284,3.8031310833235388
99,-2.940148972574728,1.4274722344385133,-0.5730789322194375,-0.655369569473017,0.8406388618928123,1.0511813336036646,0.008296526347926245,-1.0626378653928632,4.966675849715531,3.482530074354147,0.5706918591941808,-1.5258457409570994,1.6942437063337972,-3.0403217792141453
100,-2.7815578069039124,1.1993676555626775,1.4863173331419497,-0.5151752201301806,2.4507126646126074,4.234828606807268,4.27778606870869,2.8203541661241847,10.099495389195129,3.7919712437240554,1.2477262780952452,2.594006175566196,-0.4262478146533603,-4.582163525259408
101,0.6237560768421905,0.4671027048595034,3.0143543308892666,0.3609232323689781,2.3096779866438197,4.544438155879591,5.867451325865414,5.506059581736413,11.73593484611509,4.287055424734359,4.093576574426482,5.800486163462974,0.06982340987027184,0.1571845929383044
102,3.173459495650544,-1.4136286326743277,2.722655350293198,-0.28650918211222837,-0.8434820624678102,2.9052005273219383,3.708228828010359,4.281223549845784,5.895661281575525,3.168321079951141,4.2275205908890925,5.120403585847339,1.5128158335839377,4.732466721800508
103,1.8198006601747256,-3.2613626773697475,0.5540629029642533,-2.0427675833120724,-4.737788919239906,0.49434925322035955,-1.1270976114733091,-0.7803633067327674,-5.931565084370957,-2.1234621024409037,-1.2509194052245494,-0.515812067596051,-0.11766718519855164,3.465141133555261
104,-1.1163398041251478,-2.646432828680832,-2.3714599987635774,-2.1471615194898916,-4.619812524068248,-1.5394311621750008,-5.094532896504793,-5.837698063386194,-15.334997816970041,-8.159343693469243,-7.038401955681204,-6.9939860565129734,-3.7570629005983402,-1.7322129044587193
105,-1.69602423982212,0.4363211587753992,-4.098843786263372,0.38532908725813547,0.44233111942348774,-2.5636097211974866,-4.926215253224048,-6.264156906687272,-14.275905054562573,-7.793986348297504,-5.827717598902228,-7.6236748770993,-3.6350175666891476,-4.354843888840451
106,-0.41343992001906393,2.4251100017550855,-3.1017350334476044,2.833337961302439,4.980520993129483,-2.921794818241329,-1.4813744709584316,-1.6040569690467934,-3.408973151122629,-0.4129787750721744,0.8366510962074937,-1.416253763833363,1.2264693734090955,-2.317834935985848
107,-0.45260277172486724,1.1506997663803284,0.17352566136080758,2.221641503378924,4.0911922058937344,-2.6346220583138087,1.5545406071578591,3.563918034567842,8.311824250733018,5.9193735865571275,4.27277692854459,4.926285268888096,4.1972651962781296,0.009609878167045866
108,-1.4513310009022777,-0.5040827573764806,3.3471129606130257,-0.5389874753859533,0.19257799259640285,-0.5552289571086528,2.631727017433047,4.739935699317674,12.362190765694528,5.169141559733453,1.420399018240566,5.497442286183084,1.14867709664227,-0.3566914656424608
109,-0.2117576613723528,0.5979267579844856,3.8902586059680972,-1.9051939457800462,-1.3584681192411818,3.1791745696282434,2.85758148849217,2.2721298444065723,8.119340571470207,0.9151225250059223,-1.2954176059886264,1.8202363985656327,-2.871681026888775,-0.485148741635334
110,2.736044059248239,2.0941110676167107,1.1703630279743376,-0.6018362303062874,-0.6579182391530903,5.156990312683138,2.2035947577664876,-0.26255334600749064,1.4633773874759342,-0.40981975922318203,0.863723575944283,-1.2909576609660711,-1.9035265009848537,2.2183639407571807
111,2.9512185788954786,0.03875612658060576,-2.555135606691659,0.9409626436564971,-1.6324796638521006,2.2581860411854455,-0.5003612505054481,-1.088317509676821,-2.7462836023541937,0.9437487688376176,3.396440100059186,-2.2980042984473457,1.6974977912884892,4.517641135836467
112,-0.5384659832810667,-3.532076839134618,-3.5323102233071184,0.3826277366204887,-3.7651643714413505,-3.22116167281682,-3.6260365987756384,-1.4074487954620145,-4.714422992754337,0.3908272730118486,1.0477907292554278,-2.121940731300095,2.2869282438779734,2.6280641145351993
113,-3.026985774458024,-2.9168881336662427,-0.42260872723290627,-1.2636995489366116,-2.2818299475407784,-5.238876358079722,-3.345254589535844,-2.010717832413711,-6.060919228607337,-2.3693747323985144,-2.7408409377358343,-0.5280438231209241,0.4340354654877149,-1.2469620990778787
114,-1.3493498188990887,1.9639623197859553,3.3050346273754245,-1.2699119669699608,3.05381410980862,-1.4309975980973846,0.6166262175704941,-1.5187373154192219,-5.411976594241355,-3.157732771492805,-1.9547222673188078,2.364182473921643,0.3991495374619329,-2.700753701296811
115,1.3904866862924543,4.60667953510529,3.0088828906507,0.9019992479274769,5.961277615167163,3.655998642465072,3.6412590878475517,0.8076445842045189,-0.8605364163749567,-0.7964290617429297,1.234102389798664,3.452627783882528,1.4089282018487665,-2.127039069115949
116,1.1773954631659462,1.3060478486617784,-0.9671682246748332,2.6177576247090655,2.620241880701574,4.085475076701318,2.2983033342598387,2.707021888162629,4.836577021383644,0.9360731125244924,0.3039406514681095,0.2110570414227962,-0.8161147414382587,-2.555353849058545
117,-0.7314689551672914,-3.5724729621812674,-3.525593686633239,1.3074784644319635,-2.7004316461176794,-0.25699272217325214,-1.2456483817511703,1.6473103582493889,6.082414242123013,-0.1986867751765354,-3.7800186863469944,-4.302940606899668,-5.11517109690012,-2.92103134573344
118,-0.7047808424000952,-3.9589663352870437,-1.8996376906058707,-1.9115070563860477,-3.9721297413195007,-3.7907615498815312,-2.7103075743051916,-1.2388481871961112,1.9836176157746142,-1.2221165968369345,-3.7289867218532855,-4.483597106406694,-5.192618917987149,0.3285779572314326
119,0.9107287586989488,-0.052127825659197144,0.8248721029864733,-3.118036496827579,-1.3314901216200263,-2.341882816405979,-1.2237360054878865,-2.4363737261813188,-2.052738333720395,0.8904228139160337,1.7018330242221584,0.05202704133680702,0.44226050075230383,5.530258747536302
120,0.7875397665268109,3.0373285122264035,1.063712686824404,-0.6400765862258114,0.784715129720308,1.7533154067635899,0.7277048631079176,-0.7606275484696082,-1.7687637305333108,3.9437641834398622,5.571291145014299,3.943876430141868,5.691875020522376,6.1216764671757735
121,-1.222551827476408,2.4862514021952595,0.17371018679423308,2.3950763830905486,0.638817786287404,2.946023782408906,1.3282885232369621,1.554207846060513,0.6610480195025525,3.6767150128488257,4.01352331937653,3.6243333278401755,5.758979924361705,0.27285377645728376
122,-1.662520717892885,0.2836005256475046,1.1804227299360333,2.208850235894358,0.3008199169629387,-0.1389980955092972,1.0332141619723547,2.1841905809841347,0.9681350081672332,0.00514774139972822,0.9998554927114112,1.127853651262759,2.664520740195071,-5.386236626593723
123,0.47449715290475314,-0.8993090662953173,2.6580639568883777,-0.4400817412675401,0.8745478841788135,-2.9796806342977136,0.5626092089803109,0.9460120433567185,-0.9706789582267344,-3.2118319110990483,-0.3043095803285719,-0.5931581087859562,-0.30212276414125355,-4.679098543503402
124,1.8847225245623185,-1.0737431512984847,0.7060472185084758,-1.743462351188832,0.7653767829806994,-1.4214177363012632,-0.3418969835307798,-1.0441332582834502,-2.130486377789934,-3.5011975127686097,-2.373215751217918,-1.7350628105677557,-3.3939242728797554,0.1749960750207588
125,0.6334168981456124,-1.2242948018177158,-3.679544426407047,-0.5280043426228762,-0.654780859386916,2.573045676484696,-1.4776231137801508,-2.4169830070246867,-1.2721985571472216,-1.9210141622197232,-5.92300577677246,-2.937122432280977,-6.370310474555194,3.1271740779170245
126,-0.7072775579569666,-0.97192423254872,-4.5792379947246395,0.6536821962401913,-1.2633073655151261,3.550823184004816,-1.4680666548592765,-1.9741922037354833,0.09031526159123399,-0.4354962182405807,-5.83714975131744,-2.558306987543115,-5.598348470837604,2.4157317243943224
127,0.033354907176030395,0.19505555178790174,0.10532357337061844,0.1124846625114898,0.1928123314811381,-0.013000907381315562,0.17484533663577428,0.21426647312379654,0.6810921695420876,0.3875440011820181,0.29062782124064973,0.2860767205925322,0.20758826507181977,0.09325174466693403
