,AF3,F7,F3,FC5,T7,P7,O1,O2,P8,T8,FC6,F4,F8,AF4
0,0.1186556778632396,0.09839451135017757,0.08962416758230678,0.06198461035325995,0.013053996744578755,-0.16915625175159663,-0.04644301767361822,-0.14333652528090385,-0.37629147260255846,-0.024164193738946422,0.0790695002673055,0.06677746725197234,0.13065269510056945,0.1254184742890861
1,-3.343508601867076,-5.58775358599608,-1.977599256768732,-7.761423840597988,-2.895829640649909,-0.5935085000334969,-0.929877324748257,-0.4518703343992833,1.9807454942164353,-2.300491835266707,-7.157249503498097,-5.405622986294946,1.2613230372447517,3.5601570444818518
2,-2.9686935869067295,-5.615359452590437,-1.530863654887001,-6.916686537245178,-2.3878015245445274,-1.9073420174334346,-1.2730798456042607,0.9789888900954229,2.3593312907871775,-2.6666964215712845,-5.482563771669128,-5.8612163113172615,1.0148915524038506,5.284856035494784
3,0.46902966120835915,-0.2065829003615894,1.1320828628006647,1.0476873300626988,0.3938609893057448,-2.640334463561272,-0.20712670204979855,3.129693588070573,0.5831376137157538,-0.30605547051970344,1.9093026328080538,-1.7913744790413342,0.241669125440036,3.784006551122928
4,2.81893120399811,4.792494352490991,3.0594107180921295,6.6733488622251125,1.8372016056263534,-1.1310771673327424,1.6681237701470357,3.134479655057646,-1.3706934658359715,2.8890675457468094,5.001719037234852,2.2934409147774835,0.2802876791407957,-0.30293699540718155
5,1.7656093940052946,4.352142989482793,1.9233335834841891,4.31195881666285,0.9845990052104103,1.4353823694424528,1.8008409597893251,0.029194541651132364,-1.3423220947643424,3.2473561555743427,1.2075752663799755,3.4321478326451893,0.5027160495958902,-3.5650371584188494
6,-0.9154908407834873,-0.3182677805433629,-1.2631817341609648,-1.8435979420895954,-0.032584899824386865,2.585016034909889,-0.6987349205928767,-3.3130505325220327,0.7454955100650136,-0.22046425846384968,-2.518435353657073,2.2649514181420156,-0.5162097469513129,-3.412376978658046
7,-2.2676980721374322,-3.8254796627816083,-3.3571628465212715,-4.456327315013938,0.02759485588724126,2.006811261738503,-2.5638627030693057,-3.2843122362700976,2.6982823718253246,-3.6252311271100908,-1.244739011559685,0.5859923218559191,-2.2306828582655127,-1.4971496476722583
8,-1.4487700062932072,-3.0989112079834387,-2.6218236281304286,-2.0984284366091024,-0.024226597055409853,1.1713981598557415,-0.5985634423154936,-0.2666466025437688,2.16564054001774,-2.6844472517918687,1.559351594097472,-0.6936984201582754,-2.3604641439571603,-0.990085735237083
9,0.4838944122233434,0.1625006365063981,-0.12747605522255626,1.2176899814873763,-0.9724514170580218,0.3672751765732159,2.759028823785508,1.5268539179308904,-1.2016993263235451,1.430810761026643,1.3063320458796057,-1.2391633318803577,0.05150121755306622,-1.2913788552063825
10,2.2015858577089644,2.795612704953679,1.9824965420186498,2.5257851690245623,-1.423132718977515,-1.3871244112899326,2.1655832405541324,-0.37507746104993434,-5.39098501967306,3.2713611350969973,-0.5963385503624188,-1.0216112964687276,2.934280856438141,0.7529478270000244
11,2.47299466553011,3.1922669941906925,2.4955450453575585,1.9764984307433326,-0.17422817151592165,-3.5927228584228534,-2.3981442355857703,-2.9688650754274533,-7.0995449101351005,0.28345125709009755,-0.8324984723971306,-0.6792709783806484,3.2346851492694633,4.512239283483882
12,0.7274886700946841,1.2826457106875762,1.6435865996372188,0.325159874206414,1.5669490305435998,-3.79814729548853,-4.63547037356925,-1.443982919573886,-3.5401489839013207,-3.507459285326405,-0.15060699785694712,-0.673210113870759,0.5877573263147673,5.312987553712265
13,-1.6118201177758413,-1.6102300891987187,0.5419851845961544,-1.60686384107719,1.889864803518945,-0.7484467372775256,-0.6686767433693616,4.1089405079002255,4.940467637578245,-2.3787453764139497,-0.5557916774926732,-0.16949011378876067,-1.9174919296255637,1.598750753121524
14,-2.2449390606985324,-2.9624210695546394,-0.12407213714684157,-2.065103795618153,0.6634022182766811,3.408882333778678,5.058025336169954,7.8911216153600945,12.971343176161115,3.4531837735776127,-0.6409282278864578,1.5255228618601973,-1.54988598170434,-2.640879940110311
15,-1.2949796755713603,-1.750781631242209,-1.091087633610386,-0.4989071808511424,-0.9837587228859022,5.174582456481237,5.349906678670785,4.892115599048182,12.776014119417649,6.935565168543691,1.2274746244966517,2.6929421845155344,0.23303922764941687,-4.226169384455368
16,-1.0332111442685348,-0.3457782842375261,-3.0949291038233824,0.5799920658240948,-2.1406020556725442,3.350383987470472,-0.42129507968105756,-3.2202212484731865,1.7873816707805688,2.2429114857310735,2.2985423557292246,0.8366705796923758,-0.213793904324402,-4.370902649758587
17,-1.5481946659967183,-0.8064193705618073,-4.374784054857056,-0.714568178147243,-1.9720502386123873,-0.2557965137340428,-5.620817757536813,-9.54122210980223,-12.246079606846505,-6.842729408024154,-0.49825683716322505,-3.0166714365245095,-2.868592277065728,-3.9269370075767953
18,-0.04941492953181006,-0.7563933043111548,-1.915899743632339,-1.6549279300502895,0.0216938693526249,-3.2635625959236125,-4.679818693944505,-8.654732975843562,-17.20163147827834,-9.686224519916667,-4.037392933813233,-4.3605820499015095,-3.106659522626371,-0.7534689884431147
19,3.9683040819601993,2.7946149332205947,3.7713935108928625,1.1854890641127915,2.4375820511345996,-4.523501170258081,0.5033622175501651,-1.5712596046686114,-9.462326001257583,-1.9460231057442623,-2.469724299840018,-0.8698119475124689,1.6742683672470295,5.0303346009273096
20,6.315072293686163,6.740814135979888,7.598954236891625,5.220579910762031,2.687030592829634,-3.6195908682209796,3.814872559464631,5.569608608717508,2.142981536012861,7.466859574527861,3.3835512615810748,4.113647657258017,7.058714178309786,8.295650007382957
21,3.3204256745953495,4.670378011686384,5.477531243443058,4.273883987499827,0.43979244397464284,-0.5646794582037964,2.7231182617024636,7.475300514514921,7.788142831128728,7.38900397963802,5.992543320582368,5.398463870959106,6.433016618925833,5.309028629480519
22,-2.9696568104735754,-3.2374895918298665,-0.865097397688937,-2.0366680345431236,-1.690427634947328,3.0375682271201008,0.14066337864020495,4.409417770435402,8.132160554108705,-0.29575519444007625,1.62457617796035,1.836657801512671,-0.3663185373733026,-0.925140462882661
23,-7.142573665172493,-8.855805169740998,-6.175941613143644,-6.662225815622706,-1.8382396521740547,4.320100416333323,-0.8503764692702155,0.7251413825388192,9.355301740221373,-3.8429522453294793,-4.29932471713425,-2.996454585103383,-6.716408890447233,-5.171029241186391
24,-6.309414098399687,-6.517880222869029,-6.996828686123342,-4.615789313477918,-0.959148397024144,2.373660078866895,-0.6987834505839802,-0.864115299736545,10.298602191294709,0.5121265817006562,-4.945581685503266,-4.991264317705558,-7.390426774777598,-6.2873369441715585
25,-1.8744731845765081,0.18932985879202138,-3.514307535983295,0.637849862189126,-0.26934198140967347,-0.053576065016595974,-0.9324157317356591,-1.8675116806855623,3.3514099437142257,3.4333119420231766,-1.0455573532180604,-3.2026355525769636,-3.557201138698537,-5.60660643034689
26,2.970092234683217,4.4896951861665375,1.619501087002625,3.034564075301044,0.7007853101591544,-0.055621329823240154,-1.0662088986177847,-4.087392231020115,-11.112503337723806,-1.856831500317456,1.5871221185429416,0.057217723593976755,0.9567277653334625,-2.63531081054666
27,5.5718554047048166,4.688853611184776,4.76911831049384,2.0411730359475113,1.9852428347841233,1.035477934534133,0.00809747139799745,-5.389708263142429,-20.19296572181408,-8.141221124076823,0.8516675576654587,1.9734041919448788,4.429744886589363,2.9813788975336073
28,4.7740980189846125,3.210303727475218,3.817888754581552,1.203185904146141,1.751843416015683,-0.7131227654529727,1.3782839297959277,-2.4060605004753373,-13.470529620696222,-5.0749896429976005,0.198415709750435,2.0409185656494118,6.299190656808267,7.632533316949644
29,1.684057206037913,1.3875282337956618,0.8448060251548738,1.6222795330106357,-0.7363535942960815,-5.530956962070758,1.1419907465894832,3.3617776238996497,3.0469644788373658,4.985499967965055,2.188565811410681,2.01520763204691,5.14687789315177,7.055741731377799
30,-0.8352741484198343,-0.7714243963383888,0.16825563385271164,1.2963159267966848,-2.766867494740922,-7.949026870235933,-0.5480434755545576,6.019506144764364,13.86721190564709,10.178182887557481,4.22296920998709,2.8767232446194555,0.9259967620761068,2.494662886155357
31,-1.2148444858714258,-2.259015658750156,2.156149806684751,-0.4795341222154529,-1.5113166848650303,-3.096497115102921,-1.4537280327505075,2.8573064198445652,11.733424290141407,5.112083539231754,2.2413574357576165,2.7156099398582136,-3.326008071001251,-1.2849686274680894
32,-1.3834652093920967,-2.280761067232884,1.807967688527897,-2.1052753402040154,1.5720533752508947,6.306590685757065,-0.45687603693490214,-1.8937952170084895,2.9960177090204754,-3.8056575936400745,-3.332625652000023,-0.8997623977216955,-5.141229277407645,-3.3736121838464177
33,-3.728180554993535,-2.1035259634886265,-3.793335546894805,-2.673797186889261,2.520727666512327,11.7838155466518,0.8594724149054834,-2.7549853269175375,-2.616942932280297,-7.966968034518078,-7.283364901232782,-6.383611397007996,-5.466800698814506,-6.36290889322008
34,-6.116519663646129,-2.647041388014767,-9.328768568798134,-2.6406751511010933,0.40265687041769266,8.174702107514447,0.6836205473326182,0.1954002801628558,-2.0207140908209804,-5.116449295894168,-5.209526546167683,-7.982624046130576,-4.855736214567161,-8.59146638538094
35,-3.4898331218222336,-1.9159465442844599,-6.9269546916653,-1.5982855707457304,-1.7770974689426235,-0.9950369154343367,-0.2811739531873875,2.4773656355886216,1.025324011741695,1.4433041286792962,1.3932425624595597,-2.206217820317208,-0.6353833912229845,-4.240608114350093
36,4.26787166216774,1.937490746699385,2.9112549608044938,1.410466464602186,-1.6125305434794743,-7.885832469052937,-0.035339268632125505,1.2700638801920732,1.160670233518153,6.446798525757925,6.373328153430528,6.4033747618366545,7.242704327460621,6.089218334067975
37,9.832130084685039,6.182292149276119,10.696636319520334,4.843710429588583,-0.018948070063524856,-8.362017230232544,1.4213025661848733,-1.9888581830666545,-3.5840740397693303,5.307646952936687,5.49146321055975,9.074570571405584,11.30499781627483,12.344722674814086
38,6.877736200496817,5.730357274047561,9.07709324869415,4.926894882643076,0.9907663861314117,-4.36563870628865,1.775601436844039,-3.9844787059814157,-9.103681921878914,-1.5783806629581971,0.8032362002235447,3.2556518205034255,4.821023452373664,7.637413699783844
39,-1.5965118715396684,-0.042585213295113916,0.8109018204061325,0.47676705661907204,0.8771208414559984,0.07748967098456572,-0.42650558721091203,-2.7498296617104097,-8.113969466624255,-7.056370906229015,-2.527005527196665,-3.9889847057661543,-6.683775829052146,-2.1461674379615068
40,-6.887365276951161,-5.5676162319438305,-5.803544065237935,-4.47366282949606,0.2293983386057707,2.753249282291535,-3.5381669799195308,0.8087511187724713,1.2756638582093787,-4.600322705699567,-2.4560173929385316,-5.044292348503654,-10.288682563718579,-6.926649980333792
41,-4.932657046001258,-5.27479219929558,-6.174914573464291,-4.759260896641949,-0.2953325121329501,3.5204793997308417,-4.31100858913485,3.574084244773193,11.033630850501106,2.9444269868327,-1.0261455622724995,-0.876123294360705,-2.6732696569457994,-5.100043443142374
42,0.2585557185152427,0.028762752470984934,-2.204222285563241,-0.19776485786684084,-0.14518242535101963,3.1219305269786886,-1.3281398156456719,3.099215614537043,11.063410285221995,6.869293692109388,-0.31827897692144025,2.050782912367122,5.529534772827559,-1.7037454213760272
43,2.606470170611127,4.112193850493769,1.3871418147341448,3.8548145807543293,0.526082051182242,2.461212176472673,3.219503282820831,0.34064414305117957,1.3438496090685146,3.8704520180084705,-0.34004391221262814,0.9111197338861045,4.708994196015845,0.6412761700313678
44,0.4394912534377309,2.2785055330437713,1.3697359040288055,2.509942387157589,0.39486593771137635,1.8025191611194389,5.437983198188945,-1.3391250048623788,-7.334476071365512,-1.4147952280809435,-0.4369825219634468,-1.6208381323014982,-1.7238856872312214,2.108891813477198
45,-2.912028701273528,-3.2874915883384164,-1.400046247110154,-2.7346940968207956,-1.229511218619671,0.423508238891679,3.7371782123150563,-0.23832419417171505,-5.720181077723717,-4.178273464011862,-0.21074881820890945,-2.5610162738571214,-4.574864666362095,1.4360305507092241
46,-3.0005003625533035,-5.653629986193358,-2.413135469964387,-5.255865635070714,-2.4233238364213014,-2.023557719024927,0.2812173456155857,1.5222425460381026,3.006550875363545,-4.2354528342830955,0.6240627876474878,-1.3653396224244845,-1.9088493168121015,-1.6048542124319327
47,1.3422223776683722,-0.959049146874406,1.3389756001147795,-1.1298096727132187,-0.7350824446061625,-4.1140588455802725,-2.1947881137057736,0.5683787934233717,6.67430702125857,-2.99201390907267,1.5153004873044305,1.3150219091943,1.3204198521373793,-2.7148568392433132
48,6.392188693127756,6.560320592141419,6.260185318175088,5.489349467255245,2.677708634608473,-3.9034313936109792,-3.528410252653555,-3.237642176751212,-1.1555808607054956,-0.4105444292482385,1.1912678081980532,3.927834848142137,2.6392867871995853,1.4027150280094827
49,6.6972413546670575,8.69137948356502,5.614599256004698,6.826998849019084,3.633891677233941,-1.5156529352056594,-4.442669758060709,-5.6808424740737875,-11.847638511284005,3.47934257402576,-0.15162795515615443,3.962208266434814,3.7717407532181553,6.453590821862599
50,0.9331001278157373,2.5139380936125484,-1.092092864720221,1.0877948222359288,0.5456293836925998,0.8267732191317764,-3.5588139953837112,-2.606702579993863,-10.809909648015731,6.527006154398857,-0.5239077446510235,0.7331604118759864,4.346026404084689,5.514713124218715
51,-5.927323676433587,-5.997099107517661,-6.479541230033709,-5.116697469282292,-2.97554051021311,1.620723882623361,0.6714193621334573,4.427718160233357,3.659372623170642,5.64823206044303,0.6342720845575379,-2.6859997389982895,1.111967719261042,-1.1396110411531035
52,-7.639676808128109,-8.66839590458832,-5.024813209886777,-5.126378252375775,-2.806660020327564,1.6742462730506935,5.709856504700112,8.52505124213575,16.182599486465065,0.14074451785244038,1.0500870688921675,-3.117845611880968,-5.288586046903921,-6.640221614807979
53,-3.4700812215056773,-4.083385516896446,-0.12966157547631713,-0.42354499777270777,0.25882185486216175,2.2905712922280563,6.34598109724382,4.8949941370115395,12.668090120191355,-6.431248806505604,-0.9355704788206812,-1.653219339313438,-8.605116448689781,-6.739927583580548
54,1.6457355243539582,2.0536625628386416,1.745581697837273,2.231868612611141,2.044481468593267,3.0845682687815215,1.351306313472808,-3.1453976327426947,-2.1472764603842838,-8.584781254001486,-3.4552323962022773,-1.293494986713716,-4.818047420701473,-3.303435307120721
55,3.4074637051997243,4.4990196193894825,0.2685405239728062,0.2865142909247861,0.8282005216623725,2.5878433498226707,-4.136775227856914,-7.658708483184775,-11.663072409639659,-4.260838248602461,-3.3664377211993304,-1.5952855565434942,2.2717545124739162,0.6533330378030837
56,2.449132574018091,3.3774667836686194,0.07206672439660688,-1.8440113613634426,-1.0098474443331982,0.1694366564824829,-4.557471824299969,-5.077067172945442,-8.468629662773175,2.6709275624151365,-0.11474388860183496,0.33463828492641684,6.209663624447568,4.20671380446708
57,1.8173476566718396,1.3965288962605467,2.6126937965635926,0.059483607412276054,-1.0065367692097575,-3.3307111492311434,-0.3344270796804094,0.7445703405057943,-0.49089072246278376,6.466644244818677,3.865048845290794,4.063617726125113,5.572249548762687,6.429094115999747
58,2.2285904075904095,-0.26346649444106074,4.142767234441066,3.775666412790663,0.28500967968107155,-5.916487363893982,3.341964193674116,4.361303593564861,2.9882943010524157,5.408847904010386,5.526047278821667,5.384999399629015,3.288005223643602,5.530376091534807
59,1.5863248930583502,-1.5250384231133918,1.7045028131345414,4.001721983513748,0.9760274074607973,-5.220357387659602,2.676464076148418,4.3011919429467005,2.4992339412744404,2.157008860754956,3.3200323593577017,2.2119446768444577,0.8253641539280869,1.3873380828658197
60,-1.340514763884853,-1.6371052419271717,-2.7175567639432203,-0.13091673328071168,0.6616531923396545,-0.7527917169294739,-1.4222208691476543,1.8306079742670494,2.619580768571456,-0.7434749407190087,-1.6462048234304698,-2.6388224660529387,-2.6801683666452654,-3.737705176823366
61,-4.519608025442554,-0.36875544531615795,-5.0319256551658516,-4.0604015164897875,0.21245482394680415,4.2889995111039605,-4.995032671808307,-1.918794734953275,2.6903585553742495,-3.054703356137146,-5.75478476519485,-5.296830453817782,-6.303360699659874,-7.305737073629641
62,-4.812114621610271,0.5599140061131369,-3.6496458522730304,-3.9441328939703366,-0.11001959582955953,5.6558802541521676,-4.460993728279851,-4.923298565097561,-0.3385877025005706,-4.643993880410924,-5.531257566733542,-4.546461929301244,-6.5700175448014315,-7.328418249727005
63,-1.7086631692249439,-0.34353489276372334,-0.20169462223931167,-0.9299036024695407,-0.737962538478632,3.0227594108702602,0.510247241844245,-3.785279432076938,-3.9779366504023463,-3.9795616598555585,-1.1364117983218038,-1.2622521056869145,-1.931394203359142,-2.443628234773072
64,2.285421233862159,-1.6274628622232539,2.823748892684796,1.4736069871748545,-1.3367956503633858,0.028882829399920915,6.058758228230263,1.78922410658718,-2.6625535950421417,-0.3247290907965687,3.58346541248721,2.87683823827896,4.471676719306108,5.505879946439993
65,4.592605786355434,-0.6992108666922512,3.9608758284458965,1.9217879750242433,-0.8360619227100348,-0.9269823977265127,7.091598236104465,6.2519098907952975,2.608254701676405,3.9128758266551786,4.9901647468146,5.32446255887574,7.694760001538672,10.176757046419752
66,4.460861493576284,2.0277911122441696,2.9685584679121315,1.5064568747529823,0.7305112513468163,-0.9996990273135209,2.612651719008252,4.2123848138626725,4.250778716358421,4.895826299262862,2.893734842294036,3.959914450427843,5.54681445662522,6.407582833982631
67,2.1341527104069313,3.160238421951162,0.43050254932922577,1.035384056638668,1.744884556229001,-1.540433224993241,-3.0091095522830904,-2.0605327540970233,-0.5917123877720672,1.7990485222659864,-0.19633073906780343,-0.3023827477686807,0.03767586851922458,-2.621326556602868
68,-1.821685271754866,0.8943816055600543,-2.4089115131853456,0.13107189491523547,1.1030239160172082,-1.9066930591619826,-5.383185959570885,-5.333483920987638,-5.168271451034534,-1.8338864495819445,-2.17743849039766,-3.8470202571274705,-4.748794478673806,-7.953704029108073
69,-5.4930395103218554,-2.4019537658047585,-3.9080860744183354,-1.2466746668215967,-0.300394124465415,-1.7072961456361346,-4.741362526485108,-2.9836419378670067,-3.1330170167364253,-2.49988572603099,-3.0142579457112957,-4.130430276103133,-6.068247066023993,-5.501645104576406
70,-5.6786715163726456,-3.1263802895777757,-2.9106115286302052,-1.9917810240381448,-1.0565623456280182,-1.7511030099932094,-3.1588563007333876,0.5467677639788463,2.1916182075369934,-1.1436755941355492,-3.2227471646814068,-1.8650395497649845,-4.160066844501403,-0.2785629502090211
71,-1.0255401315037378,-0.7075138777106394,0.17508737348070874,-1.0782315004830065,-1.0587677251274257,-1.3353242659873414,-0.08073306725352425,1.256871174688996,3.7712239068867848,-0.7265696763539597,-1.8296389036700453,0.8150660219283332,-0.6422556026264031,1.683854541363527
72,5.122874960705122,2.108910486121726,3.24388122609607,0.9711940788919473,-0.70863748344849,1.7453982431878594,5.021395669887912,0.8555768189111886,1.5515193173198434,-0.8488688631489559,2.0603975052409456,2.6862193106047574,3.496606207594356,1.3966032630926661
73,6.946821445607199,2.56110359278672,3.8779015974979374,2.2239746863574275,0.2967174214932867,6.321935141126827,7.807000773830344,2.1969078915326192,0.5601483980732347,1.0973794897454718,5.820533315225412,3.314706748253142,6.8592800031666155,3.0010936991457333
74,2.299280708549304,0.5203517387034665,1.380417716286209,1.10288266356254,1.660334887871187,6.642339310236408,3.26104284021735,3.3564366079569683,1.1739960681240373,3.8822545649477593,4.856484889117072,2.220578942146916,6.278103419420003,5.119377579893563
75,-4.295887810402555,-1.8646739579847573,-2.276352993477904,-1.652833272838839,1.4877884944189603,-0.28038690829875496,-5.3396920899865545,0.6811815825674071,-0.9449224910583551,2.744562173976748,-0.9546642065808153,-0.5212728947669452,0.03115427134858216,2.4150577637456476
76,-6.164861222767272,-2.3561456162111742,-3.7694062614916795,-2.9642783091445586,-0.8925854124215246,-8.39007489814525,-8.188135581274771,-3.9946164501102683,-5.3584312828405265,-2.7802982932380234,-5.711619169291574,-3.3577506825379375,-7.661219703869104,-4.626343107857785
77,-1.8100426986236433,-0.5075302415939713,-1.465771442853018,-0.5134807161981283,-2.5433308578535465,-8.327175237802825,-1.5639067763422365,-4.565935869170578,-5.142501346753694,-6.152542303678508,-4.629319649553376,-3.978004680247522,-9.209715037372387,-8.129400482146847
78,3.5808336561787826,1.926550837792334,2.3999978234727677,3.607481306513865,-0.6466483585393618,0.5536950393565262,6.663851029683307,0.1575132495566916,2.210488719039617,-2.2949176239316476,0.02962791010786149,-1.4524326836676082,-2.3763105951721895,-3.4526105498190405
79,4.230382737030834,2.4072337302181666,3.426809604845118,4.099218228182164,2.5538376473021946,8.25172962206863,6.90064886163316,3.6753339548669426,8.387145390144875,4.469513342796442,2.58134956248027,2.2995679867009957,6.150587304873137,3.8347687952065983
80,0.18059078703925505,0.18975848896587036,0.052299936491167494,-0.8625155160594583,2.460164514967543,6.060843810680544,-0.7832504777450615,1.084445020524977,4.499410659428159,5.466169565930753,1.284922870427337,3.7589485022303215,7.979544184897266,5.474251642848193
81,-3.303281912376487,-2.3993880116061086,-3.8605989922775574,-5.828150653935567,-1.0118698223632039,-2.8954331801987134,-7.967672498731836,-3.2620502741516852,-5.588845479931384,-0.45670366255747474,-0.5050837993153091,1.45242490085854,2.374542786893034,1.4136194382640113
82,-2.1684224596854142,-2.2348801187571445,-3.2426227337122664,-4.223761732366474,-3.4396791981637076,-8.022327224862893,-7.701141913130526,-2.1338203298102005,-8.989065110806504,-5.063237649996121,0.4309918505728352,-1.8431867714438013,-3.6919946966167085,-1.5463715809925154
83,1.8232412266962956,0.6882344347100265,1.6693661970411267,2.5125877032366617,-2.2782346469882224,-3.985879821903352,-0.44319420351918815,3.4349409045510364,-0.6720170152896154,-2.051974433326314,2.924110087355914,-1.9784177155928766,-4.215034279895742,-0.08230936439899689
84,3.4864953607079463,2.818410666420252,5.257093164059694,6.153766525236371,0.7842228502649712,4.264242522585427,7.5612280862033545,5.477498221287662,9.495911374478125,4.204139276796599,2.9874475478664873,1.1805268001743718,-0.4557251139126675,1.9781159119863576
85,0.6302355888613457,1.4857762437641788,3.360670537183377,2.5853046610952104,3.256961103391924,8.195080866618122,9.537671537807995,0.946165759632474,9.014926128511812,4.90680815653183,-0.8094167283235612,3.1153812709961275,2.2266178995500754,0.6043309847513415
86,-3.1705021615937876,-1.401930426803836,-1.8661969588970633,-2.9310821622131265,3.75297053899925,4.414222624491711,3.657031128621632,-4.0489660031272265,-1.8601769920161717,-0.8994021171566674,-4.775969434875173,0.6048154709313286,1.5138899387091973,-2.5620894836656047
87,-3.0518629853176273,-1.9268505160466631,-4.9284710197455945,-3.5085625783872874,1.3624097503333952,-3.064041856382966,-4.707034884126446,-3.570756766646536,-10.690439879325687,-5.468066897126203,-4.404348986445351,-3.613583664260378,-0.44524913389042664,-3.441074707701235
88,0.7031153345893838,0.1604460403828626,-3.3415894887177537,0.11453132090594309,-2.9311311779893963,-7.1764269098153255,-7.812808947267227,-0.026299039165309693,-7.928693913608321,-3.56058436954206,-0.42191690548093025,-4.426907205246198,-1.5395847691977944,-1.4880856620931302
89,2.8595191994180147,1.0614094214316177,0.36107625951267297,1.7699579543110664,-5.169035720446658,-4.568648037565401,-4.070250926647092,0.6723122857268439,1.9781406593453676,0.8513572249841461,2.274736207325303,-1.21923088786507,-2.0420298350611743,0.43657965168475765
90,0.5404215323248793,-1.0004559577426382,2.394176665602369,-0.6854985781258967,-2.652123086860247,1.0503773819205382,0.588467695011039,-1.6042233483311121,6.793221660371899,1.555164604176803,1.6536479842388818,1.9705888993661498,-2.09216772769594,0.7286307194683058
91,-2.399947886647275,-2.455501691713486,1.9632353734591905,-2.693584816413452,1.736437702101906,3.3139039989530032,1.260163665926629,-1.794773214298149,2.32346238887279,-0.5134624230132869,0.7746303344766841,2.645781834805701,-0.3264250986008627,0.8128734742049427
92,-1.0214547061353627,0.21123979667398762,1.044294282199644,-0.36921948879919264,3.2373806990478045,1.216317957938289,0.31992763280034564,1.8585788506147904,-2.6454856767299924,0.4074970205106572,1.9966882904874317,2.481188605010089,3.3380204900233696,2.2455380519492287
93,2.9339806152026138,4.1945238624068555,0.8964790298993236,3.4981292920272438,1.906111102759142,-0.09193085217258964,2.0680479462588646,5.080824478162688,0.5105783426864792,5.008148174293213,3.007413103930866,2.9844179293562703,5.924529116325692,4.000678993171145
94,3.4103591846871595,3.724255090133529,0.5442108312082424,3.6304527319770914,1.2298084697425886,2.298081291787973,4.8831871936462194,3.9802059846673443,7.118266703838744,6.834930361719336,0.914041687556258,2.263174490891087,4.272361979936142,3.4773656863942968
95,-0.6364476719488925,-1.2365945832311678,-0.9145487620519763,-0.028143830353140796,1.3864552262910372,4.012922802729967,3.831176309962187,-0.04602430809258728,5.605902756194894,1.241658188846795,-2.894019861042528,-1.460892437840583,-1.2658537453380707,-0.4352651289128785
96,-3.6106344603270113,-4.453973682577742,-2.2137664011431855,-2.689756111378263,-0.5855142432175583,0.24760209243600642,-1.0046365865101328,-3.3174852603874303,-5.115365063643437,-7.632546999965683,-4.6642719862037,-5.623871669286385,-6.7661451830670645,-5.585083335084996
97,-1.9303805017640843,-2.315425882212931,-1.6323283692292836,-1.9625247560775347,-4.07467730961179,-5.845695202010929,-4.554307686586535,-4.364768824458252,-12.955012361965112,-11.303185313025896,-3.1040108241675477,-5.839960120221145,-7.826360986659347,-7.7610102673446795
98,0.8649534041201643,1.3148827168417998,0.07589339823326202,-0.4936046266928486,-4.3472593675960445,-6.820822656465475,-4.486127402829609,-3.612022577856485,-8.797457913685763,-6.293476299768647,-0.16422108079127704,-1.786370218127234,-3.198358798060093,-4.452534947374734
99,0.3067120733136275,1.365127606620388,0.48439337001224797,-0.7359695927863587,-0.06826110814203618,-1.2959620010051125,-3.141978315987219,-1.338332711352183,2.233660195530552,3.035348982116769,1.8287310047695167,2.409370839963187,3.564815152533133,2.050688054863185
100,-1.869351448715582,-1.0623326838667186,-0.6316244066991508,-1.069101470467731,3.8942237643536424,4.663180177813508,-1.5471520226252298,1.8655485952061472,9.26849205723387,9.631993985058608,2.378576410018401,3.751781983323565,6.8554276096722955,6.45337140529262
101,-0.8365108919295725,-1.1741249993799447,-0.47508542118628355,0.738570990658207,3.356581402942322,5.978535300219042,2.1916148574426533,4.158482334165264,8.937195053271743,9.710121625657314,2.520377747850674,3.4932445278051802,4.676633558334763,6.065917198683504
102,3.3407463592091866,1.7658263434258878,2.3257159633880757,3.1415261197407807,0.2543982088661823,3.3332733967791004,6.795318167614006,3.849298382937025,5.041651567111263,4.379826933821904,2.8070323695125046,3.5918857889483125,0.5931091541947195,3.0846155052526147
103,5.3484633435403595,3.473160477429788,4.508220752594241,2.8887517620391105,-1.2275981726793146,-0.4870796954248105,6.561109981642744,1.3685553916749253,0.28816224459005385,-2.4132635756681586,1.969136845385009,2.7708515176900286,-1.1860155977925402,0.46549656589177474
104,2.0720395175939283,1.350858371402313,2.1487770682186897,-0.006518751432687016,-0.52817458614798,-3.8679858710868253,-0.1568174021353011,-1.1121962050092578,-4.959470979252249,-6.942301386222299,-1.308864697298616,-1.203541796981672,-0.9882569631413339,-1.9629420629611234
105,-3.34563910722414,-1.8289617191426326,-3.2399590935685354,-2.3288581791331957,0.012278451117891227,-5.072875864522735,-6.513934458350321,-2.026330950487446,-8.316006129890296,-7.571416406537433,-5.2386576571494325,-6.516452638583164,-1.8393892797438698,-5.095458596558673
106,-5.819213446361,-2.4717542155933567,-5.90523991925696,-2.201358565482075,-0.5849606359345342,-2.4593299863329583,-5.785359976300497,-1.8275783469894464,-6.412963288792904,-4.583501943801296,-5.689512081232701,-7.843032179799246,-3.953782680870717,-6.618482740775045
107,-3.8968413008002547,-1.2004270666650942,-3.1836844454529336,-0.9213420761769718,-1.1593906679362767,2.248657404816843,-0.3271165105986189,-1.743279396084136,-0.3885063829959883,0.6014310859194039,-1.3388184905512102,-2.758296081796544,-4.144077204233545,-3.3296366363769287
108,0.12209744077620967,-0.7577689563297912,1.4402509655922,-0.18502723630951667,-0.8316109351163107,4.515680798926704,2.7795395840723987,-1.700999109952255,4.289206884936059,5.231906546837988,3.7503590597298846,4.4768440894471295,-0.6453976963344363,3.093282823906263
109,3.32494189889491,-1.0854921801831101,3.3169759328168062,0.114717377631824,-0.011804035036987036,2.440916112866753,1.6228885207708048,-0.6333218261835359,4.345283514413178,5.87159163810495,4.629496944692703,7.236061892601941,4.041546225769337,6.5925691890906375
110,4.075474252282999,0.13760631389434985,2.047227873452758,0.689168254400474,0.7241242256865239,-1.048523487911507,-0.05875801636574439,1.372264422084136,2.0697885030742866,1.8735341224894244,1.5371396332166345,3.9004042354965818,5.9269247354073205,4.208432224683365
111,2.428737303888146,2.8498079347119445,0.586944757310889,1.33185049859692,1.281533679793139,-2.3777581825690057,0.16523929136045223,2.873015015825823,1.3817205249291469,-2.3215981527239755,-0.715693370419948,-0.81137026017999,3.7553823578163112,-0.1253235392760117
112,-0.05316134326287861,3.85767916749446,0.6979158322248604,1.4484738011667515,1.519088688564397,-1.1839513360446834,1.0884920277932215,3.0701437872989032,2.572285472466708,-1.601028427108467,0.5380122408228141,-2.0973916021109553,-0.27714245610673305,-1.3739060995870798
113,-1.6717197595197397,1.321400813393087,1.0527547701261506,0.8944418348434013,1.0064874532780796,0.6368914424059091,1.277588736542805,2.11855255623978,2.1329226761154243,2.585496340042554,2.0254170929720345,-0.7711286421620172,-3.259748222213394,-0.2644177801302445
114,-2.121262705993986,-2.4262931629907847,-0.33635079388751415,-0.22672072594417125,-0.39109763037869444,1.3779531784204795,0.5364494932262294,-0.3287857365060258,-2.4309078564567583,2.9956815386378945,-0.6703835917264853,-0.9347065959479863,-4.075094819132774,-0.9911033887804125
115,-1.9550970871492777,-3.7008767451084945,-2.9084224650962183,-1.5620229082213786,-1.9622518785348995,0.4419402183497995,-1.2539495020663733,-4.066433652244782,-8.072184888991131,-3.345062171169296,-5.768181809593758,-3.1307258268164886,-3.1392183986384308,-3.7240953712122873
116,-1.1367259637696059,-1.7536247270054544,-3.728006252082434,-2.1231234657301292,-2.433069157229273,-1.2553739244551065,-3.2911169835604945,-5.876199708859439,-8.025606541827017,-9.22971621444534,-6.329267338017785,-3.230196502421504,-0.9006424569415121,-3.9307984158888436
117,0.44792642502478197,0.8180188952637708,-1.219775110616714,-1.1374450315725513,-1.1234001513096343,-1.6723743952438646,-2.942256113500367,-2.191997737812915,-0.009040527971251768,-5.677895409962499,0.2502914681967866,0.8536677841345779,2.0040793750246335,0.3553123242916385
118,1.7351228315722869,1.3659707464759383,2.266646220088674,0.5127586706763891,1.0339586071233888,-0.1670123687386411,0.8494227394097152,4.5167213832288375,8.85131622370269,5.227964179961652,7.445599965892102,4.882915686552796,3.7783696435948726,4.774050660267002
119,1.5906151925723329,0.1026678867561115,3.1216939631892355,1.0866932618459357,2.137700718873452,1.0613874745718253,4.4162125620204,6.53969195745158,9.093501803706763,11.412108024563892,7.332679273840711,3.7984340468927327,2.745967336410966,4.354900569538796
120,0.6099596170269191,-0.49087450712911374,1.2105091684756393,0.5394964416283488,1.4240142678807934,0.32469565135445333,3.394985940666849,1.0480264453888815,0.8273013484038386,5.918400487002858,0.5230714193011998,-0.873517814404285,-0.20122955991058217,0.1741857378469064
121,0.03162696429555911,0.9591697836134135,-0.21352405015703965,0.6525623008170327,0.17069439996313912,-0.18771954807375013,-0.9263573985789026,-4.747877228564268,-5.948560025021326,-4.213993713838534,-5.288114197154098,-3.1380981511710164,-2.197096167901944,-2.562525761388734
122,-0.2736459975821785,2.6647986425847927,0.5163418425658219,1.8953255010091972,-0.150644564075448,1.948794839326322,-3.1922517965405235,-3.1606746917066095,-4.256492744433455,-7.586783455438395,-5.076937826846318,-0.9603193191604231,-1.7792965009481085,-1.5570328886010023
123,-0.8452040142693273,1.8658181538205043,1.1319378020747115,1.983114903922387,0.06331119863324486,3.758951989806389,-1.4761856123482966,2.659234887629633,1.3671231101554189,-2.8066854299622577,-1.0070105354500478,1.614008623119565,-0.23844110995545847,0.4846073815734286
124,-0.9619307236141718,-1.4185301343799483,-0.7517073362516175,-0.8311456534827738,-0.5343425755893734,0.3199712360026208,0.8503209612418801,3.4615369171737367,2.431872462829617,2.0754540422603633,2.170740099791331,0.881456492263204,0.5859004136094231,0.48628375431301485
125,-0.0898275269857885,-4.1283404475397445,-3.565251678029018,-4.306909979842625,-1.7260488240117429,-6.14376500672176,0.9350096975111466,-1.7807373354552645,-1.4492808792541434,2.0602043547607973,2.6033457439368353,-1.687087096451655,0.42752201769978293,-1.0114769310254654
126,0.5177668238752757,-3.5684375230583574,-3.5942368880100983,-4.280404730587054,-1.7400646532355122,-7.111185633494326,0.0026173084875821748,-4.407469920412766,-3.254838763711943,0.2852170454058198,1.461307623893046,-2.2594178769753155,0.11071772614182417,-1.4097132745880279
127,-0.10479517867971952,-0.0856220259626642,-0.08574348343551001,-0.06417349690533819,0.0019179522309632786,0.11538357024935471,-0.10555126842486222,-0.06270905887985373,0.1775350504404034,0.25218130989051196,0.06444635553881851,0.05620141575898437,0.049443744269691725,0.060508319299816045
