,AF3,F7,F3,FC5,T7,P7,O1,O2,P8,T8,FC6,F4,F8,AF4
0,0.039905016977250726,0.03416351927810441,0.011587859726823505,-0.0005601705498649513,0.009254258193927972,-0.057954588657068984,-0.09212977228644847,-0.02115865592352817,-0.01637824911740912,0.05144830834132927,0.04821553025056934,0.030299515377578856,0.058218392428186286,0.08182824296073393
1,-7.016142067967308,-7.786089713194995,-7.041439439438087,-5.622797208280256,-4.326767432530032,-9.815342327179781,-7.895603057812896,-10.703950816876734,-15.71972987967576,-12.74180388621505,-7.840433701162267,-8.959430999574206,-10.999295207636424,-13.671417504030554
2,-3.1054347246530023,-5.325341800274518,-4.267964529235661,-2.644376418071824,-1.1195605982600447,-4.816502389518844,-3.2497086350594726,-5.565532410289422,-9.318629569922582,-9.955725043106193,-4.310307085619088,-5.367496588089771,-7.511419823241353,-8.464639892020475
3,4.281941012393026,1.79314013554172,2.1898150276933204,3.118465225727585,4.530787428398233,7.449254630589645,7.310349918152227,7.438701542690635,9.450009067540677,2.5635053506200487,4.10262787649089,4.036887055730267,3.1264857042996055,5.478698897482111
4,2.3552365488617895,2.28750072891315,1.3746314756723044,1.8716530515690257,3.3223656304986675,9.20533404272669,8.545037102067536,9.46156857322351,14.515362822363914,7.889675337995506,4.272207500936447,5.041886234910703,5.029464556153255,6.813378136526684
5,-4.967965884448392,-2.182965837419183,-3.749415296764231,-3.4758840211180853,-3.0430875379145053,-1.0826510351602254,-0.8101145759708699,-1.1473638398810464,1.0102610365730424,2.350282938531758,-2.5358347554507263,-1.6891319996265952,-1.135034686428502,-3.1486575486446315
6,-3.8555069139179015,-1.179112018294309,-1.9917340460435147,-2.8882358010818354,-4.869068179217472,-8.287780749155306,-7.732072724690622,-8.618016933787494,-10.943661907996482,-2.7391558875335478,-4.243706208432848,-3.9680704202963812,-2.28514069704715,-5.801607012820569
7,5.700910718528571,5.6904333009713355,6.29521070025542,3.7304690975459387,0.14574562753748724,-4.124468782227305,-4.942293218293277,-4.17362630363589,-7.048443105026659,-0.22420182691910942,2.0347235090150333,1.4709216834057102,4.050996137984292,3.216426618808004
8,9.171014546628328,7.395446376062925,8.883273786918254,6.630960684722696,4.176099828745592,2.9690966075812817,0.8235897310181222,3.7615529082234445,3.838462800812858,3.9744909816217704,6.527470049730368,5.466194360218105,6.818770804198119,9.063703322936925
9,0.39457282353828066,-0.5679674446385832,0.7408515616960762,1.4235517997925407,1.9459382007879402,3.41906793060209,1.9729923112463648,4.805591796137992,6.364188389309734,2.0635037100245963,2.516731221458679,1.9696097928319045,0.19019780760071875,2.8628192460616355
10,-9.118938443582072,-8.514071667024572,-8.326147807569642,-5.304735972537352,-2.2295026193856584,-0.13075938272450371,0.8038489887494153,0.2722204919056267,-0.36378846463040815,-4.182606970426929,-4.865987120580203,-4.073815609609292,-7.94473865143879,-6.186777439875417
11,-7.487323446741539,-6.684474592894565,-7.809664138610414,-5.862480884024748,-2.3224922053277246,-0.5993136690111903,2.3540338352732517,-2.4595491140070616,-5.400664703546708,-6.653845486282442,-6.939104937904627,-5.358062616754948,-7.952768343682162,-6.735138765911616
12,1.7308793212197102,1.4567142903437809,0.116151900287615,-0.6090009211692239,0.7469733995581432,1.284920223845258,4.227285889138317,-1.248800802452237,-2.554305356292432,-1.7851210535460331,-1.9834369043879148,-1.210029423957325,-0.27373536382222813,-0.34816074968223065
13,6.719496393207752,5.399230929639473,5.363513327149567,3.913857926594177,1.9588343028269646,0.24770726555167485,0.740556620390973,0.39906314412731764,3.1735166761273894,4.919384032770939,4.215194196639975,3.443257686102407,6.816274798969988,3.9077869110221495
14,3.4769319376954724,1.9348955948168145,3.1232970073983815,2.9248958373131244,-0.006118945600532812,-2.9453498230773922,-6.049843570256369,0.28504776310207613,4.544162172106341,5.570845894483433,5.315802165780185,3.9662430543498157,6.619283758568746,1.9920772005534815
15,-1.7497635386553143,-2.3922870067573956,-1.9369712542121027,-1.4941487827963191,-1.79441991063352,-2.3830422074975,-7.082579053532621,0.008134335101252707,1.7042276115868358,-0.07912344009684881,1.0520030917230603,0.23859590361614097,0.19627641785865016,-2.3478566261356066
16,-2.942715949859347,-1.5030484678661553,-2.973507778473711,-3.1080241734493166,-0.9392049840407648,2.613438613134198,0.7518143846884728,1.049348932191467,-0.2339630589051436,-4.211396634041329,-2.9189590831373744,-3.350283418310834,-5.112408279400704,-3.509300352214639
17,-0.9513876523815079,2.5425465304489143,0.8875194966936664,0.5042394689927827,1.0343432667942305,5.213723985715735,8.524587065642319,1.7624323096510632,-0.19825618865579286,-1.6280007458981247,-2.221914349606324,-2.5787150593171937,-3.751158281867921,0.16498334842853035
18,0.6708222350828102,3.67710162060917,4.5856735975620255,4.594211249854384,1.5696802025623875,1.0541316593188637,6.4809595607704225,-0.022705899103110362,-1.9374250344552895,3.272806332767781,1.0395634615860907,1.7482176450192823,1.7644576163871823,5.225936043743432
19,1.3110585325200277,0.5787600806510617,3.723328399304793,3.64677296340349,0.6388501626444257,-4.854615605916338,-2.6732386169167284,-2.9289508251863383,-5.646634005215632,3.399090533126825,2.1882556580067507,4.802901144551171,4.510210344748157,6.470357522117569
20,1.789449019640501,-2.5279698383657263,-0.8775173725169567,-1.4060533095372263,-0.22579608489139824,-5.023925135105698,-7.8219440973735495,-3.2310680812968378,-5.561247918898216,-1.1685179685482872,0.2929689573091992,3.0361610974398885,1.73600531380652,1.7668137621009727
21,0.8008258594592367,-3.010263533943856,-5.129737641062629,-5.2467461681315255,-0.742212879295844,0.02699292239469133,-4.6036407280354865,-0.128294338969735,0.9747854280686672,-4.620978313888171,-2.225737862754561,-2.611465664815785,-3.1129516005451965,-5.692567172933215
22,-2.432874432286699,-2.662722838030229,-5.934429038054195,-4.937247453492424,-1.4254421739697574,3.339315267205477,0.904616531904825,2.937454535760196,7.877856231189636,-3.652606224241808,-3.2371378004197418,-7.341122141574048,-5.26058397769744,-9.463059804806656
23,-4.133312113825332,-2.2568805580961904,-2.7132707653380312,-1.3979470945146912,-1.3932303547267118,2.2038307592585125,3.316148657475882,3.0900226200712755,8.222592066896086,0.14403148868712617,-1.395757046455304,-5.753357164248701,-2.52961162411567,-5.178175294799527
24,-0.5530653597949464,0.7023204272262913,2.804893390098917,3.2098630386056293,0.43706961479414697,0.8968594590097143,4.139715123027813,1.38001022446838,2.9621251608456967,3.724741843206419,3.1642981743412335,2.489774736712118,3.3639178178743285,4.217557368426981
25,4.346726323272232,5.517165128699471,6.692125826144304,5.9583562544046815,2.3325665486362857,1.7767163993214443,4.6906130133385595,-0.132070142272266,-2.847495436326194,4.570369780579361,6.065567359586052,9.529892171021688,6.823406311353994,9.405816239997034
26,3.05135606790144,5.913143860922121,5.1874890101615,3.822092063222527,1.3958744592385874,0.9098298975592677,1.6660584072218492,-1.665744090787336,-7.294307563343887,1.4350815049538104,1.935547724602055,6.5868822316714475,3.001588478037692,4.425256084042373
27,-3.0616350440340954,-0.48601998320881257,-0.6092556386982967,-1.9294045902617,-1.3805407757952837,-3.5741063191956814,-5.137564170141083,-3.4862080129940214,-9.236294999567418,-3.2692218889480564,-6.250039065829965,-3.783308671763899,-4.792990484302354,-4.6399927957847575
28,-3.9721886621110003,-5.960051853687769,-4.523887269365274,-4.806261189483106,-1.656513589043287,-5.735904303441946,-8.255515211781253,-3.120215129341485,-4.515124788555669,-4.038570142701464,-7.647425659595725,-8.69472665823392,-6.81783645043761,-5.796153915373997
29,3.161994351076847,-3.0855345546477517,-2.6781477596837626,-1.3372314384961643,1.2955599078596396,-0.8909576979649407,-2.7433172102178944,1.0827512957376857,6.708172776333164,0.8205839949216212,1.480851391524629,-2.002016281274152,0.1688480614211494,2.5615259739955416
30,7.477242958398415,3.1719925185981412,0.9603465078077946,2.7479850272857984,2.4855464643236247,5.117395749966216,4.662672004139365,5.1101107929936145,13.387874863835538,4.835921841948238,9.904883117748103,6.142258136305659,6.830331249311317,7.867549355475655
31,0.3383285703218358,2.5378870148889803,0.26879975395099787,0.5375090713307766,-1.071885645870983,3.8449779092577616,4.578359724901387,3.2039131272054013,5.696620871812384,1.0790741876478356,5.848357541201961,3.5892183581302275,3.747461634791469,0.5902039658765411
32,-9.748313602305723,-3.94195661675065,-3.3480795604354463,-4.576461096037582,-4.5420433476856505,-2.2041931112054853,-0.7207069400302968,-3.0243827664235967,-8.273395064796322,-6.544072324210857,-5.869510305318495,-5.363353754175986,-4.582513505438741,-10.615555195409668
33,-8.084633058881566,-4.824477192774768,-2.5554725895840043,-3.2714810675035766,-1.8723921740369218,-3.1626858552929225,-1.1945104592819833,-5.0304199943580175,-10.66168889684749,-6.561467631115972,-10.046418049856397,-6.058197664065722,-6.046703706968936,-9.57687955469041
34,4.301698315690611,3.1841673038715297,4.021610518116529,4.642855582515045,4.307785362825576,2.3913076477577078,4.266589310664422,0.6273090112870285,0.6336989838131711,3.4119624197494667,-2.081229173722879,3.799593637597648,1.1348310051817774,4.003862858568346
35,11.187579487246865,8.559225642388492,7.922503367616299,8.427967206969727,5.4043130511392725,4.995717927808917,5.3981093020152375,6.1758138549160355,8.51447606457723,10.90872710052345,6.7086611905021085,9.718980480158901,6.014143228772576,12.794246879536377
36,4.047146741318134,2.26629433964729,2.637518504642198,1.957853377557919,-0.6515745619868211,-0.5783236672637695,-2.775982848477367,3.3388248950472668,2.6408118751368796,5.306888871019162,5.816478680712706,2.106392267444186,1.6217351869422179,5.891038690126218
37,-6.691395071983125,-7.621409730397603,-6.100278477797013,-6.987845558182218,-5.877868427484307,-6.883452595244466,-10.613095324178593,-4.387977794565532,-5.945800667094082,-6.46847240541036,-1.1053416150743731,-9.037075554210078,-5.022456818106717,-6.316755062019092
38,-7.601637158837564,-7.6130716243706225,-7.832854578907623,-7.724019863488483,-3.537984301696271,-5.163763072195654,-7.432059008036809,-6.927986678491845,-4.309997346833355,-9.745036855788774,-4.090941444826014,-8.932929235139843,-4.317807417717203,-8.194615419454788
39,-0.05527426753076048,1.4353072896663157,-1.5973818551748857,-0.7830939195791236,2.5983403739492807,2.0000673594198064,3.002600943634887,-2.1049468450117517,2.3338271741581673,-2.518543503040467,-1.2956578910821226,1.1646715342498417,1.8948926489005093,-0.3882682936408156
40,5.140315952236918,7.13874448825787,4.352767811268985,4.976209194208334,4.601486772201856,5.809205113318088,8.828357901644221,3.0216889715316806,2.5315619966505003,4.575193180314826,1.4994316162784165,8.227727829053222,4.955241407184453,4.920696867854972
41,3.9380341512354575,4.392566389475148,4.867767139141258,4.990693249220062,1.5828823796045133,3.8906776496927105,6.595929423894965,3.9808738167619895,-1.0462465261864562,5.345095554258513,1.6955274632953623,6.63108328782178,2.909845153904317,3.3574194519340437
42,0.9316683658964058,-0.2831773627439725,2.415542157750095,2.036321476401986,-1.2177240359670893,0.6660288890086065,2.0688561737370295,3.3927921504103358,1.144427090540022,3.2920838713597544,1.7279622221662905,1.7424269457913109,0.7095028784775953,0.6002188563232559
43,-0.9254532145760747,-1.9591850661330124,0.012368194015527856,-0.763110599706563,-1.582402195197757,-1.4713604689179547,-1.6581480066593413,3.0122754290758587,5.830350004576637,1.0459755494174585,1.5612718782726651,-2.2444523854619525,-0.3271172395602192,-0.7854333254803663
44,-3.1082315233454776,-3.1784457641106987,-2.6675276024895056,-3.137534009563037,-1.837029921629959,-3.6230783090900767,-6.001361173343696,0.004141895934324014,1.9550492373529686,-3.284196629278654,-1.9154432726998327,-6.2160594741031305,-3.60021887753481,-3.704568651392972
45,-5.05494332371293,-5.162594136482642,-4.932328793135774,-4.3513425289973515,-2.396664928127578,-4.561671192562725,-8.313138963107916,-5.713839388468233,-8.065086375574776,-7.7428895958371955,-6.8869886673304945,-8.424098909832248,-7.747317109834811,-6.518549777323008
46,-3.2000995375671795,-3.6022254882133042,-3.5624595103762013,-2.497562670930312,-0.6450303855889711,-1.201334535796488,-3.082195399539894,-7.820324330275271,-9.477099247068908,-5.453344156186331,-6.004617699451425,-4.00075812270582,-5.643416973892653,-2.992186990556308
47,2.3271051268849683,2.880350665258448,1.5641763878260815,1.7288238061796024,3.049859245390661,4.455656327210214,6.626921286730094,-2.311857116148958,1.3943340239095254,4.053826859637813,2.76018108056746,5.474676351361142,3.933816065425296,5.779855204654532
48,6.216738275732393,7.879088714522497,5.265827837903373,4.4475700691559545,4.181687449578176,5.652466334146673,9.572266327984616,5.284460649116762,10.221891370782982,10.632920073399992,10.643105903385122,10.63089003916062,11.391842337627967,9.794801155003444
49,5.0651548313717685,5.641581455877644,3.7741313497666154,3.298280731136816,0.8829000114037194,0.43203387724038367,2.047979215464377,6.931267978279356,5.743905381699835,6.069833932273939,8.373555176125327,6.232281094396751,8.25240199165364,4.16362543602764
50,1.3952270938841311,-0.7120942359328788,0.09358157939641568,0.3274481670371085,-2.7539573449449315,-4.595165543709816,-5.822116569504141,2.7687479935379176,-4.5026225708153635,-4.3123417985257415,-1.4791569464421834,-1.6875830177982694,-1.3112578091689249,-3.5870896505071372
51,-1.221273148241103,-3.9896631180332225,-0.9555037875255415,-1.1876145439796115,-2.4936319472846082,-3.2486519890593915,-4.60819306429364,-0.8557718041889382,-6.578871033899609,-8.416932654437415,-7.829653443113752,-4.551344936149839,-6.678138774717758,-4.804755997438916
52,-3.0593036936260285,-2.7547534704370413,-0.25284115290947945,-1.1229194948421752,0.2964317232312995,1.7320933904724536,1.3646565760123288,-1.4865128167799952,0.2835781195028496,-3.1279011796574685,-5.641762801776312,-2.538795998412874,-4.997821575629836,-1.5849379785684408
53,-5.573885527442111,-1.703805800895003,-2.134363932144351,-1.8472784985785689,1.3203615565456206,3.2520496067892974,2.207004091810799,-2.2667878393250667,5.102638994486244,2.90469624339288,-1.163183324899088,-2.2385851142058346,-2.498870917013707,-1.458043840872415
54,-6.676988057313434,-3.2495781964756216,-5.753081095830963,-3.646328963214775,-0.398975827550892,0.020555440401966968,-2.057439129529946,-4.235665843349662,1.9487086504533786,2.3207936070411073,-0.7945842787891924,-5.258841314869115,-2.82999032155746,-4.658375464427227
55,-2.610396453637262,-3.4988385264231314,-4.69177033333001,-3.2722375716293435,-1.780483048560991,-2.6595708213411737,-2.8754636467915042,-3.657841981766144,-3.3948508416772727,-1.4516962442786816,-1.2614572837363796,-5.263464996002653,-1.8010251437280267,-3.9989987277563643
56,5.563916324033057,1.268769410254045,2.870984390066215,1.2761840292764655,-0.5848486413122522,-1.3431155186062773,2.0722834057918775,0.9982135975610409,-3.8182915071230674,-1.1931827754802085,3.0566548077797475,1.895535000924042,3.6961208638679297,3.140660932799099
57,10.846360761990605,7.499783591908587,9.200880116767786,6.3920609204772365,1.5630193589599872,1.1917063795351497,4.932679399301437,5.0408826521320504,-0.5652881722232563,2.6487243892845806,8.158911357124191,10.183900147563312,8.365302310364882,9.560770514227022
58,7.815169481146495,8.085717784551186,6.74899849470465,6.4883846951995094,1.949471665863532,1.2732895225153587,0.7792209956140619,4.205601009547482,1.279172576333349,3.7015787201943473,5.50934254688855,10.428360274271183,5.892047269215031,7.870620893130675
59,-0.7710815893715588,1.8951050601169137,-1.2729616252170026,1.2665706749464165,0.6452020830400297,-0.05283113887720204,-3.9151297597585706,1.0008301843229206,1.6718469982704245,0.41156444578329815,-3.0605729629953164,2.5251543827401832,-0.9917769347760376,0.38548770767817125
60,-7.4377672107661,-5.04176382376461,-5.8055243381252755,-4.124985734923956,-0.24664112043220104,0.24980643622007526,-1.7887458110799022,-0.13927973346845537,3.5744761858385123,-2.157252895263179,-6.690850818206826,-5.316916802328294,-4.7879267999810295,-5.129206731541695
61,-8.24595165551607,-7.397340529250696,-4.293187707948735,-5.740691940801054,-0.06145139837188972,1.5649579840442962,3.2175126800337375,-0.2575341740275398,4.902377087029445,-1.207349896359468,-2.2783387823183676,-7.844364353316498,-4.192278464395762,-5.8447652884784445
62,-4.662030475229352,-5.084282998813051,-1.5418504272774969,-3.9777001167266652,-0.08794482766809741,0.726985963047613,2.477533961438858,-2.6900263433667138,0.5339450508168558,-0.04102907309734362,1.339118573718133,-6.626898640628754,-3.2592609680074323,-4.502642166479801
63,0.4908521929271269,-0.5496666018835465,-0.509004190664786,-0.7189785377535397,-1.1005471188386309,-2.2577516701636204,-3.15872323886338,-5.441608986933116,-7.575815282479337,-1.4604687514853956,-1.3701149870592182,-3.709182840510943,-2.516755514591408,-2.642597105255624
64,4.758797976676065,3.6404854048947892,0.4778624962151947,2.4772298097719894,-2.2724207738028186,-3.6407027103207,-5.2290706899941135,-3.5952394832954866,-10.17678098559871,-3.1231544323848257,-4.089552824212208,0.98919681593304,0.6627043614054007,0.41695393137077796
65,5.457988297485675,4.818628871852379,2.104083200791853,3.6735281548579257,-2.2837331883641463,-1.4025451662711659,-1.1740676870280082,1.99603874414903,-3.0199720954831477,-1.867289962128056,-0.3584455733570352,5.44705748504197,4.520387558252107,3.423918188649019
66,2.0774812070127013,2.285843860694208,2.472016260075588,2.106684804320858,-0.3390892817423888,2.0491805167510013,3.2412751475697092,5.176874546516771,6.868940302988689,1.6007600570221034,5.47325611539561,5.913567561270252,4.188096752318872,4.0100225866780645
67,-1.4182538806359324,-0.7522624746117457,1.4328609485838946,0.20960748678008548,3.0692436773913516,3.5059588795193655,4.0295340091291045,3.5611346720141928,10.208015958321795,4.474980940156157,5.830647133273329,2.9567540049410908,0.18580324818304755,2.8653712724758535
68,-0.8975433854278186,-0.8365622500247777,1.021102390911523,0.5056501705846863,5.410884165432981,2.539086694098958,2.988934894211263,1.0444251000188498,5.808878282765502,5.087186621145768,1.6785455223303278,1.0636193490558752,-1.7503876425497067,2.171826403575442
69,1.7724553485765824,0.8605519653589183,1.1149504873237994,1.3036849745896242,3.6368959737638784,0.4653185643513321,1.5592043096035237,0.5718202680706541,-0.9489081166416705,2.928216168830584,-0.8054006042077747,0.9909325810188474,0.28140032255029407,1.1430586426531886
70,1.0038171857857796,0.5601180627227744,-0.6834446332861313,-0.6465210111242361,-1.9248543699534832,-1.7554144775660987,-1.532165522306241,0.010230511411598885,-5.514078529608041,-1.5794157339087842,-0.8416228657299314,-1.343747993160987,1.8330598285273247,-1.9860615354927786
71,-3.9399320831631934,-2.1805438512299276,-4.161950361018002,-4.158700120992203,-6.424778604893118,-3.2007975460328955,-5.215168407699594,-2.838651219170273,-6.566712242434541,-5.875057524015942,-2.5552263182744293,-6.506774831093266,-0.36523021442518544,-5.022156526138303
72,-6.894552425833273,-3.964127107171575,-5.4272680506090865,-4.685374814740086,-5.304180644969288,-2.605536525312105,-5.239209451180833,-5.499801459785875,-4.276173816871477,-6.360394188734805,-5.960297249312463,-8.32604666819635,-3.686563861175456,-4.224675471895814
73,-2.9650402432674916,-2.559774428765039,-2.0012992071721634,-1.1160350783791675,0.16773798003132548,-0.038390394264753235,-0.6354050943584805,-4.080141564225395,0.042681311960868634,-2.3927663508265353,-5.878721795978645,-2.6397651610303026,-4.1083061187905185,-0.6841903258052576
74,4.4786473575675565,0.6574960508739148,3.5695142414855856,2.761564919309092,4.163526909652205,2.270652453917439,3.8561078447284016,1.0207014101807284,3.6717951064708227,2.428535830398717,-0.27212621240738033,5.502347402083579,-1.4622931524039295,1.1136541835972773
75,7.76383468464154,3.2830810434259745,6.440640903577987,3.88651004119528,3.317318995335711,2.3252771098655085,4.151161629274594,5.346925687149466,4.349452707530085,4.269810578486793,6.122114320383612,7.999922235617064,1.7525988354795943,0.6361983549956803
76,4.260066488167341,4.240008345793825,4.451419710590332,3.122130899972404,0.39338093849739947,0.7950627383026653,1.7989588329475084,5.521584155293232,2.3065370678266675,3.1072702567538903,7.994343659122489,4.124799746384923,3.9270024649572974,1.646954917277115
77,-1.3362660193225901,3.2415849284978573,-0.2884458130362894,2.0724658545294226,-0.26058596657186645,-0.2541023234834326,0.26771724101003364,2.2591674553688077,-0.1990826192932436,1.6420286189774882,5.161235665917235,-0.024243234795085306,4.586091646378841,4.767738154444236
78,-3.7591881979202046,0.304697617275546,-3.8868019709172965,0.2663745386796335,1.047289466090247,-0.30157553897554334,-0.33972180599259555,-1.4633748946911869,-1.015878501208875,1.2505605143968683,0.5576875332564923,-0.9698750026895837,3.0088261143482233,5.273918441854413
79,-2.944121290955759,-3.289896691965321,-4.216039805055289,-2.7938919240998743,0.42722721895666393,-0.4828137704803973,-1.7843892415839477,-3.5730182624014186,-0.04036707508339194,0.4871494875617908,-3.8707728647382273,-1.51282600611516,-0.9494214085832965,0.30329986211028537
80,-1.8410357778051394,-5.115738434282955,-2.252080082121939,-5.160211978378566,-2.8846666229104,-1.185168504798878,-3.3008739964240954,-3.7312574930872433,0.40131941167235086,-2.270520263933887,-7.050324919374478,-4.215860149480204,-5.104564497139383,-6.0552505308599756
81,-1.2719361575288763,-3.6247406005278098,-0.12724966176459357,-4.117896174928301,-4.508646138710466,-1.3253619712181923,-2.3176674054731783,-2.2536842204813783,-1.7897923518896457,-5.444970360421471,-7.080561622969629,-5.950710702649955,-5.935121470750116,-7.555141715801788
82,0.28684874061395393,0.3893934412376253,1.4738418191719391,0.2945396364570137,-1.1606547854707168,-0.23711401520427472,1.1805290976311669,0.371953259234519,-4.650958548787172,-4.861020923272152,-2.67818340174631,-2.300193096136404,-2.1525950951080945,-3.0535789742960415
83,2.8435439736100467,4.198991454984319,2.9018517421395194,4.602459566902512,3.9505463027829233,1.1779533596941303,3.890270384486675,2.924907322187097,-3.325521981552078,0.8805943673834746,3.9747595010067616,4.804431468855653,3.21099569145513,3.052421356094722
84,3.749297445500036,4.759138033447885,3.184356658458412,4.986956132787513,4.892694777403157,1.6039206893525517,2.971951734653064,3.652332650475349,2.8752839473214826,6.63298895525473,7.996331894118425,8.029246111847245,5.274414274705246,5.772846879287667
85,1.2414119425162504,1.2473022770954838,0.6981361803802683,1.199292516693156,0.7878204732560207,0.6753150689057743,-0.9368779186146918,1.8039674116107103,7.432092882093608,5.607595700117667,6.362074263594494,3.7052028707486215,2.4422423432885623,3.5287952272658285
86,-2.560005385775581,-3.1452207186071246,-3.1252771941917756,-2.7992333090734585,-3.299604656792239,-0.8368524520634317,-4.340493792191722,-1.342912824569848,4.365541542994697,-1.497382297066331,0.8633287878788466,-3.334981319062812,-1.6899579246298908,-1.1061334114565984
87,-3.664418569827183,-3.770324542335752,-3.875263259258363,-2.9743906397852045,-3.0432469630968666,-1.4599638000363417,-3.7311191525416265,-3.4141178502767224,-3.1552747025255314,-6.25009143556768,-4.045420522181624,-5.831271220432724,-2.644797300042582,-3.527604160768075
88,-0.8678225008566147,-0.18628568349103833,-0.08284161850475366,0.07427927069927283,0.30966874632916513,-0.21938233605011198,1.1846927752821321,-2.886585712750872,-6.539760570836967,-3.1358214963238122,-5.4530381134918535,-2.6376866073968555,-0.4162453356470098,-1.3594541578514938
89,2.6866681848904657,2.8756171785231905,3.6602826963799697,1.99265782680708,2.4296388293026214,1.7052734026237253,6.148452553478442,-0.18385773425056712,-2.820261854988464,3.489476180353212,-3.5459307587768905,1.428473624576233,1.2933573164904584,2.5977872133322464
90,2.9583729111124573,1.8406127749218621,2.5425153648485024,0.4319108168328847,1.2516372489186045,1.6439444818862663,5.699702848537683,2.750743067283685,2.7982419743369653,5.793958881879796,-0.29813682083430604,2.60417583355935,0.5222610178575253,3.1246298572733764
91,-0.37387272450761594,-1.0487508277239168,-1.6991963202538942,-2.080532516283112,-1.3384114806241802,-0.9614410096256704,-0.671277815820336,3.7441896262483167,4.786659138614926,2.2165196574843815,2.248123779038406,1.5898310154028377,-0.8293328163382434,-0.9383037268218483
92,-3.33947013694752,-1.7413586526153317,-3.4443610298919705,-1.9685108265362972,-2.2434103129222125,-3.0439557675162057,-7.041914332652261,1.8094448099357912,2.8224671199403764,-2.589132013146324,3.1010957985903778,0.4196963371924416,-0.565077596317887,-4.715533122909525
93,-2.1904450633362242,-0.29786421143858877,-1.042014081730124,0.6084304823580704,-0.5270423012251324,-1.7889179365645613,-7.305720385945543,-1.817400772505795,-0.768958026279357,-4.699515139440985,2.542254296598824,-0.43998456095924754,0.6283266628521874,-3.294091701524018
94,1.8472186870487228,0.3992288518761899,1.8816709012727597,2.479022988882546,1.868272523348711,1.3507943817795358,-1.6896387582761219,-4.112698489716853,-4.380481094593038,-4.01331942630958,1.108110484660167,-1.0865396981315287,0.6816288061785846,1.7618513641141074
95,3.64645870553884,-0.30081249203180466,2.1863733122688194,1.7584671608037985,2.317374791969251,2.7053812775344266,4.414258570444603,-2.887289861201201,-6.260726114391701,-1.9380544997187825,-1.1825357737332634,-1.143656546654331,-0.8373748249178863,4.31883850306807
96,0.556175759153021,-0.6310609716037722,0.5677950973890962,-0.4510777179286295,0.3094570204681105,1.3828870124509485,6.586757611435955,0.6287771577254198,-3.9010102677722482,0.693039537449153,-3.7199479885730438,-0.8325894629072096,-2.371276452449456,1.6950771579821047
97,-3.8263319626857806,0.017387714309205514,-0.8747196236713757,-2.0550219587912806,-2.003455679573719,-0.21557697006195198,4.4964069508318545,2.8919048643144416,2.8213887422444284,3.4685009567311256,-4.3180336875754755,-0.8882555631250172,-2.084211134762312,-2.129428208823604
98,-3.8271957730175705,0.699499006361844,-1.262785485607592,-1.8109175025355484,-2.1414128301337976,-0.3246925731408047,0.36630533717796776,2.1940249001451506,9.358172705184746,5.716251443240221,-1.1702447548656092,-0.6106336944138397,0.7059728564339859,-2.262753855149494
99,1.2454860530927052,1.3424598262083294,-0.5392759903221161,0.4712253187001735,0.021417830231258567,0.12120183105737747,-3.22180295903964,0.4068806867838912,9.880644044655805,6.048830829815668,4.220302906202815,1.6280174097904847,4.691564719371014,0.8911243228931577
100,6.035394676998105,2.355443935277406,1.025081776527653,3.3720436868599735,2.1730955497109528,-0.5270022815792123,-4.547385304198801,-0.18485769803785368,2.9423717111267083,2.7213211358758196,7.41217599216424,4.769685219330517,6.509787543456596,3.174246664493164
101,5.073171136120387,2.166646716439914,1.961094307703695,3.521267131048279,2.0363384366287813,-2.263489502954515,-3.662988407666223,-0.1625270004749677,-7.147082297558452,-4.224557288497218,4.810225294904045,4.488686653742801,2.9847452462771784,2.21122689718633
102,-1.3396293531786885,-1.3261812239236872,0.3886995171462621,-1.1669788480181775,-0.3122551379994622,-3.274829947886165,-1.837881990516855,-1.2714422418246818,-13.613095749086078,-10.787081597865738,-2.7338743590023884,-1.3372965200911249,-4.864911505196612,-1.0195612138263537
103,-7.218900686149604,-6.1145067157887745,-2.858624161098233,-6.891117211337878,-2.5349052324574455,-1.4301178279769589,0.6017088063697074,-2.5463872595189616,-11.207725571047412,-10.773721789719362,-9.455023905267634,-7.947879086800118,-10.700650338284277,-4.267053562160223
104,-6.60908996965261,-6.384381854153367,-3.782441394044264,-6.250731986472055,-2.3430599671215093,3.323837179219409,4.203462097995315,-1.073197096650318,0.19571768259264852,-1.8801999653546355,-8.718829029612547,-7.7452152708724675,-8.117791747953454,-5.095584352079154
105,0.18907447119967724,0.1691191359640977,-0.15592362373640914,2.0849320494959995,0.1808177191535621,7.226126851833124,7.064574604105226,2.8272375109125516,13.089172564415563,9.893562362975265,0.025528258583796523,0.27992376426493754,1.889609116559218,-1.805996362610102
106,6.228736845070212,7.645543360153897,4.3949255388736,9.346034089415474,2.5626638229830894,5.179997892842843,4.6592999285977905,4.231976005261044,16.08655915388485,14.145323073509894,8.667726529152132,7.903185635964245,10.330897319486011,3.81039635581658
107,5.266981208406889,7.952597987830962,4.29081175528084,6.757563351666207,2.4691762277924383,-2.798531882413758,-3.660534349786685,-0.023261412554198967,5.1790853664830525,6.5473386351552865,8.401739988134795,6.919438499582987,9.225535840107353,6.502306548002339
108,-0.5731737316697593,0.8794119201611724,-0.35549854567389794,-2.5194386501380466,0.254295849539717,-9.232334348020899,-10.339972878093283,-5.492593231071824,-9.48920391774357,-5.457520017933847,0.6989049927876989,-0.493799168180686,0.7505549389956988,3.585183615413122
109,-3.253079336765872,-5.4362681862422875,-3.540624361830218,-7.187891106047185,-1.5370546754627732,-6.870562994385945,-7.033143863080723,-4.609607164525962,-13.305935508561777,-10.249191600602503,-4.291936590741997,-4.576899779020106,-5.285870138865577,-1.0120648507713703
110,0.21365997954491633,-4.876023680642605,-1.730867053639414,-3.037600932729472,-1.3865469516369158,1.800278221649708,3.6875860448272624,2.7604027191137988,-4.254645460115604,-5.199986514195835,-1.7117634542691165,-1.2889993326505818,-3.6705116426327065,-2.3590667174464097
111,3.2995516019955455,-0.4747598546853136,1.319800920566318,2.1757307180439036,-0.5376669427487528,6.98771411922279,9.631751660103909,7.646849771639831,5.065874391783468,1.4135550767439584,1.6314768779023303,2.459715184385133,0.19966262656139439,-1.681612267654811
112,-0.24908604706120885,1.230397046782582,0.6461572092314232,1.0980795040809985,-0.6252352943710413,4.100571118622809,4.320579508972415,3.4332215298857336,4.430383017970495,2.408685532507752,-1.3388561983893792,-0.15802331778170758,-0.7249113002704932,-2.905220724058189
113,-6.131527803317611,-0.35963838183752583,-2.2727088833251825,-2.5698308583619967,-0.7980831555520318,-1.049177742606041,-4.18229899328528,-4.737868373049771,-1.1329742668349068,0.4543367562515417,-6.308751339133514,-5.001589825516241,-4.15940439457379,-4.419357538263452
114,-5.190949784763141,-0.5613644740790767,-2.130532334916593,-1.121870531241221,0.709046580341033,-1.6182275709790876,-4.517564320920649,-6.675370108062274,-0.7155072156066293,1.4163845122106,-4.251526945283423,-3.4510882792490483,-2.480071216128152,-1.2243682729661356
115,2.487878907790384,2.0406228967838143,1.6474843076065984,4.205029064766084,2.7985475330298715,0.8432786683501367,1.9674012843400117,-1.0028938064800164,5.108760143709528,3.8754213781299036,4.042051949586378,3.542950222694801,4.207009691574947,5.257318089718301
116,6.976561974608448,3.1847814990463723,3.952665565651012,5.129566033539609,2.2906254344431085,0.5733888249859894,3.92486233894642,3.838761699228547,5.322532634669965,1.8468108560731928,8.49693312675624,6.314169211353725,6.993130099273347,7.1004207131429675
117,3.0482210730946933,0.21190626813409702,1.824961758432015,-0.35614654029954906,-1.0481854149046044,-2.6953661412495333,-2.4504249422620425,2.3417633989155937,-3.562621492959477,-4.0944429886227995,4.1823514446534436,1.2786686776407417,1.6620635322856874,1.4103894565148032
118,-2.439934224997043,-2.9766195267461604,-1.39534176085371,-4.748528191207289,-3.3141998392610437,-3.837333351113647,-7.459715478826998,-1.0769000548795449,-10.447158611703124,-5.99103642566525,-2.4880715398429505,-3.684566265437238,-4.347683778969709,-4.666886247689249
119,-1.621426848971189,-1.5614138336311525,-1.5724376670235765,-2.5620423130076695,-1.753973687723578,-0.6116078110979049,-2.4972127321989332,-0.4206044523337496,-5.1523866462416334,-0.23405105083652794,-3.7851813788336934,-1.636744452593399,-2.8943473408694205,-3.909149589646672
120,2.3609739618516814,2.398900475043873,0.13951361470236492,1.9003891240829307,1.342006714022512,3.292753164862873,6.872271771670532,2.4168752526119457,6.424838143003507,6.200501208372433,-0.8516105804615745,2.93234902608718,2.6818088607009787,1.0930026150482295
121,0.9616948104836799,2.370951233718519,-0.25393853669351657,1.8130274082855475,2.0439754416539118,3.7467212572736317,8.598325041745598,1.5263801622565285,10.10785613642538,5.013191110561022,-0.1348485132833182,1.5984302772978132,2.8150284144687427,2.5913731549696073
122,-5.620366335042346,-2.7615634105149383,-2.8985852299900454,-2.1327869754952857,0.11924561730575209,1.0738815851777197,0.743552358808094,-3.0369319600163283,2.470112871744005,-2.09802741796843,-3.068881016005668,-4.692865570965261,-3.623483790515716,-0.9917619755173928
123,-7.699175170501168,-5.929771215755183,-3.389771067440797,-3.563339251907121,-1.3714110249178335,-1.503703810218048,-6.6187955024310545,-4.952777926014109,-5.99317550525869,-6.151485540691245,-4.1243328062469855,-6.712304007446213,-7.218617090687595,-3.6649724455533783
124,-0.023346578495221544,-1.389028798476449,0.8304082292786836,0.18243217685461194,-0.6489104240809073,-2.0123524156142953,-5.3263071724376365,-0.8553805431959194,-5.9212139429782855,-2.842783483771898,0.7045986515534713,-0.15784808803486425,-1.4441750388576025,-1.0409883471587755
125,9.870301459722619,6.406103230125318,6.011022993923976,4.818498993069398,0.9245363092529987,-1.0908432436637179,1.1313863772904444,4.7914013466182075,-0.028095017245658077,2.93800723039741,7.213643883388841,8.134453928845385,7.687807412731278,3.7261644906222795
126,10.44723656082449,7.698676129495313,6.047992513944168,4.924791653016494,1.258018016184349,-0.2921626447816787,3.7015695713102357,5.359918080855076,2.9192988048767847,4.258231784629099,7.561321567070892,8.606532407325924,8.996395591331956,4.538074377798294
127,0.2866697602772168,0.2533297553220713,0.11677537324003329,0.1971015890448655,0.07488183079944546,-0.15593520932447602,-0.17517151025210917,0.06425943716314003,0.1452395298388178,0.21068499968707846,0.37998460919252885,0.3197316068735586,0.3952955477410541,0.24799644378045005
