,AF3,F7,F3,FC5,T7,P7,O1,O2,P8,T8,FC6,F4,F8,AF4
0,0.0810336916575674,0.10385811864456876,0.047577438467090984,0.07989185675708645,0.06699876346929821,-0.00940992343147961,0.055486829846107893,-0.0684917636115902,-0.09671853945499233,0.00835460821683992,0.05798745417565462,0.06444025395968125,0.03845963493845117,0.08097812541779667
1,1.7580111099781615,0.5162447699663585,1.1842362785479095,1.0666693148941557,3.609164887647107,6.638164293693589,8.782183618834928,9.393245643081602,11.035575352604228,7.946817393837397,2.629340703441786,5.888601070766155,-1.137821094445444,7.853920619255865
2,-1.4098875995490634,-3.37872782205975,-0.9372852676934955,-0.9632337628233082,2.92963454580012,8.665259956108708,6.874441435582373,7.41929324922636,7.996183632718627,6.570548442831241,1.3616610529691469,3.5324611732539504,-4.1017751828934905,4.179329254251264
3,-5.292181305999551,-7.000539452997654,-3.0202530302474906,-3.1836808476887404,-0.5774526944030669,5.093885669887711,-1.660204485719755,-1.6854826190130425,-3.8509678583348874,-0.8311434209136941,-1.899770214943513,-2.8000572765381544,-4.729201546344108,-5.317272618930725
4,-2.636815889276996,-2.924075776647517,-0.22283040341649038,-1.2096495251074946,-2.067019578314524,-0.6726616042511059,-4.83005672357455,-5.323003994983948,-8.359646710891397,-4.062218756275415,-2.1670481260477916,-3.3155772094371216,1.1354762908714398,-6.416687593890515
5,4.8230413959841645,6.58847657177448,4.875300832193101,3.2632390354640854,-0.06641043160685008,-4.36953334091896,-0.2779359794678118,-1.0124546541026889,-1.9465301052234334,-0.9565485039221443,1.3278632056937176,2.077866567658772,8.563171280958437,2.4404878860078205
6,7.421908773875339,10.340226344831182,4.706476527306698,4.254549863086054,1.7090976224703618,-5.026726434518212,2.6650254600466554,2.1474593132153283,3.3087321958732403,0.9597856065946359,3.5878907406730844,3.9337385984978863,7.604528962577563,8.013188663706922
7,1.4053083221111624,3.0172354738214944,-1.739598231350266,0.39902685999108484,0.09757811181523733,-4.347392838509912,-1.2190124258780615,-0.7904390071831513,-0.08827979660292642,-2.285128131422178,0.8449035831610616,-1.419722335312302,-2.5531705363011135,2.1097169341093034
8,-5.537657976645724,-7.098586736413425,-6.513290442242726,-3.2308204734004766,-2.7737439789925835,-2.9481193008721944,-5.13044643196479,-3.694495835353766,-3.9964481580668996,-4.548281676437382,-3.8804471931076097,-5.965641837861826,-10.528609642527355,-6.913551739955173
9,-5.587679052766061,-8.99191649472005,-4.1691638811989815,-2.9764696676479225,-2.7278609926587167,0.07146962333733226,-2.3942557600443943,-0.9585498781261426,0.6281643711061369,-0.15874359300465915,-4.8014622211994435,-2.8703417425984896,-7.330490540930401,-7.371759120865036
10,-0.8671162054469779,-2.404283007609309,0.967605640159397,-0.9498968197022166,0.43199749989237757,4.175691611633514,2.780677035419899,3.118246452343408,8.201825476193065,5.980339240717801,-0.8086349405637089,3.0841665184296727,2.17885217543946,-0.2583588858295501
11,2.293901776239618,4.305876270561282,2.8664562394352644,0.2049354451531339,3.0425519383327133,6.814107115376583,3.6883694069088966,2.346849966863718,7.136128425711279,5.528328661711145,3.978569097505456,4.016652994035774,7.221428234296761,5.186062535486542
12,2.78247991066445,5.5841731692277525,2.490414316000152,1.382512354488664,2.7544718422820553,5.917199022085887,2.144756867752446,-0.955670114231154,-2.362309492619161,-0.7068595666667249,5.374282000440531,1.013316292497284,4.88770848514529,5.210129061728304
13,2.6627121062114756,2.570885873393934,3.0367115686993387,3.0294993870948206,0.7124290612325289,1.3428465494881234,2.566950638574738,-0.7781118342096273,-9.251004817625061,-4.698923841342829,2.4425522556654706,0.0632488930624652,0.26968502229819774,2.742730085828079
14,1.3380266587931897,-1.2348761487625028,2.740736060915538,2.4999526660357234,-1.066101360824537,-5.004560371100023,2.2431373632151277,2.267215410763532,-7.18053092481924,-2.8765483851058997,-2.2775681120363678,1.2623998723280647,-2.2494476730107444,-0.09549047548858507
15,-1.834728589709842,-2.9875045626676138,-0.8923795826382535,-0.926028159036834,-1.857824237520134,-8.94076003858307,-2.742511818705999,2.8010577987304903,-0.1763883433768475,1.0618629681402123,-4.209465330658716,0.39026766407867725,-1.8699555964364343,-2.718515847816046
16,-3.609053337515084,-1.4761193415507243,-4.738546040123443,-3.2697333389900156,-1.6853587387658417,-6.468564009384341,-7.720141171696301,-0.3668469983833734,5.26256531836127,2.940518317341871,-1.4168048271177962,-2.448364408563071,0.3746987163297326,-3.2821660490388247
17,-1.5987101625099491,0.9742946681130025,-4.631230032109344,-1.947016232900673,-0.7463047744891597,0.9555110842500328,-5.6602164327956626,-3.682043818476226,6.104550813677043,1.5687980858218087,1.469145165961108,-3.6544633354601137,1.265396270931626,-1.9038191791333015
18,0.917698838275396,0.25821562462079845,-2.0606851990405852,-0.01527268257281586,0.2748283495909504,6.410941311647777,1.138066132614832,-4.777975849193481,2.2719382864765145,-2.464354194265356,-1.0413481816629375,-2.819961078746624,-2.3515153538186038,-2.274225116228704
19,0.3845482539944039,-2.9734200441002976,-0.2649682349350595,-0.42969912159876444,0.7579017944500135,5.673458363251831,4.946483604587015,-3.462264263049374,-3.1943222011245203,-5.902958370960272,-5.300952907275568,-1.5942379873763872,-6.984573947151953,-4.221932075021278
20,-0.6676652515414331,-2.617973267922776,1.9747767391544124,-0.6468077402595679,1.0242890504977884,2.1845030723554277,4.519550790163448,0.5994505663791041,-4.683374631367289,-3.423027040848662,-1.999750438798655,1.2292810762964927,-4.104000783278053,-0.9219816193424963
21,1.7493506551127,3.543604669172677,6.223917692874087,2.3903873001940696,1.5155873464596832,0.5962442185381991,4.063944408565236,5.918200536340813,-0.3065508952222059,5.132162401564959,8.302321586448898,6.4434140163635325,6.83410275934796,9.256822199523958
22,5.197001176949299,8.404815909470804,8.10028878623074,5.561261081522361,1.5097061447357563,-0.4868065905830856,3.3572273220413544,7.4661449324276665,4.026386980874165,10.924888087184438,12.587422781625886,8.924150297802866,13.677864289895089,14.953685775406232
23,3.5864480485770107,4.3969546419346655,2.481185167454601,3.2636564291758705,0.06078805017418522,-4.162344026262887,-1.5027266092868838,2.402274920332073,2.152406458823156,5.915413362191208,3.370498301338523,3.1693082090709983,6.737439301710868,5.663355339224777
24,-3.349165720826459,-5.460193769461272,-7.086564501115242,-3.8019773453300525,-2.111037065778449,-7.21693669974501,-8.345816914742443,-4.3569527943233535,-2.9096954236237615,-5.5023607425432965,-9.6319694290503,-6.899249471180368,-6.9638434650795915,-11.268371796656021
25,-8.69252125823238,-10.782354599203327,-11.217433885352467,-8.429120375360824,-3.130185289503635,-3.6111872437530903,-9.05252038719183,-5.636233647515948,-3.3151462750593623,-11.221382599219082,-12.897796847744948,-11.240217292159516,-12.706438330879866,-18.16236469796306
26,-6.8619750384115,-6.510426816848857,-6.462150783269348,-5.649659186482699,-2.1580395298151616,5.019225664217835,-1.234671768736397,-1.7091937686705478,1.39198483980904,-6.688766653625976,-6.367841206465707,-6.6516427799315165,-7.194608181353928,-9.430030996908116
27,0.4708167286865991,2.518627507134097,1.6541167776980317,1.8439852989479613,0.18851961262440606,9.40468238212341,7.208149356769882,0.9479929868621875,3.7326501216260963,1.2844514421989186,1.0750917776723985,0.6928733546568134,0.4752347666253608,3.7427092829748845
28,7.557438503415393,8.826455163159455,7.089395808775261,7.588838080411166,2.9792168040574865,4.528821360465905,8.214514321139578,-0.21535429145379836,0.2177662126099064,5.6341699629356174,6.188496285964415,5.5770091178758685,4.256240295213287,10.385454570141398
29,9.847931621380747,9.048615754567042,8.61001763826193,7.677662438138377,4.819493983498199,-3.9608513270762407,3.0523285729528538,-1.0696115278640705,-3.6626833066575313,6.228808909972707,10.567255197965986,8.374221631950135,6.562186809077367,10.502191530709073
30,5.447966918689836,3.5001584664059147,6.233106006121128,2.494002775012586,3.4513810713707325,-7.395533798806282,-1.7152759348919835,1.1365174129348876,-2.726392811099233,4.509049400786618,10.3976894816234,8.320807333357223,7.924531927497364,7.31551706382111
31,-3.8010513327815754,-5.073661214580481,-0.4958889738801731,-4.536651598292421,-1.6798092565859573,-4.03215457869365,-3.3798352441647648,3.1404765570511217,0.4521021796942436,-0.5257467836527149,0.37346304680932424,1.9134382137511092,3.3516009662774713,0.366482971933424
32,-10.785589255051814,-10.487170797427657,-7.975996262220084,-8.272358805793234,-6.580936607242085,1.1847845786848463,-3.7172735375677917,1.720722906263647,1.5011741536338652,-6.682290590318525,-12.875129495137363,-8.061148144666719,-6.350444447485426,-8.26275219458745
33,-8.10121226294698,-6.796568364734033,-8.973314937669624,-5.152382888990154,-5.813869383423391,3.7363976297483674,-3.3856666807535567,-0.687810877426558,1.771270675753114,-6.690339277066568,-14.4228981767166,-11.252857424924334,-10.413486777083543,-10.644148741683537
34,2.01963755037527,3.314240191149673,-2.1123240322509274,2.2041096144467436,0.47809988411631443,3.228804249718352,-0.9798574311353321,-0.3903079011378958,4.001782516264205,1.4246532963582779,-1.4434591855438623,-3.7083526529775,-3.0267867727516853,-3.7259770129926912
35,7.983677959226173,8.847083867625456,4.380935426929579,6.238117174806151,5.681147628435658,1.3829725937985482,2.847653059060338,1.090916695428172,4.869545928563505,8.08629729919297,10.884833141776006,4.8196814379394,5.969814138502753,3.7026674204682637
36,3.433955868546569,3.792443554761315,3.578683882707264,3.1674644633723203,4.656503507570947,-0.4879027178608565,4.712112243150736,-0.28526646245873466,-0.4961873657645972,4.150163005970178,9.233717171203557,4.679909910922462,4.704207081350844,2.9312052526826253
37,-3.6092078834715347,-4.248558446648036,-0.32370223622892635,-1.8954852748639457,-0.011018694535628619,-1.5921913812784372,2.8994519775957723,-3.6755000785789536,-8.39409034792574,-5.183599974390273,-0.9662517576052176,0.16271510695046223,-2.790865361906735,-1.4761729897702744
38,-2.3085466976550766,-4.375470798656973,0.5395768326145671,-2.009582315899784,-2.23499237531108,-1.4715302836982573,-0.44539293549777126,-3.9402876999762753,-9.327400778425268,-7.380984457712261,-5.5880726157617415,0.7029286847899012,-3.5167135612588285,0.4431152057166737
39,4.670830381348877,2.2762535737692313,4.505518248940403,1.6737673895447016,-0.842420340045645,-0.8050662942630249,-2.560881147013985,0.10461569529830825,-1.7588217004108984,-0.8816786878692231,-1.8968817110820129,4.4302347244165095,3.286725095720644,7.0610186171437
40,5.2484515341617755,4.9723168229971,3.2380744048612935,2.152344497243391,0.019623734751030505,-0.8910551188589543,-3.0309913317078263,3.3600058497584797,5.166404442801135,4.043259373454524,1.1002480885209305,2.102706991905613,5.306904781906174,7.083559804788917
41,-2.951316545687082,-0.1656479422108872,-3.7146267689202683,-2.0794136760854416,-1.6163853906334125,-1.3372478120017623,-2.376065281671396,2.447641597434253,5.370150822415544,2.5064214118512838,-0.7197689979017243,-5.414921969929748,-1.6722619763433038,-2.022208383894385
42,-8.283995877382791,-4.976069365343724,-7.110518910752764,-4.472279966161351,-2.3458322085034973,-0.13777240012836478,-0.4064990578705072,0.7408033385864472,3.5878833120917717,0.9933725883866535,-1.0909520088587032,-6.873835800874037,-6.086161446026937,-9.027260954329073
43,-3.127707020273802,-2.7168963965444313,-2.585770763705131,-1.024817342488697,0.3955401517539859,2.6805509730894332,2.1872673746069458,1.66513788920598,4.5328707186502175,3.080972375438456,3.367435106332124,0.6918576710927535,-0.09903800565139714,-5.835236464982217
44,4.415388134319532,1.9702558837634059,2.706375866181489,3.2719225369373315,3.2932443716128317,3.9467477004265668,3.1822703444872795,2.2711817907581984,3.7586055786895525,2.299755142950115,5.4122433918083726,6.089837829318512,6.515948640103985,1.1035167376146524
45,4.099271896733421,1.9776692422290738,2.3798314432734053,2.7492050330531765,2.190028118590696,1.7822165373122365,1.8935459171391897,-1.031425393785692,-2.7577506021679055,-3.9612798305075136,-0.45942871682468495,1.8689831790060794,2.4771105145136536,2.603183787119934
46,-0.7323500676862,-0.8077548503213423,0.3572773193632569,-0.3063333148200442,-1.108317195451608,-1.5042869668230083,0.35241948664344974,-4.996684465423937,-8.643577294811628,-6.530985560493836,-6.974624240421665,-4.029387559797991,-6.108037413447559,0.5453291032971023
47,-1.2190208669985179,-0.581166923210308,1.6566432762869914,-0.9809115844840539,-1.862766034227004,-3.0789420873978703,-0.48031308047442306,-4.379271291339242,-6.858453665027943,-0.3584462121025703,-5.092004420971283,-2.4679789993605,-6.344426750889977,1.114155623352236
48,1.3159419582469134,1.6487902615067636,2.57832918033577,-0.15088696274175578,0.06684702531343906,-3.0609120506255523,-2.211311763648649,-0.5275644499418378,-1.8692743308560513,4.263871500688835,1.188096604122313,2.0724145514251404,0.5584604828419861,2.4502365327300897
49,0.21673279875025545,1.180042602573071,-1.2267965622157029,-0.8883484938523948,0.9148654398877544,-2.1094669804879858,-4.391358345099954,1.6201753795547043,-0.8726928239404093,-1.0596237303722686,2.449285916323085,1.38799482307615,3.903723364998054,-0.01521807841381373
50,-2.2490254076570886,-0.8329073088294865,-4.578040769512306,-1.3634690650914636,-0.2669407107428792,0.5476302359817107,-2.9998029970559603,1.8864388500891744,0.019174359360227253,-6.310240380138741,0.2813378811380874,-1.239376679985304,2.42150970759245,-2.3644528270030145
51,0.5406114229095349,-0.1226216246433189,-1.0001525485372154,1.2016147583978063,-0.875686126304529,3.764174211571481,2.645206080884921,3.203011501058854,7.514205462021986,0.7138569699745229,2.724876735884239,1.4875983681324896,2.8090252174402166,1.3136582236007959
52,4.871167599878794,1.5470827172658463,4.631801688692758,3.461246629600133,-0.07187086182454883,3.559842216432737,6.205907872088645,4.283241715964079,14.650369944390697,11.629133491808046,7.334042615403374,5.383087700946704,4.080457686905998,5.7581694791686715
53,1.3024733815354417,-0.640733930192023,2.877179701961504,0.6798870938500298,0.18479077047976852,-0.6280019761046857,2.802563447784097,1.3776687176438023,8.226292980618688,8.99923219750414,3.74229724203127,1.1042784807035027,-0.4278099596279864,1.1750179198770718
54,-7.529137613276795,-4.423927381479714,-4.340925150304533,-4.180913498939845,-0.5279407060724273,-3.148420172762185,-2.846920943095773,-3.882991245511667,-8.717562011269381,-5.423079436801915,-7.285934838716211,-7.963205275477975,-7.711612445337453,-8.974819502612336
55,-8.302361604823028,-2.8609996590593387,-5.956207139670879,-3.9250679835592135,-0.1985575177210707,-0.19301640278520113,-2.9482385657015486,-5.413026311983692,-17.25279924383385,-12.564419204688797,-11.882500733033572,-8.665743359075691,-7.244906964341683,-10.378418583900125
56,2.1498790132132304,3.432777419699611,0.89965884805553,1.515096458210961,1.4937623888192648,3.4643229743476476,1.5470056719620255,-1.6976706890792521,-8.28673398397649,-4.655293773931313,-3.499792809403502,1.3877498866219464,1.3716409545302735,0.7163216484910049
57,10.501526973341479,5.681212309492003,6.445403833977823,4.565652918978463,1.9753328326930677,1.3583786829254105,2.542864435424499,1.947442851603036,5.070010168868386,5.044711567207659,6.848196965698754,9.279595312274324,6.592701890065449,10.863401935559253
58,6.134353344022072,0.39727804133040345,3.260102215318854,1.4287263356496183,-0.04203810535674519,-4.2555354075349925,-2.5088975177893755,1.3727910875007332,6.8721508748643325,3.96844368901586,6.832637782337382,5.556183619524119,2.7545208906244394,8.416498134600706
59,-3.8492411453037962,-4.705984645169235,-3.180971911426171,-2.5792376875176957,-2.1903854466421624,-5.372120637519193,-6.353722466918306,-0.8868896143459761,-0.19529250989310115,-2.4381722917071142,-0.10794154661771566,-3.0312594339838204,-2.2047989172066034,-1.1165897968594551
60,-6.06744521734762,-2.229505842414407,-3.721141804576082,-1.6208453865874393,-1.8978848595791291,-0.1744615467782982,-2.5174533038720615,-0.36805344023369513,-1.950137895557786,-2.0535826098682044,-2.279063474299646,-4.8285149977343504,-0.7518893709561976,-5.308654638539151
61,-0.05595724351167214,3.778188222572305,1.0714558791889917,1.9939521169349455,0.021531573378153306,4.623653683991108,5.036246303510003,2.4140605152299797,4.806567779264436,4.716942404564799,1.927224362199844,0.31013856652452065,2.7663193086588294,-2.4388239309775437
62,3.2502877221475863,4.071090585311771,3.2994774137943423,2.0864020709771895,1.0727445790050552,3.901175537391487,7.228521060575517,3.127205704423399,8.541206028968453,6.7433100497771585,3.487319240848046,3.1878810613571122,1.0728517881221185,-0.12713611679804682
63,-0.8794310257341267,-1.9890567808647002,0.2518838842049455,-1.659389946014284,0.7465100434277617,0.5220949548330961,2.245305663336173,0.36970328661520213,1.6599056066469255,-0.252311107322455,-1.472419324628226,-0.08794619710803434,-3.2842102511506934,-1.2049800773079544
64,-4.843686555618678,-5.7518660790823475,-2.766729666807783,-3.5967455040181107,0.41182325851904544,-0.707682835711396,-2.794633523453465,-2.2555300318707703,-7.721524251034706,-7.33067272406259,-5.743731277904158,-3.6566708439554056,-2.7087992730157486,-0.9812386744221496
65,-1.6739104945986323,-2.090661766220169,-1.8179455980840482,-0.8799951399137398,0.5254376468815141,-0.3312636541486691,-2.535746272870794,-1.59634006385841,-7.907502031247866,-5.338279462867348,-3.059778040692051,-2.115099987651925,2.0761569321542312,2.2668962150221525
66,4.273948724311245,3.5325143187804966,0.28011540746795793,2.718189152300067,0.1667429005037015,-1.460287541871484,-0.27267168867529,0.3315454473141966,-0.5089711206020201,2.3855253873442614,2.2449170373586154,1.7438992080078688,2.8386558617982565,3.3424518115779422
67,4.583092764908238,3.4924382071221833,0.014886238049566975,2.661554020928442,-0.8439226464259223,-3.222151898343761,-1.4538370281813793,-0.41735118713760705,2.9292065466408794,5.1229692903881245,2.448470784397197,2.3185018568089384,-2.531160348629196,-0.7839149470176451
68,-0.5401045802609029,-1.151642360155856,-0.8688925057887394,-0.46380265657530095,-1.31422713819114,-2.0867391098055172,-4.517010582626423,-3.1913465721581353,-1.383155006138087,-0.3187002906474725,-1.7775876856066193,-0.297321966512123,-5.9396216737102066,-4.796332818610091
69,-3.349308284173287,-2.926482728861116,0.9069804575138586,-2.5433804890308074,-0.4768983264115067,1.6741742199561649,-3.179210921302905,-3.0682724321439494,-4.243484995396544,-5.551494870908688,-2.6995085178725295,-1.3880007349760628,-1.1601843147119493,-2.4235118834115132
70,-0.3762852597956928,0.9215928288913171,4.030671380314753,-1.1487332127642322,0.954503317213833,3.7461820381552937,3.464965285188189,1.7601449264554718,1.8495676413873121,-2.409041234767985,2.786712803094822,0.9588459561940097,6.7758649848306725,4.073895245658604
71,3.1834635707011927,4.749901238030957,4.131140067646606,2.123914651124177,1.7210106629419764,2.0372483414645304,8.398803556013688,6.455277368104084,10.365071891525131,5.735044630036904,7.973663296082811,3.453449280488097,8.469961289891106,6.744883281423699
72,1.7329147495600823,2.701850444661348,-0.12008649541106908,3.4264218381725557,1.0127251883309378,-0.855489845196179,5.653361130910035,5.509334481407568,9.228237931712597,8.272104530027,4.832586680270965,2.309065872676063,2.080887017381769,2.382755501614216
73,-2.990541053756213,-3.3958413480978042,-5.23073763165463,0.6089918699240399,-1.0663973755895306,-1.9694398427163557,-1.9511734794777904,-0.18131152979362883,-2.156369279686436,1.2705268805390397,-4.868575778086099,-2.1808664031577893,-5.846990454818456,-4.275661292366914
74,-4.948734755674934,-6.5991000498079355,-6.568425195961085,-3.798434585454379,-2.8391853153671933,-1.287338700385667,-6.625507029270819,-4.778765168479456,-11.485989206143252,-7.394147745979173,-10.589195754711286,-5.863417206247371,-8.58118663900679,-6.948793908739888
75,-1.8054762990518742,-3.4008401888309105,-2.6137959946207805,-4.631312446640413,-1.8610349851301848,-0.024097359801709232,-4.951967128098706,-4.64945465313967,-9.168535495177462,-7.971024323253093,-5.814764646071069,-4.6026731586349605,-4.643542227404121,-3.8355483504009444
76,2.8623093577756076,2.581486141958837,3.4997609223980364,-0.4566176134892327,1.7580658723952987,1.2058259500963622,-0.5023568070878112,-1.6486451818729078,0.48021427740661216,-0.6386595193144456,3.597634758059605,1.2225494157198509,2.494561954773318,2.0394650656389723
77,4.478748678315168,5.271672601783243,6.358546014124763,3.9366675582767736,4.031802250093635,1.5619910837738689,1.9541356041768532,0.3798303698330816,6.147878578030583,5.6087283605655704,7.031902573968669,5.995625383011232,6.928664095782459,5.590638642752637
78,2.4040803040261123,2.926618592075051,3.558442823441845,3.602023216788045,1.7088656906297517,0.1150817269933833,1.766869314309497,0.4489906798130588,3.7169053422360587,4.573896632658292,2.696581875439642,4.716409755177485,4.673882608468929,3.7112161287033123
79,-0.5478447864161037,-0.7682288861634206,-1.5012678922095999,-0.06639134713612108,-2.7105086648738976,-2.115766376701066,1.1254026887433313,0.7059526810202866,-0.8028137672460913,-0.5485811102869764,-1.575244981114038,-0.5589557363435731,-1.7187933752018254,-1.2739770133118642
80,-2.103663591814565,-1.8794295695943655,-3.6061486182256957,-1.9639764434765978,-3.691175566502381,-2.529324463491748,0.9468750402882822,2.367418087576389,-1.179495043013311,-3.078843581752983,-0.5559639825228267,-3.3204115322546697,-4.932002989321339,-3.648361493382232
81,-2.3144431413509787,-0.5928499390517183,-1.7185425603543727,-0.6458991235877566,-0.12209002802343151,-0.27733282150764677,0.4411341558981625,3.350584080635869,1.4447130946275715,-1.472098206357113,1.8889207622864466,-1.5048041572497728,-1.4928699264080962,-1.2192582072979876
82,-1.6363269178276192,0.42851084800033745,0.9340421608199646,0.7234571678477606,3.1808090227539885,2.5073866945700285,-0.23295604679094095,1.4576506001378964,2.472678105825916,0.9072345443369721,0.6742662489157983,0.6005226916843157,3.775413604442516,2.232424565432438
83,0.22575109029507645,0.002229387920530068,1.5963755423006658,-0.014326126308018779,2.0842339134861665,3.3200099658208737,0.12562706971002058,-1.705122988544295,0.9168634640651657,1.8429980309439127,-2.452801500194424,-0.08343472726581293,4.136540647740734,2.6449275340092417
84,2.418020494020201,-1.1031077228729436,0.30789077127113,-1.3005754395476858,-1.5599891510555546,1.665920907185268,0.9277433479554337,-2.7272495685170757,-0.9769041852819742,1.9076362181075799,-3.066806172144624,-1.1618106598481108,-0.7192703818402515,0.45316419977691746
85,2.408248928504913,-1.9642133158375559,-1.5859170570678185,-1.1321456905140967,-2.9017003019530487,-1.1859752233550012,-0.126011217343059,-1.4155018750081885,-2.2750072416275606,1.1327757455121272,-1.336512962265655,-0.06333439373545315,-5.240417574973201,-1.9612969636920357
86,-0.47654756191027176,-1.6990682881407604,-2.602276708630553,0.04633048023297281,-0.657427372708646,-3.3152352083926453,-2.9876549387584244,-0.5939559390044944,-3.4215486834421363,-1.5121641488676083,-0.02525092123913314,1.2635917216628108,-4.960896188694304,-3.6933915123478327
87,-3.0038606623810327,0.5004020403244854,-1.3881353318026706,0.7833180339797621,1.7364995085902106,-3.1218667868103243,-4.121162311496011,-1.1891589670746316,-3.334974990824873,-4.661250079184247,0.929090355542881,0.2422848383529316,-0.4772616475201838,-3.8165159788468466
88,-2.0406190161496487,3.461761059267202,1.757334679324119,0.861956333939389,1.3897914011071113,-0.7271986448106328,-1.261054900088877,-1.0088015458453945,-0.49477609506475256,-4.4254756253546566,2.5857037969443404,-1.4038432018119806,4.205891968269309,-0.48547188905810595
89,1.0585013271357748,4.006775199072833,4.058938470060824,0.8696319585745208,-0.18763018999362435,1.641581293002956,3.0676541965651354,1.120636563776826,3.548573649997174,0.34841907164164154,3.0178025087024323,-0.4605853106706099,5.35875791798049,5.121546359867455
90,2.647386589856299,1.026750476614594,3.1030349238973045,0.815053461183662,-0.0400705630901095,2.0603629313381706,4.905889981456266,3.250556367985524,5.203680211131252,5.404367238760607,0.4767411984114741,2.2611214554834547,2.3882427523083396,7.419524958302142
91,1.8169652642216974,-2.3587494712774633,0.03410832865360728,0.33817297588542095,1.3675378871763986,1.4218635018480166,3.6855904673483075,3.299151866425228,3.4036193503908616,5.909374142738199,-2.213136570440534,2.9327490444716386,-1.6523247898778792,2.986373724844493
92,0.42047204674302924,-2.9246223842903665,-2.090838048699408,-0.4219066857736259,1.015089143297657,1.7584895475325295,1.3663297489244637,1.480466975390433,0.3630907863624909,2.0744765250389605,-1.612336073118966,0.31214766394224186,-3.0548325220659853,-3.891512671274331
93,-0.6365631035204645,-1.5481423353938966,-2.5017966611534193,-1.1163907342051638,-1.6841843019728235,2.2969972615348886,-1.3438145843594658,-1.0790109448042462,-2.0767924490391536,-2.1408257015470284,0.38693301719527856,-2.724372625065535,-1.5849140409229663,-6.230496496775364
94,-1.9741666486732719,-0.9188056890915882,-2.7944112560986856,-1.7730559696012496,-3.7230432800494975,-0.01947826001695089,-4.734248619515098,-3.6129729899532506,-3.924011879981174,-4.177103510182122,-0.3032517787860663,-3.2322514396670003,-0.4461025782323868,-3.218707607899887
95,-3.037742814704984,-1.012455291549821,-2.9977674102141463,-2.0940546982647352,-2.5367342512708086,-5.000411293177892,-6.8546834799599,-4.721173687515664,-4.623421932759563,-4.147301426806584,-2.7689445530285175,-1.4515239797807222,-1.3991629756165809,0.034067628874084356
96,-1.846082452066605,0.3199722425223311,-0.7242522291151413,-0.803339508374809,1.0797262088567612,-7.201433679825461,-4.193789965230661,-2.6285897872484987,-2.4041833014169844,-2.2700923121094676,-2.176113856203415,0.5803394151345077,-1.7848932509605666,0.6936089144717461
97,1.713343895921792,3.1480262868283946,4.218836121773989,2.5289599890271792,4.2600546758951,-2.4201157631470993,3.024986006757124,2.0399747786669433,2.3373955617007356,1.3937696128162858,2.4892317552026046,1.8194504752537262,1.383482111780701,1.2908940863033433
98,4.268238943655174,4.399053568373941,7.038379437948853,5.064124462522174,4.466512214894545,5.488342474924206,8.66105973064767,5.4387182037871815,5.382900743259087,4.407987652384989,6.037045319725348,2.233760502470285,5.4917228743811854,3.4959605915980254
99,2.4905336748144675,1.6187443330687743,3.2639652376063726,2.877648907186302,1.0407779449136163,8.209099456193869,6.6734779904803405,4.248301324466173,3.214956018198103,3.141507948368163,3.534649247396218,1.3908494442223862,4.34523816492267,3.797517764566461
100,-1.9224423428659507,-3.198359286758123,-3.9463199361736794,-2.939370458716913,-3.556582177914026,3.383985658119743,-0.9536127587892458,-0.2721473345910709,-1.5746401507864503,-1.4265810316902443,-2.9460525675708507,-0.6199572859646953,-2.5400829906000815,-0.4912182668741241
101,-3.160146336286587,-4.918653137298797,-6.293830592059987,-5.589156769864064,-4.832933384923271,-2.5843500475292283,-5.553307224586995,-3.439264094859869,-2.719063386899772,-2.9251822402622745,-6.05876115575472,-1.588393284955813,-6.922003400136566,-4.548015641318378
102,0.849705195283355,-1.4135985308348349,-1.4576822728182715,-1.4343895536737852,-1.2513424611232813,-3.5705943505788316,-2.678136396324401,-2.584021843318869,0.9882768235267284,1.5028105964531226,-2.3060357272912704,0.1973271851165293,-2.484049783353171,-2.0488530227562
103,4.00914991235929,2.855739751792835,3.1246658934493925,3.562638153008619,2.7631592149529363,-1.4629194393198612,1.7777826048504846,-0.004355575434554643,3.1441192791388044,5.093371209158864,2.713529014544891,1.9324493537755585,4.843763957970567,3.582038208733141
104,0.06170543131665121,2.1705703970664496,1.0241071035530616,1.8637074057645833,2.1760483212114767,-1.4567986051676034,0.24504365001009282,0.5823540559782933,-1.008563360974392,0.3887463441013219,1.776068609464921,-0.5799149645113116,4.338988198205874,2.5558638836691565
105,-6.696208770414657,-2.1400399624045865,-3.451898841932155,-3.630658524977771,-1.3248289771768864,-3.074618418662612,-4.813344671644016,-0.7589146286129431,-6.366383964975932,-8.123655910437472,-2.7564517161671818,-5.140027010302319,-3.2721316364861965,-5.325738306398101
106,-5.9469174217520395,-3.0418367392937626,-2.149586257467909,-3.4410466239915762,-1.8730534121401803,-1.532196227447955,-4.407871787628565,-0.8567414206352073,-4.601388903014907,-8.51189995147625,-1.9032320010180093,-4.345145198652044,-6.264574527235437,-7.932176922566107
107,3.044700464296969,1.7774970829042993,3.8825148838953147,3.322365420863261,1.3615439548100512,3.2751149910770416,2.86635548452332,1.2218345520896443,3.1273755148014617,1.4155448202176584,5.130952614661617,3.096287964508707,0.2952070443686645,1.1188929518647934
108,9.026886391010962,5.881098881492707,5.952124302168726,6.960737022915105,3.167631007554871,5.64836687192508,8.130023157465082,2.6689286390130955,7.307034563845208,10.220361776082239,7.9117173482655,8.504803831212943,7.218634376996718,11.016050212929626
109,4.864012710612367,3.1885253993535847,1.1903275058315974,2.1611077168651516,0.9163622245777118,2.7886259079830973,5.152649773211859,1.4557021307087055,3.756679638637861,8.498694844821795,0.5158597910775182,4.854525040579142,5.459222222595449,8.611683228895245
110,-2.6901944407603073,-3.29283054615204,-3.6293216029634334,-4.262963215323508,-1.8074458517169787,-1.3157584158305395,-1.4335978520128703,-0.7283217299818145,-1.5277994115888829,0.19624164898385832,-8.335644637535195,-3.250598418156978,-1.5708926730136932,-2.538557073262123
111,-4.4513543389642365,-5.982589304341131,-3.100463821169963,-4.614292847536198,-1.7683012324849057,-2.6168990838327506,-4.202552916585613,-1.5547505330425673,-2.8310821281255643,-5.598560191281525,-7.794594546700572,-6.533649410017591,-5.494988930655977,-8.425979896458266
112,-1.951253320209866,-2.9761976070335465,-0.6173397664304168,-1.158583432907133,-0.7001337949752641,-2.2137526306432007,-2.96185911008131,-1.3920251320752677,-2.239817542679341,-6.517937597789709,-0.4967713475964595,-3.5347463023292516,-4.752361647639036,-5.184134122330287
113,-1.7098913919481422,1.046778339170424,-1.1433244052929281,-0.04627122060227507,-0.8953688382933165,-2.197681041389564,-2.0074416713282277,-1.5068330760425408,-3.0099217061601045,-5.071803610377854,3.2830481696200167,0.02210362283907665,-2.3974274755368445,-1.3359203094145349
114,-2.752970561159229,2.561858072807272,-2.4715673316881306,-0.8227638730277458,-0.922412047444697,-1.3011803976562157,-1.9397779329403564,-1.1306003246062917,-2.4780442192717214,-1.3635979303018624,2.0952399490849825,1.2625595699014387,1.089026821742566,-1.0092855597112491
115,0.5567714383033783,2.596591256406412,0.47369865788196697,0.9778026338650759,1.0307153741532216,1.617993708694867,0.002215695744809981,0.9700332023037365,2.3140575546365536,5.0045189285960685,2.9573832317772077,2.4639024997845933,5.521629324408502,1.6520872955076042
116,6.313866809156097,2.3907712969008377,5.820034822844776,4.569377749652466,3.0138790028043796,3.6698704394439337,3.4557787202849366,3.2269728674487417,6.75693108622267,9.250254802973512,6.303235164807113,4.066800011937147,6.602180620100592,8.263559083002113
117,5.987015497593867,0.816677651656445,6.049124594758803,4.455758995110599,2.0594234243977456,1.830440616753545,4.35139353549558,2.6382964797954402,4.006118714879145,5.391489268518961,3.7467021042393096,2.5581264673223205,1.267126243068314,9.230074535549512
118,-1.7435716923543823,-2.1499513409121995,-0.758447616728836,-0.6487266269469744,-0.964252109212283,-1.7566718832146058,1.1703765273324778,-0.5626410942787708,-3.6486425368354145,-4.149662987554566,-6.142430265582477,-2.574339579658995,-5.529093970845696,-1.0698325899464214
119,-7.2284694693479965,-3.4847424356984598,-6.9795504628773015,-5.261453551014562,-2.4929002335119446,-2.5549052355493607,-2.403090608159045,-2.5184379601905404,-6.438760868245088,-9.248565443181128,-11.518873831791124,-5.598256325345272,-6.089129943069099,-11.816552377007797
120,-3.5419541793583367,-1.3452771144425901,-5.388131379279907,-4.489492119135671,-1.293823087629157,-0.15634568687117173,-2.589644683824138,-1.1884891499353474,-1.0454946049451572,-4.573450212516421,-4.0312105298244285,-2.3074127605485,-0.5771500041964411,-9.399699831492182
121,3.409540449962745,1.5211704297474065,1.2766043622335395,-0.014274726086791242,0.4236647952701224,1.8178976957482182,-0.34210912516788844,0.49419900226813224,4.290494694261629,3.31053414282122,7.115629254787773,2.9953181547689773,3.4504300593661794,2.3813976935524077
122,4.087346840878365,1.532437863120744,4.70859493604318,2.991407703170393,0.669555916686561,1.3162318965662938,0.9066625540462985,-0.6696927053620247,2.0191625986741677,4.957287536396746,7.770335282129349,3.355323168727671,1.7651629465170915,7.937052862571791
123,-0.7992906692857314,-0.4441559902890758,2.2639424155885775,2.3776572790622788,0.0411485821878092,-0.25689269684239086,0.2277013956474111,-2.492826021229029,-3.4805429480940697,0.5628045601850438,-0.6212426818734269,-0.6048108516968108,-1.556913397639004,2.7786587034488397
124,-2.89355915903008,-0.7567646880952762,-1.1903205633374336,0.27288381203915085,-0.012719343187741433,-1.2006021024292586,-0.4936307212013339,-0.4885453659730158,-2.9616656486857167,-1.9817671216473578,-4.627819321019253,-2.237246649372124,-1.096669281864403,-2.3574914174871684
125,0.26340376565941576,1.119652389624397,-1.600053178025917,-0.8064313873829241,0.5252482921934398,-1.3351123328576437,-0.12229876988551514,4.210475195404845,3.2140061751685636,0.35080221474330975,0.02133204916354084,0.4534940037932289,2.196589985668536,-0.4724011220078223
126,2.507655502427029,1.9093498570452478,-0.39201798909687857,-0.6055855658526067,0.6360466708314295,-0.8373895478387994,0.3864934049540248,5.157301372862151,5.563262763971617,2.258196552053334,3.6212825815750773,2.298010173825485,3.1175472108068973,2.26765709897466
127,0.09471790580919154,-0.00020382582879715366,0.08337229416268105,0.028302315880311145,-0.006220388295390714,0.20920979518501803,0.18489939702162178,0.06833820707514708,0.13092367612217193,0.09427042460212645,-0.0016958622871752482,0.10993543502546098,-0.03428143615560343,0.06860669546706966
