,AF3,F7,F3,FC5,T7,P7,O1,O2,P8,T8,FC6,F4,F8,AF4
0,0.08496021420483743,0.05792446058348523,0.06218430958502339,0.0329945400928055,-0.021376389175848283,-0.025259752565464606,-0.031700005007872956,-0.10451785122121174,-0.15193265019309618,-0.08311991271402631,0.01288156153930535,0.035300546959448564,0.004674302944257592,0.07472079803807383
1,-0.6608963664077434,-1.8278079559660552,-0.6285240458522878,2.7699169193482884,-6.6832642974148655,2.318437202791619,6.104537892663742,10.673322727522475,12.689537770756719,-1.0854762559310076,3.0043414970704876,3.955219202341704,-0.20297392149920113,-2.3039221327624286
2,-0.5696731802411978,-0.8941499975687385,-1.6031761261029673,2.858216403918184,-7.775879387274304,0.4796175943387993,3.8795709340648497,12.20845137456045,15.406469076242033,-0.6748935360454836,3.054404997902094,3.7189939078172003,0.5148719169181551,-4.13671046411606
3,0.07017250773366507,1.341722972370811,-1.9318998429388958,0.532093105145474,-2.975792666309251,-2.675351420797478,-3.0797962322735004,5.008152038481574,7.670341904288922,1.1073400107276965,0.754546344650776,0.463102231495609,1.1743934968539065,-3.344162445822635
4,0.37876310106135636,1.5416442513228212,-0.6746169703876465,-1.635871298706649,2.975163160568298,-2.0313976994877696,-5.211822081592629,-2.9550844216928356,-2.427318243165406,2.5487117551153093,-1.0830145313207502,-1.6456962728039228,0.5457547928992155,0.5238358820708822
5,0.1886616525273533,-0.3687913628509249,1.381837539263534,-1.7569606284529673,5.277076385202121,1.4930650013385869,-0.8168679926891583,-5.895657394241119,-7.822804392641418,1.9608274272566195,-1.2611502421310905,-1.1596332735940815,-0.6683278926990881,4.077520083624967
6,0.1205107297851375,-1.4463707680410163,2.4435593215421023,-0.3156630018326448,3.3266915251490135,2.8134788870524265,3.193555096793874,-4.516183838296544,-7.88087573914908,-0.26736599057242466,-0.9846839480529711,-0.09647196477732035,-1.0673271276750118,3.894338551398712
7,0.5577847974453711,-0.2605519079028952,1.9056938682003652,1.005544140763438,0.10384095376746266,0.6364967105142305,2.382466961485277,-2.4240596919911948,-5.572485884689706,-2.236907474284175,-1.0021759685522216,0.006248551131033134,-0.6629464196663788,0.8411757258655964
8,1.0268434474074182,1.3800390480618008,0.6058531043590273,1.1355997976949572,-1.5895249397295725,-1.6333078992493426,-0.30400812598077254,-1.6742252760830474,-2.833318880216498,-2.9286054182931056,-0.23823136119667115,-0.27993941062686767,-0.07824496273041745,-1.6587396698811983
9,0.5798012841858129,1.2314125586912168,-0.8563259246121306,0.06640765866537719,-1.454677663902139,-1.8203723257942759,-0.9693420985588374,-1.629088848268828,0.2281344826568944,-2.5544116015125087,1.6071359918497636,-0.46936731555844685,0.8998255165556035,-2.0711505347331447
10,-1.1860175413469527,-0.664210998788343,-2.4555709157242425,-1.4023364220173264,-0.7885698138134688,-0.9492127592730877,-0.22010623403463364,-0.12542040079239336,3.6677560566137504,-0.9009693566925282,2.1900864082775535,-1.0265776488264686,1.9748028370734485,-1.3847784967452692
11,-3.134948228193009,-2.327206732070245,-3.295658299165471,-1.9134277811119649,-0.42151844651330383,0.3353472895658917,-0.25757344516052605,3.9003344110036013,6.796303222707037,2.2547955406928937,-0.26221060828826254,-1.397253692822876,1.179042486185191,-0.6443741062964214
12,-2.9450013562746284,-1.9142712557973116,-1.8003437897718526,-0.5751638444761438,-0.08504925448702713,2.5002025585446033,-0.7534992886035462,7.764258836471976,8.125628284562266,4.831442403811199,-3.099291185222187,0.06299651398140975,-2.130410810619186,0.00327776787282541
13,0.41317153799357986,0.5209217022933835,1.6620328088430336,1.6398562207856517,0.49855952042445884,3.760231964882584,-0.3330709005990657,6.569363739702001,5.678921904005718,3.6236921809117946,-2.0956459986756095,2.867303754770063,-4.44771908272995,0.411573761939849
14,4.4325547624882455,2.7477832403943347,4.008708621642825,2.451060035464738,0.6573976714205687,0.8972115760333752,0.45653652562510944,-0.6135237046259279,-1.1729929749795698,-0.8275675193931087,1.9219340460290832,3.6570458174005176,-1.9867474615978817,0.3607890693917257
15,4.873732970256138,2.3521321837925764,2.9021416124111656,0.9710426350324464,-0.35340706046534087,-4.6957860414734105,0.36853056181715343,-7.806362174113571,-9.110323397796806,-3.599648881212862,3.4494281415872003,0.7694061963202805,3.209746034823495,0.30860694685080625
16,0.7841981422123541,-0.3458521271418725,-0.09273841569695782,-0.9863905029620444,-1.6004701654283409,-6.377134625350484,0.02572430738439975,-8.292857576176864,-11.902470187549515,-1.9162977409443869,0.5090865391312521,-2.601632489007189,5.2150215277447645,0.9581737853029877
17,-3.6056342078942736,-2.188476947881582,-1.5982931169847645,-1.1894838178147202,-0.898953839245317,-0.9790380009209072,0.6765324521179906,-2.716668329276197,-6.554437342351138,0.6104614298011185,-2.136719614126538,-2.575541642535866,2.347796114364102,1.903660121491411
18,-3.63002853177672,-0.9621909074769389,-0.9551130315569706,0.09187932564037263,2.0429400804457303,5.515508656435931,1.4068588505791038,2.202073267280796,2.3145710497035075,-0.45967235987557953,-0.6651638298787961,-0.270019479246504,-1.1474359543611474,1.6519585672654162
19,-0.06068538291671337,1.5170210785766278,-0.5220332426721054,0.5771280064856623,4.037230744057405,5.43224702724262,0.3000693460779235,2.6252400392175343,7.120060651622068,-3.221391025758371,1.6166140646175922,0.14869800088358107,-2.1154817062178353,-0.4767925341089072
20,1.9400047833951748,1.5337229871084066,-1.5311209843507405,-0.7831728750680286,1.8513574924676104,-0.061298626204684584,-1.9829710672320449,1.5159178493553327,6.141881262927094,-2.3405313675052897,0.14162760055800466,-1.7375668627671965,-2.230886047854942,-3.033567196274495
21,-0.12878875801997974,-1.4592157441057914,-2.0708824891428086,-2.200080777663493,-3.0703824320549638,-3.227179412459927,-2.5688317611024263,2.604305938001212,4.176721036953208,2.417809890154677,-2.925032237597058,-1.8283091278951755,-3.174042879910378,-3.7721919602637817
22,-2.6560758825596267,-3.526999358280643,-0.27253530066560683,-1.2865140888591902,-5.460565624965228,-1.2161774968720729,-0.6408230457270462,4.21879740938107,4.0907261466192875,5.777254946012498,-2.3751653801351096,1.8123878728231404,-2.830932491499684,-2.0100016916030063
23,-1.1784453826205503,-1.1982928803473836,2.374892824341532,1.634081000370888,-2.488887282863495,0.9980159036541452,1.3805637971404405,2.357516590253344,2.6957167347764677,4.690999246595188,1.1753836981900991,5.241181203606873,0.8383199052399084,1.0247187678762404
24,2.925076397270831,3.203059229514253,2.7750732223442327,3.4465064540680452,2.5831803096106545,-0.3225184251995597,1.7501066366354903,-2.2578978399593903,-2.6158481571238954,1.2687483285707155,2.6551637884746815,3.7348143047770566,5.290822282399457,3.548692815068213
25,4.094802821480062,3.7840822742336386,0.5255809177578699,1.8391693929325705,4.380181189673006,-2.115057409422086,1.6089260571421475,-4.637155931893287,-8.098949540969484,-2.204882654785839,1.2027627200561686,-1.6900182084148645,5.845198673418878,3.965322783924635
26,0.5254654262877428,-0.6399793665016,-1.431909915337083,-1.6442915525825066,1.8512458226630855,-0.6793668561656236,1.759553811009574,-2.9295832928780245,-8.747975763552633,-5.556286852819898,0.5953588671230797,-5.385995089729585,1.4673240616634997,1.5379416642298225
27,-3.0756326753879186,-3.8835728379996093,-0.7267368601529033,-3.072162381637145,-1.2313710376655247,1.9303538403858505,0.3576607464152379,-0.893785826220404,-5.311414139118242,-7.108927152960737,1.5292407461588826,-3.85104147296218,-3.8533851711985427,-1.9634109854006518
28,-2.065427193437454,-0.8470396958705255,1.306916816598617,-0.7836098138455974,-1.7396923147854095,1.7182802107368025,-3.3158585451270985,-1.4180752177029528,-1.3181141039200714,-3.714995340109809,0.5405209524409679,0.7171732587309803,-5.268229386414441,-2.874828574330244
29,1.6443132781990886,4.451235767912846,1.4535226467714424,2.3529489263983376,-0.6214634697478238,-0.6168530071908971,-5.383521058467787,-1.7120519105684897,3.407363635030074,3.440118288658159,-2.7551041229426185,3.5922444355826535,-1.8769952979460096,-0.27951160892451976
30,2.4322196123877124,4.039225411081072,-1.0738053613694558,2.2770480658237515,-0.16484021394733975,-1.2236912380913654,-1.8584315792197328,1.7825221464811216,9.937340353147242,8.069674745626578,-4.1375557819193185,2.590442434956948,2.3723564277993168,1.7543536110443827
31,-1.0995370556474025,-2.4392659819701126,-3.513376511329078,-1.1054428335871738,-0.35551833178672515,0.6214365063549667,4.545117816200075,6.5734205562753285,13.463550315326865,6.252308838810859,-1.8775656396547664,-0.48379044575831565,2.6522125185722305,-0.34404747210940484
32,-4.240006018608012,-6.903342902737792,-2.905084866504496,-3.578370071929579,0.14220240433246237,1.8304141140029189,6.651734499019768,6.6531119975148005,7.468502253698686,0.883047003561763,0.8495683729672927,-2.2995763317852957,-1.1744218026666422,-3.7630420776264257
33,-2.572640665262739,-3.9258249665214704,0.4939645746339053,-1.906849860426729,1.0703271938842616,0.5385827380095958,2.1298157697092286,0.9880427385110461,-5.105628943096772,-2.9730222288497035,2.084662024260142,-1.2316957803545916,-3.6528553380181803,-2.960400003480848
34,2.1519975959837225,2.4591665801729197,3.531129155791541,1.9284168716658836,0.9458855481237813,-1.5603219850051908,-3.662981334118652,-4.857960580011767,-12.875750159504513,-3.7604480252027384,3.3625928303279635,1.2289753520091296,-0.3617775761491222,1.9189384971497545
35,4.238230259634097,5.004183952679388,3.3543374628646587,3.243566981281372,-0.3816437517216619,-2.2006611577398467,-5.099422277737066,-6.173876800498908,-10.379426100579643,-3.14556980825515,4.154406096399237,1.9594702064559955,5.205857045170697,4.953660946785972
36,1.4822270784350557,2.5120130345076963,0.3383789284230524,0.8361981523206838,-1.3870347800652507,-1.2300442036209887,-2.4899242294688544,-4.204381167739465,-4.066171321976989,-2.774806134401846,0.8767202038494845,-0.2321576898456877,5.2048859134101475,2.9313885510788933
37,-1.7651775515928259,-0.21682102616752613,-1.97218956457441,-1.4199119300781369,-0.8671816533393252,0.317973733476623,0.6939582962562566,-2.1040945768512267,-0.8595526860808715,-2.397890908493487,-5.409020342767827,-2.6273078723862735,-1.3515361679420625,-0.6303025673531143
38,-0.585275130892605,0.10497201078798822,-0.8011778039555439,-0.14687418353822487,0.7321867973259579,1.7032013423356547,2.7802934660105643,0.3515929279083819,1.4312802429960763,-0.09103162317620371,-7.00823990230652,-1.6191286747889067,-6.097576457694207,-1.3952032223425042
39,2.976838435696849,1.1866769584533734,1.7868631976069589,2.2625979388319495,1.7319943877614319,2.2119902937145093,3.536683631782772,4.46157539695577,6.872412731605021,4.885963712623449,-0.3086390126830427,2.14370536373088,-3.0283551703412823,-0.2401752227652981
40,2.269328395542323,-0.6321304631095828,1.0697616642849341,0.8289254857290111,0.749369908399865,1.164085362360677,2.1827889650727155,7.5796878253521145,11.584397352639328,8.770574392949243,6.969243045500751,3.908521992911547,2.7352416703644815,-0.620682445628145
41,-3.6492161966993923,-4.312570861458692,-3.133688494215248,-4.009275821002021,-1.4997004117709782,-0.8110764097689331,-1.0177246284251062,5.322056543150394,8.928049306348695,5.938219690836671,5.545800548682209,1.1733153451296907,3.0939511302217184,-2.468073811311321
42,-7.2794373623843525,-4.967486502343712,-5.047977046118688,-5.7229706845177635,-2.287282964832369,-1.8198299583144635,-3.3408523990201697,-1.4840177209870078,0.3083757035196575,-3.0741945634455794,-2.249229370677379,-2.7390761150308394,-0.9932730267145855,-2.5011892795239823
43,-3.264847330283542,-0.8153172165821128,-1.241116908934039,-0.8160578674070625,-0.1442400730536842,-1.0491768017233372,-2.764495594899425,-6.5947350595219545,-6.8399925945238556,-9.979134766900518,-6.158724162141575,-3.5560617839535684,-2.5815679027338945,-0.026340393902351347
44,3.489167917773269,3.8732665289023998,3.7553383804830056,5.4147051967946425,2.5120016625324615,0.009171434600501138,-0.883294708986496,-6.080088921056391,-9.260285474251155,-8.312892431409377,-2.574603989593065,-1.7639774138933595,-0.23287479825154367,1.6642036992925293
45,5.349829309259424,4.614889329677884,4.265100010754727,5.860939253186591,2.177512003190296,-0.1532575214317523,0.04844154792071184,-2.3841949675445466,-8.974813487904338,-1.0536447386364112,2.1888344323390743,-0.22903752241657327,1.4675252077851482,0.9826821994461088
46,2.964056005636106,2.5247283380288557,1.8141744397806052,1.1957711601390588,-0.6674812416079606,-0.5690212935940852,0.9697747739387661,0.6304883537255465,-6.319215204120294,4.480766389823467,2.7322459491419795,1.1544488130918684,0.8407737963206752,1.0603743139237707
47,1.8968408111510973,1.1510174219897311,0.9987416313380508,-2.253454462623618,-2.1762208041830293,0.5825220340852383,3.344105609096519,2.5694319797513145,0.34111996781647336,5.519525738592925,1.019540121568486,3.7222693673196323,0.6551490342691446,3.797019509317089
48,1.9752924260342195,0.21358871238908217,0.8028865898529174,-2.0847803974462176,-0.9904414367786138,2.4011070027072945,4.52828506575525,4.151654087379266,8.287733378518126,4.037395310141814,0.4983244028255122,4.9550867391755675,1.4077897068546428,4.589961603653856
49,-1.3808743058645556,-2.777223510082971,-2.5334171399810397,-1.5660227824540096,0.11407530155670803,1.9161590750267674,0.8811101336700731,3.9306096157374,11.186798718687205,1.7340567354736245,0.5304001658217384,1.192675564268554,0.39017272376004847,-1.2836840916649663
50,-6.718602123044582,-6.067810361310745,-6.438165977989542,-2.372527969707499,-0.43571333385391553,-1.1519397989026947,-4.9891486771233975,0.9009010768468564,7.341574724063913,-0.8417725845206336,-0.40819447978679085,-4.966694458479503,-2.150924841385749,-8.961744961531437
51,-6.7042034076124235,-4.591239306638438,-4.3963211496267,-1.7336914229382157,-0.13345125962908785,-3.103497302669961,-5.905294507628768,-2.362655139788346,1.4016983401180672,-2.430213702923993,-1.1518155964091024,-6.333046220312508,-2.417304584599151,-8.195019884930014
52,0.0738723532704221,1.7964149965162115,2.8208298639234846,1.586296603657901,2.4801486854630905,-1.3832884675790715,-0.3827485856409346,-2.839604635918909,-3.0356565919030953,-2.2948606263544313,-0.7094507275274572,-1.3472879893020993,0.22040130432985863,1.7170597590193033
53,5.645221614387659,6.296607601936361,6.627943971761248,3.810715329497784,3.6897566944864773,1.514633630569662,4.3821426593320645,-1.489954850258227,-6.662077134966495,-2.037416698002173,-0.7769859237150559,3.2890223742636824,1.5704086784585476,8.919973044307158
54,4.069892132424266,4.064075735780918,2.9638483209660467,1.869443558140252,-0.03335319322069264,1.7166973865773945,2.6107008502627975,-1.1608843830449986,-9.099911655715744,-2.8745120464752802,-2.193264205639906,2.4841498035018583,-0.44301022539882967,4.932720634506406
55,-0.39959398858742534,-1.0237682140744566,-2.143639343165293,-1.3143142799457035,-5.153817382068885,-0.41514146206528224,-1.962041331257793,-1.5864869964074142,-6.731400158003087,-2.3347171399682844,-2.0718775564390732,-0.30524389588431056,-2.0501096190388175,-3.243263997476832
56,-0.8722792841110127,-2.320225410085857,-2.263741618939788,-1.2719539798372537,-4.929613858154436,-1.3632569981203844,-2.3397616986370275,-0.14197490596577736,0.9188582713277004,2.3314876003043334,1.875783965173357,0.2782401646278377,0.32984938138005354,-3.6743473180239454
57,1.8261060215621585,0.06994302542190595,0.5586061432685752,0.9607440629863625,0.7869500585743409,0.026605439849189963,1.3121531617133853,3.0229967946596843,7.5668769682258645,7.763048215260704,6.218943097580551,2.6957593831298734,3.983269919196979,2.8157945422505417
58,1.9533824695030784,0.8471884248028639,0.9350668922922143,0.8947202762368242,5.09082348458874,1.3862407782144555,3.0853860614970725,4.28696457975701,7.170672618134773,6.586774932013347,5.143565256720803,1.776044713273594,3.5631221955479933,4.706739268545055
59,-1.4357386490485662,-1.2825455434478452,-0.9595885828594797,-1.7599533360894453,3.6891068201454917,0.9328596434352261,0.9674934926130869,1.6767987850121562,1.7836917116813218,-2.0618976192292187,-1.4388630212485984,-2.2461634495330713,-1.0546349799077106,-2.0479329020047823
60,-3.7999730624438337,-2.2211886851493987,-1.2910711933656176,-2.684945374433949,-0.29453090492743966,-0.28904529479604824,-1.2238720116889261,-2.1419493598523576,-1.5163132196142388,-8.942956024982104,-6.851548744216283,-4.169451439070858,-4.504169724622807,-7.938320538996615
61,-2.792162793657475,-0.3124448954618201,-0.04337824561758169,-0.27148463234635206,-2.3383116084354327,-0.6948826938674602,-1.1875332468737778,-3.3610437467999192,-0.12159059554659099,-5.951553552765877,-5.692138041005655,-2.132184683209279,-3.270428948583517,-4.444695715044918
62,-0.7909350619159095,0.9347463973259738,-0.24135739839383155,1.8267314597251345,-2.1374746564610745,-0.3180805034103858,-1.1307667004733912,-1.6613109861338036,1.5350296988660248,2.5949226108850034,-0.09421710706449463,0.5282499349822163,0.1886787807499958,3.762987303542646
63,0.3382301368420604,-0.2958998219653308,-1.3568307365834495,0.955502892476096,-1.241557320819496,-0.1065470562877746,-2.2160826367528057,0.23533567895169952,-0.8902234509324901,5.766133749736754,3.650792175251816,1.5502710850594252,1.6431074790943747,6.485144629148086
64,1.7708845515307874,-0.6460275576767305,0.03303658592614765,-0.3855879748960496,0.1491544592536982,-0.5965345516662622,-1.775620874357613,0.5942577528558939,-5.310962727894436,1.1141352133465183,2.7982869741056278,2.121349531718378,0.7131149777382192,2.2796883270660615
65,3.788520788584875,1.9419815906417097,3.2797086626986327,0.6846972327458591,1.5417084797684564,-1.3610514273703571,1.5247968630239759,0.42967669003893966,-6.075087547991502,-3.0847129248765577,0.4020859570619249,2.553503774010413,0.3366174933097369,-1.5718857003972833
66,3.7630899401223665,3.656693034459542,3.5804877810995634,2.2587859890548065,1.2820573889097608,-0.9484145869790043,4.325072418297335,1.1168909525964126,-1.5203275473030227,-0.8394838728663097,0.38330093213542715,1.1578434910764093,1.9017364079045254,-0.9066997548933522
67,0.3166558952322091,0.9771153298706866,-0.27497348407654465,0.8366757309131118,-0.3530107485191234,1.5595192113891323,3.1976265289535037,1.8053742178161363,4.057067249277974,3.5559457992657526,2.1783729392745643,-1.570298337449102,3.0682680669690745,0.5023588150225369
68,-3.5938728799341795,-2.9131881584511303,-3.614478370559418,-2.622662720757653,-0.6783676231484663,4.117625771243258,-0.5632312530085847,0.6408012263939451,5.972132562340418,3.1211157119796,1.6391860910763048,-2.6461527077919724,0.9327426543230453,-1.236846951729826
69,-4.2239050944064775,-2.931021007773727,-2.8998432706013237,-3.7226245038577708,0.8764289652560969,3.0464232618109564,-3.1679093883602416,-1.8874905002417635,4.140220364710061,-1.9136312114062906,-2.6802880234313355,-1.4937843313575638,-3.6134819417230744,-3.519395958402012
70,-1.7611283816679666,-0.1850918527779301,-0.2749184017417336,-0.9630370276835539,1.3029592375191832,-1.7323919081701462,-3.002783002053913,-2.8069112622280947,1.3698122460002014,-5.514479680335015,-6.147380782958948,-0.6032992806224817,-5.969107258118988,-1.9833400963803347
71,0.6985931511760726,0.3939012680894536,0.8336988550999667,2.3290250946497992,-0.9128430089175006,-5.352425365422192,-1.1545412919839753,-0.6541385629810113,-1.0592849053581885,-3.729539845597751,-3.508495811012954,-0.6140553735613665,-2.901313917816163,2.000382758897747
72,1.522717966976914,-1.3848150898641483,0.5708306441183452,2.7111624945295647,-2.7556763206576926,-3.9315194927072503,0.9021987101845512,2.143591150998309,-3.5765353204664803,1.8063391281529408,3.1837885084726505,0.5961667487320745,3.194916860019294,3.4009604817017425
73,1.583143656054077,-1.0169790824298484,0.7830781774454906,0.6019752043897895,-1.2949073120865104,0.5268652184340277,2.2607939227686895,2.383792866871668,-5.173109685996331,6.128888824098055,6.1368271236261664,3.0216130145955904,6.422492481313186,1.316401001138726
74,1.6270516840535287,2.382749346537208,1.4628410002444072,-1.2571794042139963,1.59957989182856,3.2897217285955676,2.1986101152148083,0.24976824393393246,-3.55195637277757,4.987935427018368,2.1620664398293923,3.345157051526975,3.7468297065581693,-0.369189063539199
75,1.0828529730890546,4.13148528261985,1.4443231391660365,-1.2289913540979216,2.2095932113752914,2.756292876211385,0.5358217620350556,-1.487792615231093,0.7632869106272445,-1.3391628665950943,-2.887625884901847,0.24584383825184847,-1.8826252795979048,0.191103536173478
76,-0.22639854956319244,1.6911423000629933,0.5376953131039672,0.28918003410788906,0.5563320336793984,0.9406130294101082,-1.580721475888333,-1.434665791534364,3.6656221397662527,-7.055890016997088,-2.494557971589049,-2.9237748299034516,-4.928367653413159,0.379369903647683
77,-1.2638259903096583,-1.447372740326931,-0.8081072639440506,1.695403045827022,-0.34067853432119627,-0.12942946042452497,-2.292000725397846,-0.5861098743584207,2.860924237395357,-5.829438255004502,1.6075173973793293,-2.802802607236536,-2.9776710848157566,-1.4893366784849782
78,-1.4291697468480042,-2.0270546164554255,-2.2966755947543467,1.1868573998868654,0.29593978868742027,-0.24888884266576886,-0.9558256981470039,0.10689265681898633,1.2134680120326493,1.7519320028301573,2.7604196130404235,-0.580004469318666,1.1285550837854486,-2.95733621553469
79,-1.318832781243604,-1.8439310980593928,-3.0311605283675123,-1.4356774419563536,0.11985131502402604,-0.22362479345742825,0.9778438198373012,0.8399743474930852,1.8025190769267174,7.648131537687321,-0.9642774241097729,0.3565091485353661,2.6893469157628624,-1.675102782856063
80,-1.0790373032251455,-2.86755075815407,-1.6802858246136805,-3.51654970993532,-1.757974292114437,-0.8371813198606304,1.5913193514697133,1.490577876689552,2.4664574087745126,5.323541803862614,-4.7857769376694375,-0.4406288425460855,0.6425768077880707,0.7966851988126954
81,0.15003751747866428,-2.4698700027515805,1.4073089505261664,-2.1239079980549986,-2.6835386017983534,-2.0741578721166505,0.7203715721525996,1.198872867397992,-0.4272254519885432,-2.2070543933991638,-3.9199925906552293,-0.2561200561161848,-1.287271012230782,1.8762327273542916
82,2.111612889272656,1.7089720509044544,3.703107175231727,1.7208835582891848,-0.5043542025951975,-2.583273858991786,-0.1935037222154915,-0.06452495544084182,-4.952395460229955,-6.084510861400448,1.2035403766212571,2.1222210545470452,0.006383860366682634,1.8228096312600859
83,2.7228177659113784,5.916580340942617,3.294846842011001,3.8781099820004736,2.7285410300208124,-0.8583488354068173,-0.3029757885608972,-1.2750828677600978,-5.826437519936359,-2.83625230249946,6.106451366487572,3.896203623234575,2.2575012275948785,2.1133083395609247
84,0.986935409650829,4.83163448437236,1.0654868814890877,2.6305903287052566,3.3219866957723534,2.3553951501441612,-0.2865131822896907,-2.0047375097985967,-2.6139428183317746,1.8225516919586353,6.317599329304813,1.8804564378600688,1.3573371785686927,2.0542680609299073
85,-1.1713765561877323,-0.39941178073268546,-0.9627139295546132,0.3648742601443839,0.8635082831708706,4.118530576030176,-0.7401681287586046,-2.362777987300505,0.2544770555911813,1.7603620538945774,0.959021082676065,-2.597608410595191,-1.8742823192286748,-0.12301426056969829
86,-1.706686651283181,-4.017580572534126,-2.2673240926794533,-1.0069349125713265,-1.6754065440843258,2.7604297283695445,-0.8425205169751604,-1.2504851674186026,1.5917185125259639,-0.979446439095023,-5.733619180629079,-4.78493985590318,-2.8567684355758374,-3.677549436766151
87,-1.3331699261843932,-3.9213344166987447,-3.314672529505077,-2.5006856481467623,-2.1724846596919845,-0.04949158996107783,0.28387566774384465,2.4276260515107504,4.808020522035743,-0.3671104308792122,-7.476883391008044,-2.552532510933349,-0.7313604899908052,-5.36096315003976
88,-1.513710555566065,-2.7091544686765823,-3.339800847035406,-4.2130642321158955,-1.4181605621955313,-1.8922879602908904,1.587666931339316,6.100584306290925,9.422177062087105,3.3592422101832655,-2.5745823005577644,1.1053770185681997,0.5730591563145804,-3.133017770944442
89,-1.2528921896500267,-1.444473712857194,-0.8506007039768625,-3.109761284018862,-0.7228164319029186,-2.613885885360734,1.0824718270680473,4.7391070682583205,8.22831431399684,3.712716776774214,3.6384009153273156,2.497756573263203,-0.3992625800065938,1.6075720231701127
90,1.2148220260128624,1.691328670975782,3.39262918485409,2.030490311250805,0.29940136289665864,-2.960182966212244,-1.046707468461552,-2.1107495145889366,-2.402861735728576,-1.4434614355821587,5.094638826296833,1.685648128942892,0.00040473758278559285,5.5224305454512965
91,4.289021334155717,5.793695023467324,5.792486468245648,6.553418038188873,2.1245951054130314,-2.0369136422459992,-2.0839083893157375,-7.828857977239059,-14.23936899330863,-5.6953243925820765,2.1155039774226663,0.8246327159482802,3.3204249904832985,5.869704881412975
92,3.843778243615802,5.92430512818388,3.5742976155878585,5.027091912112891,3.0484689800449605,1.0120861480250993,-0.48585488512897307,-6.36986445527609,-15.241089372066583,-3.487261692249533,-0.5562179378614217,0.31334442977921584,4.655222520783033,2.034745870353666
93,-0.9494382747677682,0.1605399062102867,-1.606096688324625,-1.1257743889979526,1.0009777963359336,3.930761936603828,1.6956054907331752,0.19297363253701566,-4.04541214852393,1.6699603031753287,-0.9226257639863614,-0.7616289465130736,0.09030757282010855,-3.498174895120325
94,-5.28966649734126,-6.062187587884921,-4.924501025115774,-5.141340699197741,-2.620350884870218,3.343728375262474,1.7219611114251032,5.040234108781962,8.701865890615196,3.172588489139823,-0.8743247025814684,-1.687822880119969,-5.708867600923336,-5.9882925115353105
95,-4.316976301387017,-6.270231549696896,-3.5674999568557446,-3.597514989420882,-3.72688126817072,-0.2482005503376197,0.044962815947974036,5.088869338062751,12.854938746571573,1.239045936815345,-1.3316633367615889,-0.798309536227794,-5.372630434166686,-2.9540417996254797
96,0.581264189541449,-1.15278354386307,0.19996159937025063,0.13514891298043602,-1.0520681903750913,-2.5657082900112336,-0.8988899920782777,2.4806657502694653,8.137649681453269,0.665160220110083,-0.906348334025976,1.1205806997885273,0.20699993128188976,2.0113013707883365
97,3.7464552037029324,3.1590513453335576,2.053785258653314,1.550582314234398,1.8568035445325335,-1.227755547014183,-0.553484697938671,-0.22091661571468818,1.008239654483126,1.6509232948046892,0.5200398664289874,1.2499992721282793,3.4892238228477472,3.098235137455153
98,2.735874970931346,3.3112226050035445,0.9925728697836866,0.6673689203650233,1.8805310533139912,1.322498928117634,-0.295814274663841,-2.1680834835349994,-3.369865435178365,0.31083635968399287,1.0252248134252875,-0.7537638320974639,1.876461156442642,0.1592192130524005
99,0.470356582306618,1.3835279402601834,-0.14481422652854625,0.29784194658708035,0.6745707890110634,1.540415964532692,-0.5074783664453604,-2.799903191219129,-4.422857046045677,-2.886510131815256,0.06202611822356812,-1.7827273092780909,0.3934409975054039,-1.3852897724102495
100,-0.3256299864732646,0.12875818075230838,0.518650644232685,1.0701912797551696,0.9498938274484852,-0.7664546442456014,-0.3743194727374425,-2.0008770034124477,-4.259560074831734,-3.106643413739789,-0.7490379935900323,-0.21285691623929728,1.897885383755367,0.7581093804519605
101,-0.8970838557759745,-0.48172625851658324,1.2572118535854548,0.9736447798699833,1.2457573219715201,-2.9114062743664224,0.009860399718685561,-0.9880874023632185,-4.374771846520351,0.039535222996843006,-0.6488043342372747,1.3867371847248204,2.106646061986585,2.356991985207572
102,-2.6762674697702407,-1.2954008719666292,0.17876364589279795,-0.6888365177212123,-1.212637614695221,-2.644536452414379,0.043203735824543926,-0.3902911366208867,-3.734031656152223,1.388857815654921,-0.3409025516580195,0.7319112723261333,-2.1925653137212326,0.19092045364614527
103,-3.187102507296228,-1.5433431403646793,-1.2980543483703495,-1.631241372001552,-4.278321553598765,0.02154300281388867,0.4198517581463448,1.0614745896505569,-0.38340554987756176,-0.5656656340194438,0.4883689066966931,-0.23427963003695496,-6.167944271114232,-2.3469347142940755
104,0.4118794428018676,-0.07229375899187687,-0.8559311326586396,-0.00799511659271087,-2.964009294085866,3.076854708640992,1.763447888894753,3.3963197805824548,4.5973279980935144,-0.8575304797469754,2.4848269456391394,0.809889749051534,-3.552975092309467,-1.1875250486873203
105,5.316436364113072,2.1155121662390117,0.6667540016750426,2.2186974617658843,2.37295375667227,3.981358928179288,2.327638474888196,3.4777228692849564,6.842814208176792,2.7624254226307006,3.346695122650801,1.7056625401426628,3.4645534642443843,1.309892413458955
106,5.191224780661065,2.1690445782317647,0.60526207647577,1.4407599193910174,5.300537047337436,1.9053670626936259,0.15961592830975393,-0.2795355294588956,4.173253255984715,4.744972519529423,-0.05645989050171597,-0.7125694366283121,6.68314575949833,0.5379181121000621
107,-1.12463915699839,-1.1137945796597273,-1.1232658258139863,-2.3497742663189927,2.1298581339601386,-1.275626877397988,-3.1272248924053367,-3.8594018794201976,-0.0701511307345704,0.38200037984341334,-5.363364776820057,-4.187921313369274,2.835757206721369,-2.11626362073829
108,-6.890771373658548,-4.639872884749033,-1.8632628245026455,-4.646912275641526,-2.9354067088816818,-3.0025041284043197,-3.8749630134405417,-2.7053271108438364,-1.7075048691344965,-5.653875134247496,-5.8331430910191235,-3.2959874824441626,-2.874593593358974,-1.4762939220459241
109,-5.41382320716248,-3.585876555407414,-0.1860896806274613,-1.8629345976093945,-3.6870425037825028,-2.5757837418812093,-1.234123394775484,1.2481346298341671,-1.2867158172569477,-5.135536541694679,0.14615355416220832,2.1799379648352324,-4.305516608742981,2.345270607697998
110,1.7361428783630943,2.3707106875391117,2.3202508010168454,3.6888479727750014,0.09571648065426828,-0.9171726878187341,2.1503139533484728,2.392489980204363,-1.8678366092765455,1.8777202128329418,5.809013039375664,6.006441619564705,-1.4267275346269108,3.6954163585254785
111,6.721898971474552,7.121470575845887,3.0879392086472044,6.0582272078082395,3.1128348812672244,0.9476589850741663,3.5913139800558187,-0.2150459035082666,-3.612026810727688,6.581552484775327,5.051586067331438,3.5769566705376143,1.4074794644819932,0.4536927196481393
112,4.520364615902339,4.797190977809724,0.919375758639086,2.639045733881149,1.6184851187834646,1.961637783521958,2.3093219210893645,-2.276860546156275,-4.1027587976399085,2.8339589886434715,0.04196900601322118,-2.5102852672146927,1.465190309931769,-2.943850745009369
113,-1.8774759370609415,-2.5434081720783492,-2.8595438169072502,-2.8703528413242374,-2.2178451197858284,1.1692103693464408,-0.7466765318039051,-1.2219124158393317,-2.202736763045489,-5.027016869513219,-3.204187971549223,-6.12264776220626,-0.054213628386829686,-2.788350641802586
114,-5.343249779341099,-6.861934610816676,-4.538774699205364,-4.9888756743137606,-3.3448074086630006,-0.6572775979055394,-3.015852979854255,0.9979119831795769,1.4336414116404763,-7.44494064480924,-2.648443314249746,-4.10563121541274,-0.6106715756127961,-0.6269106752750647
115,-2.675080407334437,-3.919412851568109,-1.334789736983398,-2.517631991416123,-0.21852730422263605,-1.143217343990934,-2.06189272261886,1.9702720700068133,5.560447889190148,-1.051128587267167,-0.5199007845764242,1.5781357748657319,0.4331729057255267,1.058181147571857
116,2.1016281425137993,1.8705432925487528,4.007724229597478,0.9841698776361579,3.1700340289526285,0.3378851674093501,1.057013207899465,1.5609199995563758,7.476700881638536,7.139209464991481,0.831978642865098,5.908290302561425,1.3374068509590862,2.1827300073544915
117,3.034986666002172,3.6812376517876655,4.967968179944972,1.9997737275105674,2.446161154089221,1.3937550408646515,2.4462296713621727,0.410419010996391,4.144165600172309,7.740889818610681,0.6092356055658654,4.808801539126467,0.3469546989355682,2.3462852122441666
118,-0.09202507273558955,0.9001154202402086,-0.02881547079319631,0.8686687849518167,-1.1354065543605598,0.49538492840918685,0.7975226534917824,-0.8860354797070091,-2.664473624333511,0.31159748098183015,-0.48818417289028715,-0.7110986104906739,-1.692705651702992,0.1660607437298486
119,-1.8761217372846695,-1.2297828170213285,-4.359723314011758,0.332404237920394,-2.286218091261012,-0.4115365356516178,-0.9186195748502186,-1.120059238092493,-6.1312459602576945,-6.0754808433466465,-0.4448955206887352,-4.755950676502258,-1.884494258873377,-2.7876984569849643
120,0.43225589433206857,0.2855632034952718,-2.4102363067375188,1.2099596147039984,0.5575378859643875,0.2213994328824761,-0.6589107769992669,-0.03894569313200109,-3.4050009599694597,-4.667967496143608,1.5717374938922626,-3.2607827886433967,0.6923093543090559,-2.585702607124131
121,2.4894247816079553,2.130912684354973,1.9200246430201207,1.2362230154645053,2.5136339659900013,0.0044053520825202575,-0.41641427570127376,0.0305819868684971,-0.5866901916049014,0.40205837993329996,2.6973749225142485,0.5794441312083097,2.7461550365829495,0.647940902218499
122,-0.18887270571998652,0.38443913190250495,1.5349237499350001,-1.0684164726931513,-0.36594476543974425,-2.972147441401379,-1.8342433760563588,-2.385438146447523,-3.0594524112944868,1.2899492474204262,-0.06755490132543458,1.0618746065888598,0.9436077143289432,2.1317264689795086
123,-4.1454778805512476,-2.8692211386128177,-2.2490586069343954,-3.1835624316638302,-4.191986582237924,-4.709185793739963,-2.3871908955845837,-3.776086593403838,-5.248926327890822,-1.4202129793546239,-3.8948413577995407,-1.1823838292625695,-2.5499870522318457,0.1431465084251651
124,-2.5223432456910606,-2.527307905182494,-1.9932663123865104,-1.6927693246130198,-2.414228239679572,-0.1377953796952816,0.6794988366539636,0.2716488164382664,1.399049359914697,-0.6881072587125856,-2.884148023397891,-0.5093063811808203,-2.4963400392713075,-1.2421709139480195
125,3.632078626883704,1.3034852448801828,3.0500945652668285,2.1524147775820417,3.631272384910512,7.400430936633055,4.935705080712867,6.872637065230314,12.454546755657734,4.2274464673340715,2.419169949412163,3.646631516011875,1.3017757368454852,0.44641709847839905
126,5.614134709781192,2.999456718041119,4.992392520735483,3.3032489226346704,5.528571543331009,8.272227808168674,5.022733781736792,7.511391109138181,13.274177001710491,5.620219900944166,4.434600503099131,4.818146300089939,3.1116018994387136,1.79419545869321
127,-0.012431366847002023,0.03533930488120056,0.02636920107582381,0.0072256810859794435,0.09784475020572883,-0.14847330672506384,-0.11123924578441705,-0.18119771010995653,-0.21143003220339046,-0.07536297619766616,-0.1308416388795154,-0.06366708422704208,0.12190476312817522,0.03474438756055452
