,AF3,F7,F3,FC5,T7,P7,O1,O2,P8,T8,FC6,F4,F8,AF4
0,0.1270290053440253,0.10088104635899306,0.11700402772954636,0.07665087101548364,0.05040487875640177,0.014079398405513387,0.10330587698518086,0.042103529501002844,0.03942309316214296,0.010940909155703005,0.04783698667855948,0.09200907051661808,0.04495062492366734,0.055160761127409065
1,0.8317916980624748,-3.9635128915575395,-0.5633902457965814,-2.3313037325288146,-1.3693752062269577,0.030535987227197532,0.7478696793342985,0.7281823021655686,-3.39861052840633,2.30149669203536,8.574550481192544,2.4141228418932084,6.484402122918109,-0.6466033901251224
2,2.1806891687060768,-4.28114906231592,-0.2827296854276197,-2.2558441704544325,-0.8440029782987849,1.9290863754482774,1.6308957842563858,-0.7115943515891286,-7.218180292416247,0.19746777935202253,7.1427263918374395,2.1812875197227806,5.179765236406391,-0.9370965871184632
3,2.5389935695607093,-1.2149288815736927,0.4290691222089064,-0.1637966764645119,0.6859159413087396,3.312251177860263,1.8946765392323972,-4.048779784457584,-9.410800149843709,-4.2110200058334675,-2.269244139659761,-0.03405316736635473,-1.958197683585912,-0.6609539502564887
4,-0.08013818533899054,1.545794048508805,0.06479797825246413,1.3631639500028108,0.8779251463577344,1.1982552865957394,0.35323863786500925,-6.207913334690736,-7.346154508367782,-6.061453709083765,-8.622080452717803,-2.219537350818355,-6.554121376267527,-0.4251723869167496
5,-4.079916463052419,1.7292728279092398,-1.406389753069849,0.9474501120162342,-0.38189839177206875,-2.5510285541961135,-2.4344227023101648,-3.8114384584712018,-0.9540317554319107,-3.838218457567616,-5.338672090682734,-3.358168081895727,-4.273246704089055,-0.8085744573030238
6,-4.790920582328153,0.8422754311276606,-1.719060990713299,-0.229589192799429,-0.859631159391368,-3.4981487225578762,-3.8191983897629562,2.7770420062906145,7.058141992171679,1.3383339182017602,2.6865651452374424,-2.5899308573190596,1.506155285218936,-0.8750865783025567
7,-0.30732231780050223,1.0528445040733234,0.5830841852696279,-0.40787422560217146,0.33705538446598504,-1.0491998755121874,-1.8517019522420521,8.455207831203946,12.796627260056866,7.502886204792653,6.1835100009455335,0.9290784880027547,5.044749893845088,0.7198766583355715
8,4.943217599133838,1.5967068328164113,3.1577568463671333,0.4255465447932099,1.1655612895225678,1.1592773626161876,1.9374295225064644,8.031546308757168,12.227161520111121,9.981294058038213,2.5546343283514497,5.068399382711062,3.8422989544752015,2.8432081869164127
9,5.042198535030101,0.3715311496157288,2.462005595012271,0.8572547301192281,0.003345891458427147,0.9382633620477946,4.016856177779538,2.0424610685705122,3.675675298023214,4.060730553666417,-2.291568339867671,5.0961619796078494,-0.2998520468710392,2.611270652028158
10,0.24067042702309052,-2.076446443278676,-0.9712835893818684,0.18719854127495228,-1.4187897140963466,0.12588225130012176,3.1077152007084323,-3.806254632647639,-8.227150150447516,-6.5302893499205945,-2.119079269384007,0.09097465886520947,-3.2570745387447335,-0.2046369735772111
11,-3.4424187905168537,-2.891436504281252,-2.8748797912273685,-0.7377529541466431,-0.6563238434481794,0.8293026737560111,1.0421608750155253,-5.470373617281076,-14.153797623282005,-10.54456711118181,1.8335545213917206,-4.342393332045216,-2.3473696578474255,-2.3148902725101745
12,-2.4429366279537326,-1.0704570187477132,-1.3022282582899112,-0.9093971811041002,1.3402820152589718,1.9349050856964105,-0.8519153310938801,-4.482832038229595,-9.540079162574399,-3.690365309173522,2.842215287270233,-3.410822627540175,0.610199029570183,-1.7240577997672761
13,0.2184737846703432,1.2163271562954312,0.8108236597156407,-0.4475901081924778,1.5564029717860075,0.9891551798174354,-3.3106489676845365,-3.7195960478929093,-0.3014512263395026,4.424321961677513,-1.7485993669171624,0.021047932040007843,1.5414908664194817,-0.4584072617594403
14,0.3865028787747191,1.8205719382378418,0.40043315534325835,-0.049861999799292,-0.413466567607544,-1.9063614221833536,-5.66182401883586,-2.256593727223532,4.807923623013507,3.8598146621132985,-6.067083870773244,0.36470078961739016,-0.20113458048076835,-0.6984823376350185
15,-1.1772248103338607,0.9870316887201196,-1.1888266518038884,0.13604421562817529,-1.896392048343102,-3.7396886442613515,-4.204404986392703,2.159750715355319,4.953741660056775,-1.653080780187027,-3.4848925269671893,-1.6642072190487698,-1.2335703283109265,-1.0880540082060501
16,-0.8902934367196713,0.01331421116132921,-0.5771260352604579,0.4451932205380751,-1.1612579626790898,-2.0679094675001415,2.4300361009461424,7.296789359306828,5.186056882763112,-2.0503059543615314,3.7088823980117707,-0.6333462486398996,0.2526048690542415,0.5653447458955833
17,1.6725587577410084,-0.5533213722214666,2.244732914019897,0.8477360301800217,0.602023170466487,1.8912433273394058,8.517668820050888,7.600411797521405,6.020690556254243,2.922717218593517,6.968673507622928,3.9260010132350227,1.7732790248678096,3.0573981320047117
18,3.104348610872884,-0.6826476412063623,3.3888236443687796,0.7728198383290186,1.4438253055517587,4.220773563117502,6.751061046521589,1.6478987116807746,2.566723267983825,4.500859755580942,2.8363809871298633,5.556999260364164,0.7306454641708029,3.1526052225362426
19,1.248602029890315,-0.2889341109814599,0.40608317977981595,-0.07283660759002528,0.8850996585528332,2.576649133191129,-1.5782855713011374,-5.090818870670525,-5.240870712565891,-0.1856431653671481,-3.2302454035372565,0.4707107384162659,-1.6694862005842928,0.2334842134178958
20,-1.5938703342381237,0.4266735033812238,-3.608558866803849,-0.9334659911810806,-0.1765238856972245,-1.1499807616501352,-6.916519369329966,-6.481779985721672,-9.179762587109474,-3.851106248562399,-4.695359466516878,-5.725754153147336,-2.295046432871299,-2.8673757157130764
21,-1.9122657739404034,0.881754139035372,-3.4555476524101993,-0.6367730431817632,-0.5984210329625763,-3.179682076067303,-3.732166328091109,-2.5498469510216992,-3.74911311191735,-1.3414205297332713,-1.3356493273158403,-5.052374127982289,-0.05550312281479951,-3.4323528916612274
22,-0.09301531337607968,0.5901174774447837,0.8353362904216877,0.5550510774362095,-0.08902041677190216,-2.1224678908034407,2.191129520198721,1.5482037841829375,4.640092898418695,2.286481074797848,2.341188182515457,1.5108396733083254,2.9902197217226165,-1.3863607416257926
23,0.24798815129102803,-0.5893476761789675,3.3632195010164585,0.6002331978969712,0.33939274301004135,0.17423712153790938,2.315636108739693,1.9990775037469617,5.400472084913173,0.4560539863351176,2.713275047264669,4.970449747879354,3.4436052176101537,1.4973885433354788
24,-1.7707467380464796,-2.0997617340377817,0.6676346652165861,-1.3943077751222375,-0.3702502229533998,1.345602953277425,-2.550145538171927,-0.05030668490157501,-1.8270696671706896,-4.205923568389758,-0.2816809759519933,0.8490582597909162,-0.2042796014712892,3.078205133208452
25,-2.2565018976521456,-2.307617068573883,-2.884553052841151,-2.706962469871408,-1.455214926277483,0.845119619769723,-4.123615784730724,-0.9896947709506017,-6.60753735842212,-3.9086181769034436,-3.5392136216875545,-4.490475981218907,-4.84307278819195,1.860950719855333
26,1.3030103164269482,0.07086633604958632,-1.6042329133967308,-0.14048831824174796,-1.0207347249532652,-0.06044640425710239,0.9132828695249839,0.71677259468993,-1.6121804845789622,2.439886094248627,-2.947992694889853,-3.0181733847604155,-4.744713289622254,-1.3471261364665272
27,4.816444722541466,3.388175670412692,2.5619665132198954,4.3246800658219975,0.9904971255487877,0.08206760247633228,6.31576109226162,3.024176889979471,7.863529813634043,7.203002761114179,2.1779370141973087,3.3553996467410365,1.1509152536057707,-3.149467327469593
28,2.791779963689338,3.8732227442405858,2.9442603111553756,4.661624181045979,2.1601748603203954,1.024911277474507,5.270181289702064,2.790783311822462,10.345878633385475,4.03841701144001,6.325310059272458,5.5288614715216005,5.969484358944212,-1.2936042464530964
29,-2.7244674257975308,0.5603066483559771,-1.1546919077115851,-0.7481691420857312,0.9692661143554214,0.8753185950336826,-0.7521776070597366,-0.5304538821823261,1.7466569457317556,-3.64470934510775,3.2751456860590666,0.4527328035367089,3.2709002248586074,1.9450249859212596
30,-3.988990017679279,-2.611443098771347,-3.0186503597972285,-5.465650169558478,-0.7418084116041533,-1.0726751006422395,-4.92017881173813,-3.806408276017973,-9.815578388563104,-6.43562167557609,-4.478959995265751,-4.402385785393806,-3.0053985739497295,2.831533028151446
31,0.9120167056006663,-1.959276790143165,0.8212679483899347,-3.2548032690237982,-0.4795128227561953,-2.5691371166400874,-3.9015354659797508,-3.4746214734783707,-12.740662916617076,-0.8505289769999058,-6.962221971644415,-2.1285022041044988,-3.4144191151340197,1.4167759683516084
32,4.267232626113993,0.4257883161110534,4.437914379801602,2.66774844434873,0.823196546577111,-1.298568627955015,-0.46647291725969015,0.027805059485989016,-4.273033513109585,5.212652591584315,-0.40322683694968503,3.1704570076733805,2.328871197908796,0.13604149222949297
33,-0.13998202096564602,-0.3262253290032961,1.0767772937492293,3.583968616579042,0.05128702059665037,1.503836333103418,1.4993599031590499,2.5269521944662645,7.118758185151962,2.470998332272827,6.0049630685940585,2.4117302149847566,3.8987346093792623,-1.2441711408926255
34,-6.951565443608391,-3.9565506431684048,-6.119310256710055,-2.117553424226049,-2.804189816402537,2.71879535076763,1.292467748931559,1.564582891645957,11.459981478527201,-5.7525501596571305,2.776126249042022,-4.421197128431557,-3.3636419668876023,-4.205383613933313
35,-5.9981775175019365,-4.251002447838474,-7.569610474347183,-5.859619981223602,-3.6501162390323327,1.6504462262809763,0.40989716322043324,-0.43292781763728155,7.100690888851515,-6.548211287628144,-5.232431434450767,-7.286803439697801,-9.273579105505938,-5.870803198997802
36,3.200797784054909,2.225066882249819,-0.23828099834727506,-0.7478722490491704,-0.009236968271038027,-0.06010520747309751,-0.1948973409269263,-0.26322325044195155,-0.39809234317101905,3.6159000084799473,-5.397574264043894,-0.36353784970654907,-2.9661321650691073,-1.193116132438674
37,10.228752479951813,9.765089559785602,8.214260162625155,7.937474757776137,4.776109501836067,-1.768846508581227,-0.5162509664668591,0.9469982552170116,-6.270343890271758,11.454987402654625,3.5469446759518695,8.984742219719433,9.8061597076197,7.91337837867863
38,7.376425900315494,9.383791400729088,9.142488513114476,8.988477970849413,5.403979486284947,-3.663913534965388,-0.3746792461577367,-0.004859785567557642,-9.4790024986911,4.822142766040948,9.087883749180092,9.654618307262824,13.089932782153335,11.593283590388108
39,-1.4253107938052438,0.023435360197010653,2.5611574181894623,0.1794899426707036,1.1897201094437486,-3.8613365647902507,0.6667387459488148,-2.353487626473856,-8.778856737095248,-8.793665646598326,3.364360568406926,1.1281333407093475,2.3493150166507752,3.86269807378814
40,-7.354248538371472,-9.70050669269978,-4.79126654657313,-8.828592719142868,-3.5589701420373423,0.18953610797607665,2.2655574534188356,-1.853393718179523,-1.6474006811760786,-11.510726882153735,-5.704953088819774,-7.063149758277887,-9.893208292597354,-8.384478855102097
41,-7.3843848619939205,-11.47055858665392,-7.7591968398362745,-9.264324240810378,-4.876777414234877,6.458276889740021,2.8016279199456084,2.214085148128645,9.820720290118627,0.13459056348849033,-7.064646850528109,-8.216457291921747,-11.247137706652444,-12.736507818380009
42,-4.501667997970253,-5.672312902765787,-6.236055971563138,-3.208853029600971,-2.6781873803908858,8.311379297315531,0.5524394730233094,4.669886284701877,16.04235293590416,10.364485273442222,-2.2622918059376134,-4.674631323905175,-3.8925515418353887,-5.960400256662032
43,-0.7468885940521396,1.7042672472888474,-2.135913187960198,2.241102291526485,0.5984828095021351,2.3473248819738,-3.871403157734267,1.4027684042619972,8.933967963772146,6.032580731050378,-0.010446969103699147,-0.9251664070747038,2.1598254057058344,3.4750049419158713
44,4.555643974281426,7.020588473855809,3.25033391218608,5.269616249617529,2.7463200480417584,-6.174710383174368,-6.603589449350786,-4.221017255092897,-6.523665760241374,-5.854890366515238,-0.4443620063457199,2.997340882812433,3.7986621878204287,7.394510976666328
45,9.89785749342783,10.077093117613336,7.930318661666865,7.860689209427792,2.867374383062318,-9.063407032068826,-3.9532407804903604,-5.367838742892481,-15.512601841255089,-8.74426461377058,3.525588364373869,7.776837769439733,5.790506077577642,6.569424799683288
46,9.876636709366224,9.416828151811712,8.21672059652278,7.803236136899007,1.3075020949844778,-4.972957135479105,2.616300560943583,-0.8301327946821532,-10.28599682265795,0.726099560303624,10.221816717324089,9.417400112133624,9.106890418415908,4.918325832448562
47,1.419156527853426,2.348138976386852,2.2769179784646956,0.7222343710200705,-0.619754683844295,0.42592847092215086,7.101684784950732,3.6688662229718783,1.0921304267840897,9.369006418662101,7.918508398967106,3.49507423089059,6.553460621773345,1.4299112396219673
48,-10.040207702685509,-8.780476224871526,-5.83926817836086,-9.830904165849715,-1.5118075774710054,3.2739432520680016,5.769744104626819,3.4195243112896696,6.254173274682328,6.268907819734251,-5.860109593267972,-6.655298047162035,-5.628057786769359,-5.646443440157889
49,-14.205566063596038,-15.006441239075786,-9.018869735779674,-12.864553450348918,-1.0732459447045222,5.247827184680826,1.1960787108157134,0.3561350230768207,3.9011161250920785,-3.7114285190051133,-15.800189972610777,-11.65089471749115,-17.112538028131944,-10.765814220770116
50,-6.974638190802672,-9.732086536526147,-5.027535512750397,-4.162138611250497,-0.2230873321029181,7.344692499392658,-2.0140488041447293,-0.8853718708398166,2.0161656147505114,-8.652408131754632,-8.795622152446377,-7.0470129156056975,-13.281085205415296,-6.453531639117421
51,4.419983039903687,2.4562460766332794,0.973047706241573,6.566111472645541,0.10070529116025442,5.798817282763916,-3.066929828425384,0.2784180067500121,4.049133783448469,-5.016460037420804,6.2880623401863565,1.4481375141070758,4.283266201845018,3.925795386251957
52,9.648849663714001,10.291784204256441,3.349133244296537,8.127838006073421,-0.11280854762885692,-1.7544719260449222,-3.955498243085006,0.5172542629878529,4.6549717649865014,1.2698998703594846,10.702763557842275,5.646904127189602,16.61249082576943,8.305058236362795
53,6.851723287317247,8.821534187865081,2.6470105586477626,2.390799534893865,-0.29561698009502846,-9.935662835032725,-4.522345019112736,-1.6037449511838036,-0.3714054731802147,4.689942891004376,2.23695720983622,4.425689778622993,10.807636843101275,2.8340859599044363
54,2.367952071674236,3.3862280933186284,2.729960536103436,-0.5679841986551766,-0.13886357710223254,-10.653052329303755,-2.3339181654516326,-3.230836439085636,-6.776240594814966,4.633176201579774,-4.10201548813425,2.5928256192810935,-3.793056124279807,-2.6123343325643407
55,0.3965463424231921,0.17581209551460564,3.808200000138671,1.6956662909003466,0.29979119236391777,-3.1993878717954036,2.5386102755769633,-1.5180234982068206,-7.615601894330209,2.3077005106154393,-0.16981307572230436,2.6663088941454234,-9.411012118659968,0.048208444718599266
56,-1.3065496965197207,-1.4491833430080237,2.5159029266377395,2.0003186325326374,0.9841325991977029,4.947646449621145,6.068079710320199,2.02018369858912,-2.3197140049215736,-0.8190595990858228,5.061308636428037,2.2185011525524554,-2.663005039189312,5.058071446977095
57,-4.611262024653539,-4.30268818115986,-1.7839859732614736,-2.993743968366367,1.6570628937742693,7.251605376855629,5.0771893193412305,3.4286743248381413,3.2339864855633573,-2.3351968496633004,2.282072297079604,-0.8065573563465062,4.822786394248037,2.9774477173766143
58,-6.161036083186134,-6.347659683385009,-5.130563423925035,-6.729263137631082,1.3444491707236903,4.5295995658245,1.293107220445004,1.5482936314272144,3.7908568314146893,-1.3431306518039585,-4.1700174188612324,-4.397007888525818,4.077174348322712,-4.3836154920222645
59,-2.90798180839063,-3.7529728081397455,-4.479547465082422,-3.4422299253743582,-0.6799233856331434,1.6174932242545292,-1.2799241318007455,-0.8692235539626937,-0.05766563672338842,-0.6663323536300509,-5.7292038250960315,-5.612849736518531,-1.9809552600149078,-7.692275227335299
60,1.9242467088002144,1.6881317471746626,-1.7404921948956447,2.510053918481777,-3.105126691755485,0.6488452161376769,-1.6933778439274672,-1.2666170169535649,-2.662927240116471,-2.57398060125627,-3.027446485678069,-4.361806097714356,-5.938213202383347,-4.256469996855053
61,3.031344482344973,3.9640463977657916,-0.3219929962116394,3.4021618867174133,-3.29414400823217,-0.2732716068520417,-2.397823478029418,-0.3566623508452603,0.7556424316570828,-3.9500994455173744,-1.4683432550491873,-2.0464912367297865,-4.948667794972517,0.19570755792341127
62,0.8019208801394888,1.4582878717408099,0.01936539892611567,-0.3929498977207829,-0.6320415101920696,-2.872480286371798,-4.394160541002664,-0.13845496182187747,7.509849479418396,-0.3827282616260025,-0.3262063682838582,1.2512733117933574,-0.7923998340214382,1.882183290518972
63,0.260956687511633,-0.7444126829189143,2.075731146563233,-1.7377385394702622,2.3724218490227194,-5.476319488441291,-4.731964186755418,-0.6283858941822962,8.481750041664917,6.045241287781701,4.238197925282439,5.666986402015705,4.0263187321933485,3.0592225587310025
64,2.9164606957984383,1.3517383721772356,5.672108726827543,2.1924851803399115,3.2709668745005516,-4.904355621800843,-0.7367447295737779,-0.49519187717974567,-0.8877208299200008,8.006212209237283,8.93626250242446,8.704176595507663,7.157460531350736,5.327080561181531
65,4.1867690749640945,4.461815018518765,6.37836140063224,5.775871321953906,2.2016027563391667,-0.722296061562861,4.89845186446406,0.056971994405517354,-12.552312938558897,2.3976948779698044,5.958133656159703,6.394636801968901,6.034934783209309,5.483571193892486
66,0.5103674898626397,2.825123020641901,1.3782891908619832,3.0837836448529607,0.3630057873468883,3.7835945475569344,6.549966084562298,-0.29287314943551357,-13.728884611811084,-5.165855668234148,-3.9727240267716404,-1.4427532661173514,0.3856731456722634,0.937311568874276
67,-4.404363402780354,-2.9328838848564955,-5.261534988499244,-3.5844243513726615,-1.6373138579227726,5.23357107191556,3.2741750725288647,-0.7515428842356937,-2.1535612803206625,-6.789153706728508,-9.661615850393925,-8.599477830804812,-5.316691509611167,-4.652518323302819
68,-4.126029702491358,-6.0662765120742135,-6.563935546113978,-6.5172917664119066,-2.697731746715039,3.5990515346467293,0.10761558843878563,1.0360628651983048,11.024124564636569,-1.529607854484417,-4.101023346089733,-8.029049324555416,-5.6035090006507255,-5.342390176460366
69,0.7902692450842135,-3.0875839632445037,-2.006652902669117,-2.9093644394019247,-1.3768045123998585,1.0759649678291887,0.05370613718317652,4.002525019979051,13.459629241373039,3.4454357656716716,4.925769406830265,-0.7885477147593094,-1.257508953802716,-1.501568950528529
70,2.490681359812253,1.3280866272700904,1.273272793307599,1.5393044205504525,1.0951432963578855,-1.224338245771472,-0.7706007042901466,3.174874925142128,3.5634202632368095,1.5527382435786339,4.772151966746212,3.9503899395431876,0.9477444482346955,0.1948771011958193
71,-2.818768571725999,1.2458020362772528,-1.1300298640725492,1.0172338099534128,1.0762424257559289,-3.369510495920014,-5.768567545825579,-2.780314629448769,-8.921109594801676,-4.388685662546396,-4.430636614028002,0.6479035280644402,-2.014329239431564,-3.089629690849892
72,-7.742190634150385,-1.8443049688739583,-3.799361625437307,-1.963776766109257,-1.8759481311962287,-4.15331948389099,-9.615718821096438,-7.288011553456122,-11.903165682529385,-5.148888017737734,-9.370468519319388,-4.380628393160423,-4.21438515826755,-5.019988859005931
73,-2.9548996376895293,-1.402869204371424,0.37955128106647823,-0.7504590835571335,-2.955675088467067,-1.8040812797221573,-4.458136353760616,-3.9633107436393837,-2.1232847762675324,2.214736463160494,-1.6926340872303338,-1.6579690506743248,0.45814164648685507,0.7627107288241545
74,8.754110436877724,4.0553974636751215,8.358442080035564,4.760203247726262,1.0955385887910325,2.276263303911464,7.053931391781472,3.765342524979011,10.72003357438995,9.367614039674727,10.462219775242996,7.154737147385867,8.118949989910995,9.85239512679567
75,14.331411818409464,7.901192002940889,10.024652832678397,7.353363581125837,6.115538503472295,3.8714651445275714,12.935810296255271,6.900227709009629,13.165158876711581,7.921938458061727,13.271318757179497,10.899217793913047,9.62276977120642,11.781782326266754
76,6.940915106713665,4.1363502191473955,2.315838056939548,2.9003084589690347,5.543544435038046,1.543213481483561,7.268776400482264,3.0294851067443735,2.6776924316585933,0.6814386303467844,4.416393387439968,4.492062415181304,3.268000718678068,3.994019161424306
77,-5.678800375767621,-4.145904230822709,-6.680256021664775,-3.9885792269189695,-0.601339168157172,-1.2679654813775272,-2.7786451685778917,-1.955678550259212,-9.789636855093258,-4.231005867780732,-6.441457290926392,-4.9346979308088255,-4.0022223086477045,-5.50208806218322
78,-11.847991020755313,-8.374239864926631,-8.914856719865812,-6.834349125482734,-5.960054711629329,-1.5010842462989793,-7.669313329949897,-3.4555429451976707,-13.010268115789591,-5.869198923761699,-10.999431078296666,-9.14950940118538,-7.220394603795466,-9.494253242196399
79,-9.313666095936108,-5.213856420953439,-5.457848285483974,-5.1326614683951455,-6.112075003249577,-0.5798454770664502,-6.4613976235189226,-2.8783920662330016,-7.063996983524159,-8.441522920591286,-9.186283998823649,-8.374462560680366,-7.918203341310671,-8.896178750171588
80,-3.82965252728153,0.22063953854007948,-1.7385627204543785,-2.250901738543248,-2.635464796575757,-0.9354136331104769,-3.4866808111614636,-2.22484869051805,0.40309194992350306,-9.624086462426435,-4.01931222057731,-6.014887635529932,-7.223265724726954,-6.81966128716842
81,0.9324693905025785,2.3372008259359727,0.9031937022241581,0.6277166678102439,0.9984136273381126,-1.5064099777545576,-0.24568744578121704,-0.3037281084157082,4.841333768834273,-2.075601924311545,2.997724928664019,-1.077225387094314,-2.0981478305607237,-1.8470068917183071
82,5.739616944603959,2.0574797130613405,4.372935714647961,4.191918275668676,3.600786295741705,0.15512021647276011,3.8834307487642206,3.349886305140004,7.397914783832063,12.041190869667512,9.540936213573113,7.592548241680281,7.6953537474673785,7.580024827539011
83,9.74197843263747,3.0349547905540977,7.6168208262744095,6.760544226664768,4.983825850692273,3.209490130072282,6.6316625477098015,5.498547219336662,9.317764406363551,18.80193582345767,10.94394353635967,14.06756669992443,14.496505014967704,15.593146592901173
84,8.680187480566087,4.338262110851783,6.5720246513091,5.051232920656617,3.8628018267206343,4.118101129969369,4.6084751803891395,3.2271035532965664,8.550534891321051,9.855735589141572,4.752890410846273,10.375971776094689,10.303676716563666,12.736144288149939
85,1.2136647533377964,1.9878100956298679,0.41045690091367004,-0.5937067594617003,-0.10198837560354264,1.4005589610432259,-0.8528051580779609,-1.6766425877057443,2.6776915931840817,-5.78395239382387,-4.869466775447018,-1.8394114153933117,-2.4808872508490247,-1.3389642131620718
86,-7.0169504042229836,-3.359856994736152,-5.978387062975332,-5.321089690143264,-3.954357982322765,-2.4793839893126766,-4.449151432016113,-4.891984193417452,-6.942941112888,-13.395890715782752,-9.999861025010432,-11.366345215180402,-12.408612112919167,-14.20667298259872
87,-9.066856366757108,-5.894488968244088,-7.387856983943824,-5.452572173660414,-4.254598660547581,-4.273000918756986,-3.82994381819629,-4.587743801315779,-14.87896900585703,-10.207236931479809,-6.7233772350383445,-10.573660607344431,-11.233170774645842,-13.782231335541033
88,-4.759366064851915,-2.8481573752728604,-4.02673297200078,-2.5288205379739375,-1.5351533477894819,-3.4374611527485652,-1.8227686548461481,-2.2223932872144982,-15.167450397629976,-4.467667765665455,0.8459587285424519,-3.3949173614941452,-1.9990496967204212,-2.5867296949602094
89,0.11999371022210945,1.6071692752380764,0.013572029410375955,0.022211121312961976,0.797106352215144,-1.5272666000608976,-0.9372413055011726,0.5295019840615954,-6.004505296197242,-1.135980933014526,5.082653883984563,1.9327607029040128,5.668356069782276,6.015554765242912
90,1.8494827595095105,2.7071804793543754,2.3227144891060947,1.744772838089093,1.3248604753812132,0.6934882118594601,0.19859507171521246,3.1257918343026234,7.566174244705105,2.614296711162803,3.003650805899902,3.1724501349574745,6.025585934666494,4.9191775756272555
91,2.2311249960857125,1.2075491125308315,3.5139524834022935,3.744068755395055,1.3470255711451324,3.3485032378872837,2.8117837154484397,4.580671005323019,16.210700192857914,8.119768769220574,-1.275343051198493,3.396845457346533,1.5046122519508567,0.4650089250409585
92,3.5970581160522985,0.37316382068233495,3.927801987646096,4.410919077837346,1.2964004467284966,4.95206426990305,4.3291810306689795,3.373820032902772,14.056568972586595,10.286197331248987,-2.1933714686892305,3.918927365908806,-1.8436243494358706,0.9876934501073702
93,4.415323626456078,0.42787134019401074,2.482608814776403,1.1239435576439567,0.1499455735114942,3.066458485797017,2.2571240140166022,0.07933385184918243,4.459023974440479,5.338252280398821,0.8761391179712406,3.148080854749884,-0.9172302510173609,4.715963626963989
94,2.301770367453902,-0.2695985801362031,-0.5372354605879514,-3.928861790437611,-1.3012030130937202,-1.3533466601981554,-1.1277806738590685,-2.2615257747235544,-4.024151747028505,-2.473920630764048,3.8873875263915383,0.896801896482526,2.2867592377662116,4.103475537030857
95,-1.4224327239868304,-1.0301448485957458,-2.5650665370488053,-4.709038902363142,-0.556611766191327,-3.6797913384565204,-1.9650352124987713,-2.0449860018479455,-7.322504541711301,-6.474379067282827,3.4378753004910885,-1.0144724284673563,3.4419264210553933,-1.92307277721079
96,-3.540247845916306,-0.15014189115522195,-2.2007305801153882,0.009737332098031404,1.9035342299900846,-1.9651232126043419,-0.8358807665250223,-1.3916839936712506,-8.239844023984217,-6.116427573477183,-0.04409326158296742,-2.3021153335263143,0.3536468728683476,-6.627322239052616
97,-3.681487447848758,0.9519625409846654,-1.3499293027761796,3.616577234187678,1.9058041673094759,-0.1904614669543599,-1.4377307011359037,-2.594092400116727,-8.98070351997952,-5.2331365779427435,-4.031811521249785,-4.342123221141642,-4.675660182003954,-5.4452728076761066
98,-3.545728462431573,-0.41671578975620066,-1.946532725533238,0.9195790957081539,-1.974029317714572,-1.7961370959520528,-3.9542388976328233,-3.937170609863311,-6.426377930896523,-4.2347781583780755,-6.311737518044957,-6.126757780319349,-6.789469356376361,-1.323193111045354
99,-2.4473823359636078,-2.658701632699673,-2.2865179264734605,-3.569588016447583,-4.761278549620501,-3.278620807025011,-3.8854787284847863,-1.5854724439083634,2.045312950605594,0.21464911177816193,-4.956550458978483,-3.816162150616969,-3.289297327831124,1.1847417564136709
100,1.653195964685305,-1.3200268644351698,0.5536966914654964,-2.136796333010005,-1.6795248715975413,0.5674080450154549,1.4030719217209684,4.615976282542872,11.672057666215618,7.588664335994995,0.9115051084992529,3.515774016579677,3.414628699645664,2.1954532174378776
101,6.531908997472105,3.166598016951879,5.2099846797175084,3.8784340363163836,4.089893183775919,6.951153745402595,7.795636212261138,9.270501861387807,13.781699054804884,11.030704279588914,7.900174683461456,10.09933978636658,7.651376364360307,3.823800567909761
102,6.46570389183893,4.6529160537356296,6.281492307522246,5.495570470071573,5.044532413703798,7.205584166674094,8.397369707686591,6.672952193791357,5.6591094388878895,5.537130345700664,8.99887932454799,8.740000946795409,5.639489903877741,4.731915591575928
103,0.42143322758198287,0.3382303240001047,1.3320903091663094,-0.2980588699645534,-0.13526719773512266,-0.7187892148647163,1.6498130731591458,-2.2331455347718974,-5.8979236752195865,-4.482912292440355,1.584123844033962,-0.3041595636789505,-0.7401839776146485,1.876277002333564
104,-5.295895014624222,-4.534701874335156,-5.049715543643623,-5.864892752943493,-4.662083069834825,-8.12182828574455,-6.520172206923929,-9.625481059816726,-11.40023284641395,-9.628161013713981,-7.238631507760957,-8.569758271161335,-5.561235124627666,-3.4771519608132615
105,-5.176084097560161,-4.257668466542836,-6.531439137141966,-4.271674786466647,-3.0025225162226246,-6.781732329483806,-9.059615396334937,-8.857786468964957,-7.778497567343589,-6.385928097472374,-8.131230063381432,-8.639314197702854,-4.920590254886039,-6.043164318505939
106,-1.171881856483853,-0.29283469471078616,-2.541030026910592,1.3296644056459959,2.0946753577853796,0.5872352433447581,-4.77056660412755,-1.6056992348211703,-0.17498952823248842,-0.05469416382155695,-1.2907885429988957,-1.9711875404046078,-0.8284339325042872,-3.4002878001008137
107,1.625432665716308,2.5454612829996273,2.243350258881287,3.85911465457808,4.102817370245326,5.191526445581344,1.8584043745897663,5.009115157460578,4.6176317410433745,3.2368389345285387,4.495135847510608,4.199482939873558,2.1159296149305873,1.2035819107710948
108,2.071457181887446,3.2785266647845352,4.331819448734736,2.4411936569390305,1.2702544685547061,3.8602528169320403,5.9986839121660775,6.789932844419059,4.9682160544227685,3.5638705112977394,4.085019826386619,5.56207458417591,2.6070659093812063,3.8915076038795253
109,2.0186065027623186,3.3247620108042093,3.8088226527841282,0.8888313271175011,-2.359053967785393,0.7534582278684212,5.801322797791066,4.653105557658703,3.5844191940546963,3.9991465495033935,1.0592365554951606,3.3565321370929424,2.416530220269972,4.073953240685229
110,1.4062803215720823,1.504306303369032,1.311654843500639,-0.057646153842832115,-3.0173591948682996,-0.6568154438200929,1.9809034186081955,0.40396292490883257,1.7087054598494253,3.6391011349791698,-0.3507032873206714,0.0005112153094059962,1.5105166620205095,2.032074675936696
111,-1.0208954772403525,-3.4121313749381783,-2.7980266137163072,-2.41753767683903,-1.0901411074118836,-1.4190682822255127,-2.8476128353048162,-4.369852511255496,-1.8902037826006541,-0.86100485853902,-1.3453020661503032,-3.382752565871706,-1.7718101507444253,-2.478779648571371
112,-3.513215213348657,-7.214045956619484,-5.789744061248531,-4.670042087187596,0.9620529674637281,-2.593426510180667,-4.896982033083914,-6.083868931393767,-5.8184294603192015,-7.181627526976745,-3.3228497729150495,-4.97342288858923,-5.309193592043796,-6.577190685375467
113,-2.592304733400917,-4.175850916659081,-3.813789877608918,-2.591580869132886,1.7569959313858785,-2.3310245075764313,-2.4028587500184995,-2.0797592671279572,-5.235651139503433,-7.532207001447846,-3.1674087922553817,-2.5669772950059913,-3.861183798130204,-4.714909037365625
114,1.2692885161027152,3.5336909338368128,2.2122055450000784,3.0937884403355254,1.3109832803180663,0.32831692652912364,1.7012074951269989,3.8259340888403006,0.7822608551121011,0.05770723379931324,1.0146560291942766,2.3505192000468265,2.5242737578489973,2.893732792569395
115,3.449109394392127,7.0579330509834834,5.973071047087793,5.932773973324173,0.19054478161740876,2.6811982614738548,2.9261018570441695,4.690041639706666,5.762829627818355,6.991743138042117,4.675843480330721,4.769586539973997,6.450931772536368,7.686504573310115
116,1.8627581092072953,3.0435065277214703,3.753898763245697,2.6805707144712803,-0.6902251271757426,2.162909991182867,0.9344091517621377,0.19433610065589127,4.344862035293487,5.767211442544332,3.3168883558042923,2.6750778712781487,3.2269839922440564,4.128600412999294
117,-0.10084547904083158,-1.7901161361579658,-0.5241725474638713,-1.9905796822204798,-0.5949359649227917,0.1891467270727711,-0.7997178090679143,-2.8256081159923334,0.10272919036355566,0.5255766854215038,-0.10736103124114743,-0.14144204610249245,-2.1230314402830297,-1.7824037695784605
118,0.35913954104864737,-1.3215038483751207,-1.6726823672640356,-2.700676032848399,0.08330552511848179,-0.48227228935454125,-0.7654401830136316,-0.8474408276107573,-0.8948523014867,-0.8646424432828694,-0.637214306967967,-0.34430460399653595,-2.643651654837271,-2.270387935318663
119,0.4547535918860623,0.9736277751584297,-0.9576322766279521,-0.8651067425019456,0.20015054020759893,-0.06583269675037981,-0.948222417934249,1.5372071633121944,-0.182048945962879,0.2688184551273715,-0.0792319014578909,-0.2694076396393304,0.19643416508851777,-0.26402588301746444
120,-2.8209743248119614,-1.0381350051694582,-2.4136254202223166,-0.8210292920123071,-0.5054004459261892,-0.5672180362199778,-1.8827293806976149,-0.061957920966519836,-2.69521896108052,-2.374272376101294,-2.7600630431733926,-2.9544782391880147,0.07325522226717367,-2.723762652768039
121,-5.592153127317823,-5.154011600104287,-4.4172062103480325,-2.017411123431051,-0.9586789411367345,-1.7631516215380378,-0.6714659215783771,-2.5344413883209023,-5.724851992152529,-6.776485336026739,-5.806361207250434,-5.39218982940239,-3.2036729132168014,-6.339749830655766
122,-2.0310778278779495,-4.174344900616733,-1.924498482901388,-0.6562778212177799,-0.31089474759179997,-1.485077373132493,3.4536812045370273,-0.9145920325508992,-2.291561139291082,-4.763717766053715,-2.7546719770872214,-2.5118828571566296,-3.5884043535961854,-2.2644594342115965
123,4.93567667792635,2.018836998348935,3.8084211836430866,2.6661627069889686,0.7666741289594938,0.496864449057278,5.453403245428205,2.820884851859192,5.272123902230253,3.3111189484170653,4.433033107340822,3.741594239591292,0.8221206265886215,6.767238880966139
124,6.100315198822187,5.79295595091409,5.56684200298779,3.1786913664914542,1.0023545082825733,1.8272240600385545,0.8028296699295785,2.653183481067765,6.551290077441974,7.470431353668297,6.622179953099602,5.970562765024852,4.603618523768396,8.077553993187072
125,0.16367603948982332,3.524681912274097,1.486847965499502,0.007567855767104954,0.31021346803939126,1.234951112255256,-6.482601205665241,-1.5158128742639725,-0.22282892713713126,3.6132326150189558,1.662123772221858,2.3133694594939,3.775396216258923,-0.4111766684742656
126,-3.5614330851011538,0.2260130906481174,-1.7335936382644395,-1.9219492900862867,-0.2005148862001537,0.2298322205055424,-7.386997114201615,-3.253407314853135,-4.294339358175881,-0.6805665449929498,-2.187338276419001,-0.9542119519492144,1.1536331221150868,-5.521690279844744
127,0.045555176013277354,0.09815593524481525,0.08898131505625749,0.12137308395112638,0.04818217854114017,0.16821099882107743,0.1580610661854466,0.3156462649478188,0.27569169955531925,0.23781042247404302,0.10295692982839635,0.1535524662026458,0.08707450692924923,0.033319825906234585
