,AF3,F7,F3,FC5,T7,P7,O1,O2,P8,T8,FC6,F4,F8,AF4
0,0.00984793617218472,0.027238428828758876,0.0015215114498203786,0.010296941704301999,0.01795340812543532,0.0307494125049359,0.018416030259227726,0.03699857128644221,0.06264539817580624,0.013365912194697158,0.024964327331266044,-0.009239532338415443,0.05824942484538635,-0.010935111660771442
1,0.5745180700486973,-1.4976388374208778,1.1757325304644008,-0.4702047338038492,-0.8141690774867401,3.691330324510955,1.4464385541416722,1.6694181048532286,-6.087113109196598,-2.655578091973012,-1.2866739315284361,3.5523695362110614,-10.920599464436933,-6.074867648916327
2,0.45679161568385,-3.047213954587887,0.3532136837512261,-1.109470763437617,-1.762539800412054,3.1461921216042503,2.1926121995374936,2.377289614277745,-6.026394141515792,-4.22589653725787,-1.7910367957133542,3.7023124912420475,-9.960671114754524,-7.905277784769182
3,0.7812182666345275,-3.1736319742010184,-0.6900499040991821,-0.6359638926819958,-1.6220298875929564,-0.7355549584437042,2.073492974935764,2.373851996160004,-0.625568153633101,-3.044871224612399,-0.7407107877173836,0.9617192662917043,0.5500309172860229,-4.135290481139979
4,1.8103016470292321,-0.815091954405849,0.18026416875195528,1.1953195894690687,0.10230642200861707,-3.2180819779982515,1.1442236620095576,1.691008982888918,3.844984888005652,0.6491808107498728,0.5922169680569201,-1.6090677784088683,7.228952927173636,2.0562247054281437
5,1.0528795547315968,2.2039058992820735,0.9902120126354998,1.7603456381357294,1.482388863585252,-1.805109344567379,-0.6944680127541041,-0.6897924848217888,3.049673684492097,3.36187051349111,-0.30919594416103674,-2.5789022559517667,2.96828163243152,5.3417491938114665
6,-2.5717609186430117,2.815000315963972,-0.9581568444148454,-0.7407956487686919,0.7441096092285501,0.7743908798987253,-2.9737441416273644,-4.357392018911466,-1.258027824444582,2.2624764844747935,-2.455865894280478,-2.665492785963234,-4.070005343362166,3.8018468933416996
7,-4.961217934620519,0.9466440878183934,-3.114297588415245,-3.2254670221214763,-0.673055307217555,0.8753859058621501,-3.7090212812020167,-5.581562394922121,-3.4785555635304837,-0.46515113691681154,-1.0509831189189394,-1.6806239246551202,-2.33057584624287,0.8377880811212638
8,-1.7209317974525389,-0.30676137721178715,-0.7944645431413172,-1.320227529143629,-0.13688381565678487,-0.6256111653422047,-1.0549376107283188,-1.3196589536071461,-0.09985851497385657,-0.4432563140484168,4.766123492619183,1.5209267166506157,6.242370300253161,0.12317363071545687
9,4.283447696387259,0.48855727257479625,4.137662739258825,3.4156514441158783,1.8424635365323585,-0.004391197029862116,3.247090902898986,5.173038692706151,5.573319935650605,1.968936167314269,7.77810010510329,5.062068777416347,8.400912266256494,0.4696438449258634
10,5.527954266529922,0.9003498673082034,4.413787088664905,4.50474838679687,2.073468041076615,2.854722344245746,4.434474938196482,6.772016532964573,5.838555271875011,1.686855609212056,1.7069228087957036,4.158594026093384,-1.335103123043198,-1.4748868238733897
11,0.45446421539426685,-0.9801251322816167,-1.2850944486970495,-0.12014740289679873,-0.47895703651156235,3.4028759976228957,0.7547899981156075,1.601451680192445,-1.6807215239779367,-2.8125102902188273,-8.11535096877695,-1.85157008820791,-11.639665471619924,-4.647203405217275
12,-3.9616797317730623,-2.7680644801744383,-5.142226942716701,-4.5089663245106895,-3.011503668638484,-0.7902385625287269,-3.337590755300884,-4.1083468938932,-8.818110652951619,-5.671109435802834,-9.926191513530489,-6.315408513637996,-9.019237760239555,-4.109046381152531
13,-2.3332184640478584,-1.4369763951741983,-1.8678465324793248,-3.0802742726482752,-2.831149385102088,-5.405164877293198,-2.887415151868497,-4.228263374072418,-6.25335321979954,-1.7211519920926617,-1.232803720805388,-3.4641824877489396,3.6619817584342447,1.0954774260143303
14,1.638557969863984,1.3372986131294278,3.0738168369426737,1.4418521115262504,-0.7032926968429821,-4.622836404198443,0.7043714904999546,-0.3007064373391104,3.1997863339946453,4.9127406711551025,7.4600025613265295,2.9765437289903227,10.608752223498584,5.262638661064394
15,1.5468778286591196,1.433204348189925,2.1897649486119883,2.5115672263242317,1.007713232587457,0.7109423674237177,2.2067229974304756,1.8690168406789944,7.375553664279525,5.544369822399508,6.575852623785763,4.592857930002171,4.028804687375655,3.6809045653106027
16,-1.9135955804276332,-0.9503267057455896,-2.4640463648399535,-0.4840020565329283,1.701113828440673,4.129487441347079,0.4616078388385734,0.43715415883810327,1.5887671491290727,-0.7613472538245561,-0.6300010596005009,0.11875619736253396,-5.949937288935665,-0.8628619294544957
17,-2.707977297871343,-1.2366768887736854,-3.0625627168530114,-1.9448002719212294,2.290178768378902,2.6254325297043652,-0.6991379073630557,-1.2116808857151316,-4.727352862555276,-5.313013698603015,-3.8993267465673216,-3.2955244094373892,-5.531495740300039,-2.4743776954500887
18,0.8754170921805522,2.0158019750706613,1.7554825999940178,0.9280587667375768,2.6311295006084103,0.2152731446216558,0.6894634358877791,-0.25993138433306345,-2.0745373389775743,-1.8640212339535358,-0.14261142235480564,-0.8849796752118954,4.014571915181479,-0.26177671140708325
19,3.781505688505986,3.977677797450167,5.207618389243037,3.7901440556628585,1.2395044490764395,0.7042919789891825,1.532659493973498,1.8604412519175109,4.9297983807303245,4.3849514372367615,3.383397878729346,3.1978020333265778,8.419026026512462,1.4525559152797467
20,1.9437747482444636,0.6851770775070092,2.4009628674267156,1.8002361824397533,-2.1147794381185783,1.4576531459484132,-0.9121227613142748,2.0932935617872603,4.741015142976582,4.104403498961012,0.23942835899334708,2.578004179019017,0.29232701558687885,-0.2909066208666941
21,-1.9237327680505352,-4.1951863968270535,-3.322860534981136,-3.02336745610527,-4.872382996323961,-1.4628726708245408,-3.92294071589572,-0.04521710912995229,-3.187596831284357,-2.6829141145869837,-5.4969306621276655,-2.100378034198733,-10.214277056446303,-3.2584696950795995
22,-2.5790119719468576,-4.134421375183857,-5.343987132551425,-4.634395470024689,-3.9823311914975745,-5.255342219673169,-2.7961632845083084,-2.125343781915163,-7.242599764967524,-6.446658344398245,-4.836111220794968,-4.507665936518124,-8.812073672502253,-3.059214267387959
23,0.333618975349406,0.5930525811198336,-1.8797203569406635,-1.3655724435368621,0.2912923443628708,-3.619847372925691,2.091562308672502,-1.9694097656806333,-1.4081936855068988,-1.7219738165404637,2.595773893095419,-1.565447349075206,3.354940873743593,1.2106731722426083
24,2.1941515049139495,3.2841141626111496,2.6919449404063625,2.4172442120207127,4.009403608766051,2.735490605789932,5.142298140254848,-0.11142839467754075,5.429216281348469,5.226737934027611,6.969178391906099,2.8537849973338103,10.917500759547984,5.2162355935199844
25,0.11291632489368746,0.8454574003189046,3.482988599698523,2.8093797402981475,3.8489164523202355,5.611895911078533,2.771421853817913,1.1487595080193846,3.196198861372128,5.455593797752969,2.2066203997229197,3.561326275556098,4.868385279046282,4.0408658791807115
26,-3.072128874601852,-2.0127825262668018,0.5351620859449002,0.8507537403039108,0.9442817993891669,1.2314943931362086,-1.9674725045730925,0.6440758221742653,-4.008469902760246,-0.5389315211825968,-4.682316842603412,0.5032443261476924,-5.791994217900515,-1.4908878939022019
27,-2.6548664970205067,-0.5904057630642241,-1.8586981543477354,-0.40268562049679685,-0.9550110245740132,-3.7040823379087553,-3.529618200682972,-0.36939385698116656,-4.598766908599071,-4.66739742685488,-3.535731197464918,-2.0325617231785276,-6.899335628703661,-5.037925641062195
28,1.578279724565225,2.6408811161649215,-0.7487336436665901,-0.2833450700418521,-0.5989998963615585,-2.013362381536786,-0.9501975323558507,-0.011988313842875912,2.7558286655927335,-2.7585525863476876,3.8736181480912633,-1.281605060692371,1.9633861031349549,-2.54278925492425
29,4.814655658832208,2.4295717213039887,1.8549993218966987,-0.15910806010091952,-0.29684601999304344,3.176054397179371,1.5624903677064585,1.5608177143922846,7.541422995843117,1.2716723481490189,6.049104438820823,0.8877293064070891,7.8923921324398725,2.2817421465209473
30,3.1563448689964146,-1.0066652817452406,1.8681073426381338,-0.567768555851039,-1.5859205911802472,3.656520855142802,0.776614874461139,1.9779748430169424,3.021321723741672,2.461540506826706,-1.589901792332194,1.0226498333319034,2.3972496534511105,2.9809814537534627
31,-1.6201657387430597,-2.819955883033256,-1.291897837720349,-0.8098467394597184,-2.553185817124167,-1.295914139249551,-1.4327143309330566,-0.4056836608263696,-4.989071992536884,0.9151738921650414,-9.496352823200507,-1.0923047441651836,-7.65925950305389,-0.637076793879561
32,-4.443284104400349,-1.2262293001060176,-3.833231266644458,-0.599627432691392,-1.0997843504160452,-4.605953773964861,-1.398514557494172,-3.6950937407833795,-7.185010310308079,-0.5719433751150187,-6.546690767409681,-2.2211183233120275,-9.266439957558516,-2.6627889620804823
33,-3.0181074539781365,0.39704798947097597,-2.4356618256648956,-0.3341801926767143,1.4328660890568679,-2.4392819262373946,0.8873898067335867,-3.838695538584427,-2.382013760283758,-0.9725927757675991,4.792266503823041,-0.33375157440319775,0.09747219262972019,-0.22969665033849296
34,0.2607905058466675,-0.45003141020679815,1.6648414022818965,0.021513832781143993,2.3693184401856566,1.259636086088895,2.12181696001055,0.3298665623264381,3.3379091762668707,-0.7255265887623469,11.14982102132638,2.351524365569711,9.422589448063642,2.4453514061879
35,2.140928140112208,-1.372977754332001,4.245744947311634,0.8489425548935933,1.7127071420227908,2.0140632999086128,0.7570471395787837,4.632878475831958,4.948545953054551,0.17619225647863818,5.223972953936408,2.3860542387241663,8.045567843631662,1.2412727992907138
36,2.1476059286606333,0.7599255674962416,2.8303793816174836,1.6878878586530444,1.1638679316265848,0.7752184022398764,-1.0351763429223206,4.042715364742859,2.308411821601532,1.2548135947682642,-5.278851639121896,-0.09967281009829235,-1.3877590896109344,-1.345036171286699
37,1.5990625978056552,4.228855675017316,-0.95618852622011,1.3862380865266262,0.4703844155874407,0.44215602789657443,-0.9495198359101169,-0.8520139905410657,-1.840410103629344,0.8081054117198331,-8.108863713180943,-1.8139632223023605,-7.194470789993908,-0.9356139085703907
38,0.7415104784122719,4.151082630377227,-3.4386599939309286,-0.28578935038854875,-1.7265179698331412,0.8341730683891957,0.2823702798557642,-4.253558145107829,-4.241162034275171,-1.4474086401452655,-1.8841244426714552,-1.1508530070067433,-3.8925708288237697,1.096403036432289
39,-1.1243889922153254,-0.6769279665096842,-2.6692060286330292,-1.9656220300711702,-3.9123528662827143,0.27904762862693133,0.6724718463466759,-2.3364548580584894,-2.5828871530198483,-2.675790616909103,3.955486703744868,0.007315254609296877,2.1061599276745153,0.37434094576492083
40,-3.0702836097812645,-5.45196713183421,0.09659462362903826,-2.012046365888315,-2.5644466547121216,-0.6190734079290098,0.16175331989267433,2.2890847852339697,2.4320154977587585,-0.40848643918379984,2.9472866780855784,-0.04936407849952948,2.9455087217161715,-2.220798876439547
41,-2.563718184710235,-5.09959174682691,2.2896779492995556,-0.3112344268356748,2.0840691904801676,-0.3244662620857713,-0.008906623669312858,4.1772529024043985,6.336231163252475,3.3548242838859528,-1.1354164041814676,-0.1731090349398388,-0.24281649965704383,-1.7038610088169264
42,0.7618849829789984,-0.4443491354546593,2.489817709843445,1.405869543372095,4.841592420942041,0.12509437335667156,-0.06051231290930133,1.2557841577242526,4.4037373854719295,4.131432736151098,-2.077611315764607,0.9256111705214873,-1.3648411127825224,2.043850578401299
43,3.421375647189748,3.3722670709075513,0.9396123500397562,1.3795668602030025,2.2907115607678254,-1.2529681962516512,-1.1905310714974202,-3.5690303300210733,-2.9282807405389826,0.7379595447576185,0.09084438612479082,1.763148931247687,0.5803254485409879,3.443253576074863
44,2.318767480129667,3.442057983873246,-1.1972082959600725,-0.01370485666077359,-2.2853143325799636,-2.9273224626175156,-2.471019028148149,-5.65694393681664,-9.18222944893165,-3.3347921495136155,1.7012860129229501,0.48253325882876175,1.4423366695998494,0.32512604453240057
45,-0.8725990241222219,1.4356613389111736,-2.523112444004039,-0.7515770233165645,-3.6087002600567533,-1.2731646703793313,-1.2049287004992038,-2.7260355050023892,-7.866595394878413,-4.546689891238944,1.6371018299989013,-1.703736592438473,-0.2750681664910982,-2.778453026372942
46,-2.222180212939105,-0.13349132684858528,-2.1937406569846893,-0.08462659806476233,-1.439605336823898,3.107986377286037,2.6447499879727556,3.1578662456492834,0.6772512557903305,-2.810681669482387,0.6893665774295662,-2.2408453842500062,-1.6608768164039083,-2.1940078592226784
47,-1.1007978109188847,-0.9551351922096891,-0.5268518213304958,0.4628485911823809,0.6650679710879006,4.911193620987077,5.0522026393666675,7.038475385267982,9.365595125725745,0.2949075997139731,-1.2760855109243698,-0.8979335747575962,-0.9435087707678967,0.0707304241264085
48,0.013852233182890951,-1.5803650719062434,1.4623537445160264,-0.1897102801455989,1.3536747642980878,1.53792446362339,2.714666429184511,5.350226834308726,10.992320074534817,3.738068743850968,-3.4304227991288503,0.7718809758432773,0.387937568867789,1.0743788661455531
49,0.3099343872377905,-1.5600453158688705,2.9274912134226088,-0.6883724700104312,1.9426984159927023,-3.0111366290342927,-2.498448114334516,-0.651445493754731,4.096182858658199,5.700141153174065,-2.681393746047292,2.0125221166765743,1.1499910933141544,1.2088025981528798
50,1.2613589621444108,-0.33888405360966284,3.2145167506310974,0.44044120796033104,2.3145653742090198,-3.795163680818699,-5.495469546420483,-5.941250636419805,-6.2987070276336725,3.3286704844612403,1.8205023888544156,2.578585633003155,1.8066282239089235,1.550384315236822
51,2.4377308730163922,1.2446451163285084,1.6454289378866405,1.8240905377104302,0.7478396869032052,-1.061884849546497,-3.429416587485692,-6.3177720574177965,-12.071922236449101,-2.9651285867794237,5.538215395011923,1.5355922377991695,1.800758013883889,1.0848154397153875
52,0.9498848415161181,1.5430483434837812,-1.7430176888858184,0.784277334074822,-2.425734098315738,1.596253174125711,1.6022696352904264,-2.011695049538564,-7.988444126757941,-7.37012584424504,3.5450998920753287,-1.3470368574923777,-0.5575277368219722,-1.2071193710789823
53,-3.2682924251055674,0.052316955948212035,-5.14749559507473,-2.407080585344327,-4.296279003981327,2.282698569942735,4.68176303134018,2.905571287727335,2.766692811993663,-4.638560194530974,-2.7604177377226753,-4.062551955488299,-4.284818659548748,-3.7131634604175434
54,-5.246445513854051,-1.6144334028212743,-5.5586377160659906,-3.9209263713508316,-2.7488987176514277,1.4607253305985846,2.8420496643962108,4.484505113538477,10.241393860940008,2.8919032285001522,-6.669524836101462,-3.937003360990722,-4.9342581998414135,-3.245924510034219
55,-1.222268232152795,-1.227827581129564,-1.539480818350475,-1.0635785625036234,1.271197643654351,-0.28377930092225945,-1.782463811324451,2.3807323019498634,7.822818739833658,7.387285169845799,-3.6530368741854806,-0.46173268439633064,-0.013137225868979256,1.2366988428766128
56,5.072785470299985,1.1521846494691672,4.352335125020473,3.67559176554069,4.543036289369636,-2.4735693245072485,-4.194892589428713,-0.5139682491181816,-0.518232926363828,4.30038343835178,3.480157331426759,3.8719472476428503,6.326329261815845,6.001009059569617
57,6.3314090137972086,2.669659656169983,7.203472745670329,5.132093390864404,4.075547211155983,-3.586191096651377,-2.2211115575407834,-1.5647881103873806,-5.791988356876153,-2.9746680003401256,7.276366895383999,5.428513126115539,7.0070986078652435,5.268279522491851
58,1.2053146552217113,1.2111974794625453,4.670323313400658,1.7959297944697725,0.0321999068002026,-1.8474331046357149,1.4985531259108629,-0.7900312669599286,-4.698543363895181,-7.025854226504238,3.543675149370415,2.6846224129475136,0.7670540058399432,-1.490487028707274
59,-4.193802891818444,-1.6388898191727088,-0.7142132833626164,-2.5463986603875566,-3.658814502751019,2.4135503978932333,3.528722058119343,0.230223814425384,-1.008144260575275,-3.920702577270742,-3.8302636752099595,-2.0228789093533,-5.661794828253788,-7.169737262613527
60,-4.72556120715177,-2.809953030793565,-4.737420637659123,-3.966793019805088,-3.3182124390026777,6.092978750358967,3.287523064257701,0.5610109393268979,1.6419748743555018,2.9626863692249623,-7.02252240932068,-4.778423426999228,-5.820926635732088,-5.350855136135066
61,-1.8891221122276518,-1.6970713462772482,-5.505603321387798,-2.667245785644491,-0.03924640988169968,5.694430713217242,1.6864787461401867,0.16235595489509486,2.9833867577929905,6.411308745837642,-3.1062639553867344,-4.028125696287112,-1.3825265185562337,1.1859038863597606
62,0.41336615983603964,0.01991541055847274,-3.549357684942688,-0.8774324676352409,1.9508882841156696,0.6613898060184742,-1.1521856532619992,-0.9900396006952843,2.608677619128989,3.089960947857204,3.004554292607766,-1.1510828801274835,1.305019905609453,4.662279544078488
63,1.553191747308652,1.2440058939172889,-0.04212833786779299,0.8082990995165695,1.0919205976503765,-5.654988380096424,-4.666790810671462,-2.485918351995545,-0.9430999835816979,-2.9483442568006897,4.879053289309866,2.0080304759269114,0.562842519124198,2.9531564712315532
64,2.7918720100301884,2.045670298010785,3.531231303731694,2.743739331309184,-0.21313186354779826,-8.560167050429138,-6.175305788986836,-2.603487254075419,-5.647601146771391,-5.242341478496907,1.8539712717185672,4.123256879780587,0.771265527617104,0.6411073410590631
65,3.425462587697698,2.3148081653584165,5.34741884410633,3.875690613024771,-0.07545551019013744,-5.850671518474677,-3.137803966673547,0.267136778793374,-5.333458796890395,-1.985428893155615,-1.3484385422719563,3.8948229517399633,4.355727627465025,0.60607679858976
66,1.7642830017998263,1.590633898562837,4.312711636915875,2.6638855639189436,0.3775251969156284,0.5163604963910009,3.072696614007902,4.761224535977753,2.458942406230733,3.0575044734601606,-1.0706066645431829,1.2037728205013796,6.860656310043466,0.5275122173102267
67,-1.6177597047677028,-0.20285899316849743,0.7390420419755818,-0.5289461824927739,-0.21266319823610705,6.258073515022534,7.578486806007365,6.665976419237896,10.664634573614377,4.98119293114727,1.071476887357226,-1.8821980917979027,2.6082476477809715,-1.6374419101431448
68,-4.229430884833758,-2.5351319861181985,-3.8559164988774492,-3.6851369343026956,-0.9657930328053422,8.248187693347772,6.788720646185802,3.2386545875644317,9.611594237782635,1.9516980625615896,0.9215268305200203,-3.38611598704557,-6.73338641194328,-3.816760262506847
69,-4.3727238409834,-4.204027915943337,-6.716647310760087,-4.990490344032587,-0.4922961576371148,6.2536155131091435,1.7694749863171042,-3.3420894262841556,-0.923015844094738,-3.265620258002791,-2.3136475403959866,-3.5520070361871645,-12.329522012691807,-3.3505636428129
70,-2.0532894615870934,-3.669697603290617,-4.974052101722354,-3.500551183152555,0.72108224895169,1.646170769124053,-3.606588696047882,-8.018459219176677,-11.192684415590671,-5.4759549824025395,-4.69543913107604,-2.926121872839062,-7.703068593399783,-0.8474242014933479
71,1.5842938538654092,-0.5089037179310868,0.9539201479141073,0.5617109747226798,1.0873681263615003,-4.1697280048453305,-6.542849231206258,-7.696621209238513,-13.014018623181135,-2.560630609294607,-2.6902913403339332,-0.5038429649209177,3.511141256672459,1.5643164281113995
72,4.516900250829696,3.6074712813380043,6.117870361492207,4.864236596348222,0.1961371381497473,-9.041692196827332,-6.310975117190068,-2.9522426563818764,-6.8981264938249796,1.7913836420108875,2.1935915537054695,3.7105299389059363,11.206737264802006,3.3534300570107796
73,4.77419714155955,6.072049619729364,5.84918420658832,5.870177919459803,-0.8015419801146682,-9.505660240636713,-2.978444392059983,3.796876953167063,2.5583646807914535,3.1459963813008907,5.535283253816733,6.474395301484549,9.773952805263187,4.686693005179599
74,2.275910595128397,5.1668257607079955,1.2729869121833601,2.5311655049556436,-0.8098024559792442,-3.72098542042872,2.400828068270999,9.423262279268997,11.80429589105571,2.3187791203599732,5.158816262139194,4.693173263659266,2.9434296541697833,4.157567893918006
75,-1.0106737102274888,0.8946738004588053,-2.4181324915115563,-1.9271382540587434,-0.012873501727231462,5.070261091217786,6.732200213844785,10.067442389446851,16.359368492819332,2.6520321180720248,2.1056154236104847,-0.33534020882111676,-2.682996075661515,0.29561713719131677
76,-3.2556407200188375,-4.61158438323998,-2.6276782587013328,-3.704566131283458,0.6114140300408678,10.385218176223065,6.627719134494387,3.586844499571934,10.587169551191682,3.194105264340323,-1.9424490067621245,-4.635212774844663,-5.375197523654599,-4.987985497672738
77,-4.162228440391504,-7.5125559474263515,-1.5528215771105507,-2.90838905502881,0.4942383162054903,8.622412566165858,2.0770139949624435,-6.483794022418349,-4.721280314518891,-0.12802883475308147,-5.488875567102592,-6.129048713403754,-7.0593799079815165,-7.24199592190784
78,-3.8236449859389867,-5.171708440088919,-1.6671197887819498,-2.132117954257472,-0.10068305277169184,2.177461246982535,-3.044284342827812,-12.092186794520309,-18.316072576261323,-6.628711771428706,-6.4325658154014524,-5.007227681009252,-7.273989715725595,-4.582099664180699
79,-1.5640889344979996,0.6535351630161468,-1.9054466749687675,-1.5642009446988547,-0.5145546863289092,-3.759122868877606,-4.836266118672086,-8.344152355021205,-18.209208223864632,-9.427238159238222,-3.3577743647432414,-1.2885019434102127,-2.9746630854725216,0.20254339605816923
80,2.691677146597921,5.148666059211459,0.04826785337193266,0.9993502613367954,-0.23661794793260688,-6.1926337886994975,-2.9731369935572123,1.0197451916527802,-4.691451923807291,-3.94813506882298,2.1578176363974624,4.365561876085042,5.322048775229902,3.659348736164238
81,6.360844653808864,5.419689930475763,3.3299807542368165,4.904732487919637,0.5817895767473038,-5.665112640217151,-0.2605565558617722,7.672808635708519,10.171936779271292,5.524356489781123,6.2750644102878415,8.212956295428182,11.070960306950369,5.379034479489828
82,5.549289644272334,2.642868705633025,4.230350859004932,5.431125485469958,0.8534954940647856,-3.895727636979829,0.5888766210682199,7.315957771589522,15.283877149850388,10.400448896277437,6.275761985625054,6.005168965569938,8.290996232370352,5.924006516164547
83,-0.2080066201400043,-0.6242798564436959,1.161186550512611,0.29617948257918597,-0.38820566895294056,-1.4348725364094084,-0.4842796513220869,2.576283189792093,9.729628623049654,7.129960825424482,2.5363089915445354,-1.2021626734244475,-0.6287200557827515,3.7041036853943234
84,-5.799284547174365,-2.9825949174686266,-2.7576611047901496,-5.524214485406983,-2.0568068304454106,2.101445723593624,-1.0325506911095585,-1.5752921383801621,0.3287516081049246,-0.26311227917692137,-2.352372840995648,-7.035919219392461,-6.973775562184628,-2.4458990440302477
85,-5.480860502752134,-3.598953928931045,-3.3560974082697137,-5.170264317145249,-1.4669575320268897,6.017609006091713,1.1455728684186997,-2.854657423086495,-6.0970259871545744,-5.6663391563259795,-5.39283697188716,-6.703215168090711,-5.949732630351059,-8.604142586956065
86,0.07059105955297312,-1.6907224570831019,-0.4622764894566409,0.9297091653880415,1.8189668007077018,7.657761941042313,4.894267513183878,-2.138199484317265,-7.087784742510842,-6.3078147283651615,-4.696645079213279,-1.5882137312030242,-1.6161495430237742,-8.187708843817779
87,4.10674786388196,1.68996172533254,2.170324474511213,5.010426348274713,4.010712711790609,4.5568173982551965,5.852577587018059,-1.1027428961109174,-4.17120061856813,-3.3062638705678626,-0.8985507599515956,3.475240894981864,-0.014913120706171623,-0.4972639776027652
88,2.0854297061129685,3.159855711626047,1.4701680312240843,1.921549337415241,1.5372324393123609,-2.160892700162177,1.1370411045526703,-0.5159447322978647,-0.6353620304288109,0.46043428492979577,2.7608527830007956,5.072694216599455,-0.8800717203405876,6.785923440521544
89,-2.6315136859197463,0.7242883224714217,-1.5446344256839106,-3.9142142564651556,-3.3053625727168656,-7.526654425038617,-6.062190820086265,-0.13841186636408961,0.9893626962026592,2.5140042056239684,3.325188744687015,2.9539944924698465,0.25245329409160994,6.522707053467002
90,-3.2478219579465195,-2.7687143408917994,-2.9811467421078865,-4.1969744707303684,-4.530039511281335,-7.26467464032855,-8.650526320990528,0.4667296618982961,0.8606026506961428,2.3421163145169066,1.3723194367490044,-0.6940244497901787,3.911676190745735,0.850672061723723
91,1.4961321204157567,-2.610423440000243,-0.5185910786257969,1.879651278353936,-0.5740022391872159,-2.4439370431007545,-3.7289498943368904,1.087306082252217,1.0483958576705532,1.1460979800299977,-0.28776290213783257,-2.963369429226361,5.386108352211343,-2.7577439358690445
92,5.405024726517411,1.2498795449953066,3.3593898560048245,6.033244978291825,3.3691000079561206,1.8984029273411884,3.345041844851195,0.9273535612704399,2.142927904173961,-0.21116353452568953,-0.9422149313827531,-2.6204671829612374,1.6759332492786956,-1.911209623826963
93,2.783340238328332,3.722235435770459,3.7332296661654834,2.246837820981984,2.6166718267816202,2.9461188066361834,5.356075957392571,-0.19255016205601977,2.1030992331206715,-1.6267732525020808,-2.0136961154252546,-0.9668754562828095,-3.9298482747805434,-0.5290097970594101
94,-3.593005870331839,1.7024443177542676,-0.2432009668652482,-4.333508969028678,-0.7328286279247835,2.8476570665150525,2.2548304828249073,-1.016432779909762,0.06244259739402755,-1.675961954357712,-2.5858863008825805,0.3765097051490897,-5.608606844534216,-0.7244252747553285
95,-5.505237489014049,-1.6104364292178988,-3.4275278495789725,-4.534243344374737,-1.6033742591000404,4.112861839274954,0.1918519394357079,-0.10497670660645894,-1.0218902189904988,1.7208866127052311,0.44686604928770735,1.4412969001338731,-1.6372252252640542,-0.01542575387027606
96,-0.4961034805592572,-1.9227978946486528,-1.7490907341862443,1.258419201519428,0.36111687124491415,4.634265602012803,1.8396192309820483,1.9272348598332936,1.0569623531642696,6.314939889310494,5.684708568985744,2.476478081249667,3.7034413436084574,2.2154097113377933
97,4.182153550426041,-0.2750635318425876,1.5149060677284554,3.7506016365446664,0.9747516614374807,0.5661670313601799,2.540862792853987,2.4782413646470984,2.647101184752177,5.090054663923681,5.913386551247284,2.2198971814166253,4.580693968960633,2.042697775534661
98,1.8583398017117876,-0.38962228085030237,0.8784425436341554,-0.6547856891447268,-1.1628697951492326,-6.417697180231082,-1.632701897706216,0.09268026504077345,-0.9674583736589487,-4.355641109298112,-1.913835392254662,-0.23256917875011013,0.03582539762960965,-1.9611085910443566
99,-3.3997435205314708,-1.757304100613635,-2.2519057585109103,-4.12259722766578,-2.1555491114476326,-8.934335065604337,-6.51140657927179,-3.243694940975756,-6.693221234582824,-12.871441497849991,-9.574383458546766,-2.9723712182343798,-4.577964857742638,-4.5078409217479045
100,-2.8376575180173056,-0.48882209295070467,-1.7849065850868933,-0.07953026621623797,0.6354222231812808,-3.0657901115411637,-5.292432004008461,-4.142252262156599,-6.328535362444836,-9.163111703409738,-7.006612730998297,-3.139396925333616,-3.8302739191123885,-1.1048264658735576
101,3.1691751824220695,3.280039626522354,2.5761103908612015,5.787862127797641,3.5740830809452193,5.342781319558417,1.1579871898499592,-1.7307070202150547,1.1232431890707706,4.4373792937267496,3.288849023880029,-0.7955137538536723,1.014425988944672,4.1957247803340145
102,5.270537772461197,4.218820085185839,4.181616547188578,4.064219802439272,1.883069269877325,7.211780421873839,5.161172375767691,1.6761184467748862,6.99799910284847,13.171412652780733,8.733023157659755,1.2361735637089732,3.9277180911265135,4.051953922453654
103,-0.3727868426288213,-0.2392209492739241,0.06759238795835938,-3.718896182330965,-2.78184675100222,1.6020777098117176,2.9195816900027607,3.441543427844696,5.157699435557482,8.413698884884099,3.6881546660995443,1.3213244748566186,2.1876247697052413,-1.3662821975626942
104,-5.85411173651625,-5.139125144035429,-4.0075130649198485,-7.146195032369709,-4.317642367018352,-3.665421454139768,-1.0650129976753342,2.8260648915162454,-0.1606432435955654,-2.2124119893684044,-3.6127598051133245,0.8029294655391963,-0.8463201771324076,-4.4952402720514515
105,-3.2887474001782913,-4.256699476731079,-2.3588127939081676,-1.9937890592582792,-0.7878388769370421,-2.7576732904135595,-1.3603482025330433,0.7541714870389834,-2.124606487315785,-6.573374907213236,-3.69519244000345,1.3621313150762993,-1.3022970816068866,-1.0488269915103239
106,3.6104949141215155,1.5844081602999738,2.186908314341695,4.599131035721263,3.248858795292013,1.3530525456489948,1.2435380877776414,-1.1054019810822875,-0.6729165981303972,-3.1313476043936608,1.5198499850269258,2.183651075874247,0.3392207846729655,4.373349588137088
107,5.273538013472173,5.64349611783019,3.048951274366005,4.997793866098687,3.329849570808678,2.6388925368121363,2.394090529196897,-1.2713800520630838,0.4009510454130676,0.9461154046310256,3.6544748743204423,1.0370370657176007,1.2947430222221024,4.770238013454438
108,-0.09305885593747455,3.495075827646483,-0.4780359834282963,0.5298303236164834,0.33751450659921445,0.46808233810095967,0.7223815393965967,0.034868784672387285,0.34194515251823765,1.4191740734514626,0.39994274137916563,-2.2072266551988196,0.5271658664560827,-0.5706767469598087
109,-4.817086500831869,-2.3335148275583846,-3.1334134287747495,-2.698860925818951,-1.9786356844176762,-1.363711457691482,-1.5713441963585477,0.536772117980931,0.01765058315975214,-0.1679818253421111,-3.3071217652002773,-4.5264557281675595,-1.2539280703168332,-6.014414152154488
110,-2.989268880678325,-5.625592171259664,-1.6022279995784703,-2.401785476003506,-1.8871423769874898,-1.3538168961071826,-2.947673483459915,-1.3896867455970239,-2.0246839292669727,-2.150052516138081,-3.9087574015851967,-3.0919670986378986,-3.3338705909562125,-6.352000574289934
111,2.1447307523001933,-3.0557121342048372,1.7100268271303014,-0.6701829418763288,-0.4356404541051643,-1.3345976294227164,-3.639032058402955,-3.859616721504319,-5.849553011685696,-3.9016792660739155,-2.3861253396276183,0.9800928668403885,-4.2202772777517366,-1.5534436473740054
112,3.742265938465904,2.4383233536370463,2.7219203686447373,0.677509077959649,0.808596558887577,-1.755739138732937,-2.9134819793761677,-3.1300324537297866,-5.766879134352744,-2.52748096082267,0.22126766568385137,3.6061226768240653,-1.2798145256402715,4.322699018038132
113,0.4722599245972136,4.807290803159849,0.5810014017896492,1.2943351874263418,1.0578833239774914,-0.6619501952364922,0.7452412821982474,1.5447828900100489,2.786869093668392,4.119241064278452,3.9683028232712307,2.566414506614387,5.255727508313817,6.979537290856261
114,-2.958470383092765,1.8101859907305566,-2.0408856293576823,0.8627550434059617,0.32083628845165113,2.1608684024234037,5.609826607295473,6.219336078965799,13.138168917711546,10.557627988182455,6.261613730690518,-0.03747349075589108,9.384083557094561,4.807913673605164
115,-2.515049546440064,-2.263692622625339,-2.138458676627222,-0.2891400549663036,-0.5583634388763067,3.942627380141287,6.707386135783359,6.244774636830336,12.410686700814496,7.479623966306356,3.180424374685459,-0.8528450147935761,5.078869693532826,-0.2556979306679328
116,0.9829216859914551,-2.237273038776723,0.4630402464109179,-0.631248663931977,-0.48914196726904374,2.772547817081577,2.2270284607313173,1.2567543318642147,-1.3816520575845037,-4.735875722601805,-3.577027002856085,0.42176927096909045,-4.923872223746484,-4.252896971284173
117,3.867757290138784,0.9767655587992011,2.789822679154702,0.2054841519221098,0.33908119938249065,-0.26451629564898826,-3.232909652645453,-4.449926153191356,-14.443903730561455,-13.256188685658707,-6.536503660456558,1.1568829051421874,-10.585322715229218,-4.646844365199152
118,3.37262813381064,1.9130728420679557,1.9740310290523484,0.39077328454478105,0.33159596087813636,-3.1760349419417957,-4.670719163780253,-6.28768097882684,-13.456168626042123,-8.414012946475056,-2.302835804097512,-0.3564328810677092,-6.290235242780848,-2.5902130763129376
119,-0.4860226250489093,-1.3081768819505117,-1.2063488140834326,-0.8306395238806952,-1.0606257166557336,-4.489093461036185,-2.9448796388213663,-3.6069374740541003,-1.2582015131976263,3.440259825234595,3.0469593616138346,-2.7056558099510104,2.5481852963753595,-0.8472916987709174
120,-4.699476697545463,-3.966988971726751,-3.1326620659468603,-1.2889820274840709,-1.7335152555493722,-2.8307222567230053,-1.6335008305387588,0.5494219325191995,8.659500083128583,8.835216664689533,2.545643583927371,-3.169894525714036,6.755333423633256,0.22959126129881466
121,-5.1529019001541,-1.4089623272026162,-1.8198230457937679,0.41229835111325974,0.4440617002107365,1.5948848939649765,-0.7340422457426024,3.1418796338886903,8.941880059191856,4.635819939952119,-1.5850225276604102,-0.7741517631631828,4.137863186587571,2.498228843778131
122,-0.8607324728104881,4.004601259724853,0.8676943811493805,1.9948092711950678,3.7835811655282723,5.2145626015560005,1.7763039323111591,3.444385038418029,3.5377715973491415,-0.8599983892474639,-2.0855903432371714,2.6141239275571677,-0.14872745135083543,5.432097507024287
123,3.933086499457511,5.51885001132162,2.0071264081247557,1.038292528038927,3.842222347302039,4.151171998864931,4.25198947313947,2.0634557327395067,-1.1958857889218644,-1.7535070778309558,1.6279072695649426,3.832911795648465,-1.7414785210438477,4.892786783393749
124,4.246762714265673,0.6956392132239743,1.118874291968306,-1.0720750246111026,-0.8607909064826922,-0.7470111530256234,2.892965844408615,-0.2968318772889944,-3.5460861161612116,-0.8269925030753662,3.082086248320509,1.515543765022767,-1.3378968696586486,-1.134117500188799
125,0.7064352642619088,-5.287692763772074,-0.12347390868605271,-1.6474732104876944,-5.9788840787278605,-4.621725742277395,-1.425860406530229,-2.3611460537206157,-4.294484307909652,-1.5719742378628667,-0.08984540874108737,-2.002996927266801,-1.0949112968612955,-7.764079894148246
126,-1.4486548538055128,-5.684420382456612,-0.4410793253148747,-0.7424707254753526,-5.789140603258195,-4.102206099116563,-3.169721699240518,-2.401085102226466,-3.219109632336958,-2.1145026897285963,-2.363774714515268,-2.8258105915718588,-0.9456653398384743,-7.64264861139799
127,0.10176959583927812,0.10170806918922509,0.0478398225293928,0.17475757775965345,0.10954334063789489,-0.06079427281378948,-0.1457367528061939,-0.21554109301531604,-0.24730906110714684,-0.24162657686809424,-0.09193951886911533,-0.11781162151511064,-0.09435005626040498,0.023396704613902447
