,AF3,F7,F3,FC5,T7,P7,O1,O2,P8,T8,FC6,F4,F8,AF4
0,4.370555078115081,3.1544304598383857,4.3700885809368994,3.520172447941019,3.606019709305649,1.6296590033484406,4.69477352065505,0.24453823873006572,-0.43688941753184163,4.298759730942298,5.044143641527428,7.605915783141208,4.203019132115469,7.182087203918831
1,4.97260466255854,4.286000377896891,5.714169316455904,3.874011613061973,3.2371122498887033,2.2964620770751347,4.443251882147824,1.195613268658354,0.7299544735824458,4.281021953236931,5.151562034971851,8.0360437533131,3.5108945702610646,8.02894483787661
2,5.555427091811337,5.3805551671259,7.015521726289189,4.211674594232922,2.8600905930040006,2.9407897033609878,4.179373057890442,2.104974415519923,1.8556439995294487,4.227946207764281,5.217069503111926,8.445341450405282,2.8042530943339874,8.8264937631276
3,6.099634822004858,6.407721411172352,8.241468233089147,4.520755736176986,2.4682270677358775,3.5492858289584364,3.899035639785842,2.9495050722048335,2.923907705998761,4.131312340322184,5.220028937079593,8.81428165897062,2.08575766631196,9.543148881823718
4,6.587416550913437,7.3396869423191475,9.36113303051377,4.790117144936517,2.056017782955945,4.110087497372889,3.59911432565503,3.708430725398312,3.9203186225743893,3.9849306431810962,5.142512666947707,9.125033657438829,1.359372516807512,10.150492518682784
5,7.0031614130629825,8.152209162340608,10.346235034584273,5.010317146011208,1.6195114321540893,4.6131586138512155,3.2776396480562187,4.363963492385819,4.832610807963898,3.7849851527647616,4.970104410033319,9.362077761636058,0.6305763323910009,10.624358298910387
6,7.333982457006152,8.82547562795618,11.171800178540774,5.173961127649113,1.1565715841230673,5.050550552237986,2.933921258655509,4.90183940815996,5.6509462393767596,3.5302917628034707,4.692554510454502,9.512690897711426,-0.09351360587494019,10.945731136650329
7,7.570116153691702,9.344778805936036,11.816772699196312,5.275958408069694,0.6670560272022291,5.416579634092635,2.5686089694416556,5.311727674325523,6.368122018395115,3.2224548101660013,4.304255238267552,9.56728272187089,-0.8041219084945308,11.101422728688878
8,7.705179845027378,9.700973950497483,12.264508257386069,5.31367295159217,0.15289867096340123,5.7079146818988695,2.183687455958288,5.587494311916508,6.979704513371337,2.8659059131742066,3.8045079113600906,9.519572550677445,-1.4909115567233036,11.084492234792561
9,7.73627663205681,9.890699480198633,12.50313631457494,5.286961163931847,-0.38191604703410015,5.923571437805161,1.7824024229724553,5.727308161518229,7.484076267365948,2.4678120818694196,3.197562619754771,9.366608283238676,-2.142201351176496,10.894395095520002
10,7.6639471247643876,9.916353071299351,12.525785427104857,5.1980964071641695,-0.9314896285023498,6.064814643746273,1.369118816380357,5.733585743887698,7.88238489140674,2.0378473089345834,2.4924250606295786,9.108639443769619,-2.745300341694298,10.536858304272915
11,7.491977977967378,9.78583191677289,12.330671664928742,5.051586692403899,-1.48825223761725,6.134972764344847,0.9491153113660116,5.612781448588314,8.178390275971058,1.58783161122216,1.7024412442221033,8.748866456498076,-3.2869452108966786,10.023495365072133
12,7.2270858993471165,9.512059195339672,11.921055364242184,4.853898181303009,-2.043299286491855,6.139174443495016,0.5283234501401758,5.375038257395476,8.378215562356951,1.131251517607592,0.8446861320511876,8.293095508114714,-3.7538175187658505,9.371186539064357
13,6.87850118856302,9.112328482045244,11.305073655501456,4.613101332361965,-2.586803725728476,6.0840194682506255,0.1130236937485748,5.033720020446,8.490016046380196,0.6826840638361088,-0.06080640802977114,7.749331209598144,-4.1331113812871365,8.601259360822777
14,6.457476716551036,8.60750325066906,10.495455879855893,4.3384582650978105,-3.1084829557681157,5.97719983962799,-0.2904864913714612,4.604849055563072,8.523586285672948,0.25715136518004145,-0.9919288364862824,7.127337500831711,-4.413119461355175,7.738511361056022
15,5.976747869762823,8.021110937409157,9.509127935880636,4.039970249895604,-3.5980983266283757,5.827088351924083,-0.6762355465445861,4.106473610023573,8.489928090160817,-0.13056449134426734,-1.9254550926742782,6.438192275901346,-4.583805667138434,6.810121920443104
16,5.449967818051206,7.37837137206201,8.366711836022075,3.7279045447809125,-4.045964782920856,5.642313039831944,-1.038913417727744,3.5579896157104693,8.40080106621442,-0.4666148965245827,-2.8380213290758354,5.6938548778746965,-4.637335517417324,5.844502946530696
17,4.891141073676508,6.705198048584894,7.091928913427337,3.4123200870834602,-4.443447786432227,5.4313361052349824,-1.3741809003539045,2.979440511115614,8.268273749830115,-0.7387546606650054,-3.7070906650410858,4.906759053233897,-4.568538972005004,4.870137959642376
18,4.314076651754346,6.027208124582374,5.710918549069456,3.102610947784058,-4.7834244558545285,5.202055415441945,-1.6789348280533103,2.3908177658312257,8.104288114736182,-0.9369580673086684,-4.5118645099607795,4.089437919683411,-4.375285290169412,3.9144561418215447
19,3.731880317975613,5.368774347029821,4.251488436480805,2.8070850857412486,-5.060686086221394,4.961445372261237,-1.9515141216949792,1.8113836134574375,7.920245037405259,-1.0539541169750337,-5.234107603300272,3.2541829832149984,-4.058754505629566,3.002782977868589
20,3.1565036939529065,4.752150240601628,2.742317239902295,2.5325949613354584,-5.272260002389202,4.715252082579537,-2.1918356577562728,1.2590368212242018,7.726615272937384,-1.0856582975930749,-5.858858076211532,2.412737152109231,-3.6235944643699267,2.1574035308849635
21,2.598366439022524,4.196698666957961,1.2121356983092135,2.2842364135457656,-5.417630727906469,4.467755533020947,-2.4014528607530496,0.7497418348784027,7.5325808904377975,-1.0314822243433759,-6.374997385818358,1.5760221163447508,-3.077955824359206,1.3967685575378737
22,2.0660658108031353,3.718252012102304,-0.311083567556617,2.06513165868568,-5.498844620404395,4.221608973840373,-2.5835335637255596,0.2970406311481309,7.3457150240630416,-0.8945064228278663,-6.775658711186504,0.7539023665100308,-2.433400833460101,0.7348674852227368
23,1.5661844471982043,3.328628198096107,-1.8008960319821927,1.8763096818231804,-5.520488602534889,3.977762913367968,-2.7427574234277703,-0.08833541984594863,7.171710727971874,-0.6815064486893735,-7.058457628416862,-0.045010272346566314,-1.7046861926894037,0.18078590489822563
24,1.1032011850956553,3.035319676046888,-3.233086285416136,1.7166922170804835,-5.489541515490529,3.7354780458140553,-2.885137429200263,-0.39873948535227083,7.014170868211405,-0.4028289537641159,-7.2255364724115845,-0.8135079485267305,-0.9094261289565823,-0.2615410444643582
25,0.679501625138207,2.8413633861695122,-4.586277171549313,1.5831868546758825,-5.415104780069939,3.4924283389913997,-3.017774425794671,-0.6297587532643408,6.874470522685633,-0.07212139396914727,-7.28342341699161,-1.5458924274180124,-0.06764819822028312,-0.5933742710188308
26,0.29547716784425476,2.745390073560709,-5.842430666155214,1.4708817336896371,-5.308026658859256,3.244892456862207,-3.1485571862285293,-0.780234014276361,6.751702248288132,0.2940744037100413,-7.2427175166231015,-2.238036262492737,0.7987398715576676,-0.8210167173808058
27,-0.05030438884984834,2.741842353839923,-6.987229991403047,1.373329476756485,-5.18044083724276,2.988027957324225,-3.285823112505525,-0.8521499741626885,6.642712694296537,0.6768490142396003,-7.117619998428225,-2.887402611538324,1.6665498354236332,-0.9554684088069249
28,-0.3608763846490264,2.8213426110802446,-8.010337960647819,1.2829019207739607,-5.045244780711126,2.7162172392620616,-3.4379966502928823,-0.8504047900691922,6.542235172030767,1.0555516044518243,-6.925338890163147,-3.4930278180857313,2.5119543846696963,-1.0119075404251634
29,-0.6406195435026732,2.9711844672702368,-8.905532338626267,1.1911923828106497,-4.915546306845814,2.423467131509513,-3.613224436202124,-0.7824764379601724,6.443116343410962,1.4084896124023958,-6.685398614940751,-4.055471699914619,3.3111448508018255,-1.0090234977003536
30,-0.8949971072045105,3.1759163957832195,-9.670724452409361,1.089439497993903,-4.804108103235901,2.1038372879721305,-3.8190276070260576,-0.6580117039413422,6.336627871028457,1.7136719794554578,-6.4188886598467105,-4.576741560968149,4.04097980345083,-0.9682354660760252
31,-1.130296755639824,3.417984296846597,-10.307870782249928,0.96894669044667,-4.722819307032511,1.75186867264019,-4.061991402175904,-0.4883678075070744,6.212849134061401,1.9495650138244613,-6.147685151936796,-5.060196593867143,4.679600945758488,-0.9128347317917945
32,-1.3533923490513686,3.678401570855353,-10.822787758101617,0.8214739499697381,-4.682220559212165,1.3629834374786485,-4.347509209587573,-0.28613510649607826,6.061107046277841,2.095833109376088,-5.89367546447016,-5.510438297035873,5.206996601193947,-0.8670889755681329
33,-1.5715314209417361,3.937419604661382,-11.224877722402027,0.6395831285982106,-4.691104317179225,0.9338306743699838,-4.6795926604603935,-0.06466287239215816,5.870461791247214,2.1340421625507777,-5.678009814613991,-5.933189074174489,5.605498674592557,-0.8553434756640358
34,-1.792146170074329,4.175177955477886,-11.526769880829919,0.416924011897465,-4.756205833144646,0.4625576075309752,-5.060752387353411,0.16239841576349648,5.630228475778136,2.0483085253270987,-5.520397510150308,-6.335155613067132,5.860205230530943,-0.9011483383990834
35,-2.0226776668150217,4.372321227105174,-11.743875130699466,0.14845565859690216,-4.881992471330232,-0.051007889451437825,-5.491946849805851,0.38153246567861276,5.330521230611677,1.8258790766559587,-5.4384607014755115,-6.723867109553368,5.9593269572460725,-1.0264335882407216
36,-2.27039648857313,4.510577331803938,-11.893849594002658,-0.16939508942370682,-5.070551139186136,-0.6052700816068352,-5.972589985580246,0.5797692949040419,4.962799085658106,1.4576291103864036,-5.447155301188213,-7.1074729297079084,5.894461078772562,-1.250746345561244
37,-2.542200132512268,4.573297516599147,-11.995960966353385,-0.538630244807223,-5.321567016923581,-1.1968716079271322,-6.500603140705983,0.7450743900314344,4.52038575851453,0.9384653303517836,-5.55826687902609,-7.4944827226997806,5.6607996209054505,-1.5905584254633032
38,-2.844370591961035,4.54596033663295,-12.070356818231023,-0.959622102030708,-5.632382163833413,-1.8207829966874318,-7.072494187311502,0.8667130495710552,3.998931525178124,0.26762133208441496,-5.779989486487141,-7.893436867499964,5.2572789469519545,-2.0586506755390133
39,-3.182284981883147,4.416639055722299,-12.137245229267355,-1.4310897264926632,-5.998119943461385,-2.4704592669091636,-7.6834483539332465,0.9355833883952169,3.396785670415438,-0.5511678187254931,-6.116598125719354,-8.31250660209218,4.6866736801278925,-2.6635827722653054
40,-3.5600855560768143,4.176426153104862,-12.216012979463851,-1.9501036887455332,-6.411860481953403,-3.1380451196956893,-8.32742065109854,0.9445061401885771,2.7152527020445074,-1.509625862727086,-6.568229280906878,-8.759037871397803,3.9556320499225097,-3.4092620783326826
41,-3.980328503173138,3.819802385136605,-12.324320536192246,-2.512115965616933,-6.864853477535436,-3.814611254518415,-8.997226325581293,0.8884556770011639,1.9587141997758823,-2.595042512393132,-7.130785165133869,-9.239066018658288,3.0746442433968157,-4.294629572202098
42,-4.443640176275791,3.344933227967287,-12.477222915292352,-3.111015431136891,-7.34675742300769,-4.490407414211374,-9.68463103502192,0.764716088433316,1.1346090282863852,-3.790533993173369,-7.795974382389774,-9.75683708207603,2.0579326324089915,-5.313483087397929
43,-4.9484140147181135,2.753873114702346,-12.686370143595287,-3.7392121427629044,-7.845898314351499,-5.155122031252379,-10.380445819989488,0.5729488848428392,0.2532746007933431,-5.075455335250255,-8.551495842565393,-10.31437545199979,0.9232529943354856,-6.454457922647928
44,-5.490581937960979,2.0526576747922354,-12.959340684226033,-4.387755436038313,-8.349545195670528,-5.798143215775375,-11.074634052892499,0.3151643958372325,-0.6723409731365207,-6.425953958504846,-9.381365855802931,-10.911137490431255,-0.3084016180336021,-7.701181980796325
45,-6.063491211526325,1.251266261232064,-13.299156140247996,-5.046491425048704,-8.844202904817571,-6.408820156328052,-11.756438656263358,-0.004403521668545453,-1.6270810005942473,-7.815645677101927,-10.266381064303536,-11.543786655766274,-1.6131984059883362,-9.03261633445418
46,-6.657912607629618,0.3634411939643505,-13.704016572397999,-5.704264793904157,-9.315923251332123,-6.976726474476406,-12.414537954023473,-0.3795118653894315,-2.5940771092234103,-9.216386994251723,-11.184702896331777,-12.206118512014198,-2.9649627461630925,-10.423583347176054
47,-7.262199084001378,-0.5936444003343126,-14.16728411581638,-6.34916795190125,-9.750635001167353,-7.491927002800592,-13.03723767820944,-0.8021983612810082,-3.555316922331842,-10.599112718632965,-12.112544068377826,-12.889155147828664,-4.335771394830324,-11.845475780683978
48,-7.86260647790106,-1.5998719520899662,-14.677729200931319,-6.968837962712662,-10.134491483532425,-7.945247013008985,-13.6127049771702,-1.263130824390699,-4.49225543808935,-11.934706876905974,-13.02493547565454,-13.581418821820995,-5.696633601122833,-13.267133401834313
49,-8.443778159636375,-2.632810004845842,-15.220038496508852,-7.5507982667462485,-10.45423311890117,-8.328538985751289,-14.129247371824214,-1.7520005467072122,-5.386442941088693,-13.194877567957475,-13.896552018890754,-14.269383852268257,-7.01825112417558,-14.655867358523146
50,-8.98938340778274,-3.668477860978411,-15.77556625362047,-8.082838175700005,-10.697560735089313,-8.634937939512767,-14.575635068701649,-2.257945704582644,-6.220144885002677,-14.353010759580943,-14.702576475931973,-14.938093417139,-8.271844895599026,-15.978604573705713
51,-9.482884886942633,-4.682212569880761,-16.323291836517825,-8.553418658602286,-10.853513431132626,-8.859093459764589,-14.94145932546732,-2.769991706681631,-6.97693299604599,-15.384981570802779,-15.419579447488278,-15.571914299127487,-9.43002999871705,-17.203113961516728
52,-9.908396074602766,-5.6496006921729345,-16.840928501586944,-8.952088512343607,-10.91284127445839,-8.997365833779833,-15.217514097920878,-3.277495656934927,-7.6422307024815295,-16.26990329762894,-16.026390180626723,-16.15538900536086,-10.467712671260063,-18.29926561039629
53,-10.251577313077064,-6.547428586747891,-17.30611485413265,-9.269891230926982,-10.868358959189667,-9.047975464875543,-15.39618413887822,-3.770581821771247,-8.203799475257188,-16.9907947743763,-16.50492874068363,-16.674133073874007,-11.362975288925352,-19.240265979762942
54,-10.500511007845548,-7.354601311469035,-17.697612378589476,-9.49974044661116,-10.715263517207243,-9.011098396559328,-15.471819896058719,-4.240553761038717,-8.652154945522627,-17.535146123452282,-16.840965837445946,-17.115717536334625,-12.097909174518023,-20.003807396805076
55,-10.646493193209624,-8.052980647931674,-17.99643042872965,-9.636741452813633,-10.451398649642048,-8.888904767258445,-15.441077213738364,-4.6802661546698054,-8.980901511074915,-17.895361695742547,-17.024773349448093,-17.470473466748548,-12.659350883584274,-20.573068306282234
56,-10.684681021594175,-8.628097427753437,-18.186804794115975,-9.6784386120462,-10.077450449842269,-8.685539963467786,-15.303198257389665,-5.084435857160183,-9.186971779408553,-18.069057760602067,-17.051627171933227,-17.732157849308802,-13.039475882529493,-20.937502750062613
57,-10.614544373144927,-9.069702185321912,-18.25696819266708,-9.624973249597149,-9.597063339430772,-8.407049855338872,-15.060210553907616,-5.449869078752444,-9.270755164240178,-18.05919298497509,-16.922126198545044,-17.898428095494513,-13.236205714262242,-21.093365611673075
58,-10.440084531177945,-9.372130091258315,-18.199669974018516,-9.479142829239864,-9.016869336827904,-8.061252231238305,-14.717024361112605,-5.77558189846206,-9.236101281436678,-17.874013832169464,-16.642298653427964,-17.97108636814063,-13.253392052369184,-21.043935188745543
59,-10.169802099065267,-9.53446935046585,-18.012425053713507,-9.24635852460329,-8.346427153568456,-7.657556889591852,-14.281414257166578,-6.062795717015499,-9.090189584109597,-17.52680545897802,-16.223479543115552,-17.956073227963106,-13.100753502531463,-20.79941515861377
60,-9.81641704747261,-9.560535148579131,-17.697494920550795,-8.93450410695097,-7.598070249935008,-7.2067370950885845,-13.763877717888263,-6.314797430820391,-8.84326554133315,-17.03545036464773,-15.681958433461173,-17.863210739286124,-12.79355752485442,-20.37652095424355
61,-9.396362577737376,-9.458662405874744,-17.26162339688515,-8.55370408173955,-6.78666558883396,-6.720655342301863,-13.177370458363242,-6.536664685468851,-8.508252917515437,-16.421809366434772,-15.038411695073934,-17.705715160681056,-12.352058179764093,-19.797777454594716
62,-8.929088967507173,-9.24133867999259,-16.715564730179317,-8.116012728381406,-5.929287458946758,-6.211946657736392,-12.536924866597616,-6.734867972154989,-8.100259169018232,-15.71094975192583,-14.3171452100197,-17.499515749387044,-11.800717431777114,-19.090572419721187
63,-8.436222809920011,-8.92470256306899,-16.073450635016915,-7.635037731619491,-5.044813028972465,-5.693663348426777,-11.859163972738152,-6.916772220430772,-7.635996088856763,-14.930252155636397,-13.54518170803335,-17.26242702283196,-11.167250840167132,-18.286021208058695
64,-7.940631010973349,-8.527932789887236,-15.352046013058292,-7.12551254919736,-4.153448123978488,-5.17888665705326,-11.16172924469263,-7.090069692029541,-7.133141290194394,-14.10843089503565,-12.751232238877563,-17.013226732216634,-10.48154646018897,-17.417702828388315
65,-7.465438062547763,-8.072550042825728,-14.569940826653946,-6.602830945169391,-3.2761931818160064,-4.680313577687486,-10.462645802484104,-7.2621821565813995,-6.609668630394971,-13.274503501016412,-11.964594592767805,-16.7706917964314,-9.774508827962226,-16.520326540729005
66,-7.033040858518792,-7.581649151572337,-13.746719399559716,-6.082555810538571,-2.4342607307814506,-4.209831238887526,-9.77965287891818,-7.439672732712256,-6.083177353584372,-12.456745783117727,-11.214023045826103,-16.552641001772496,-9.076879143268979,-15.628383898842477
67,-6.664159750627891,-7.079076700479523,-12.9021406942538,-5.5799134149488525,-1.6484575859458956,-3.7780961075379693,-9.129530130700266,-7.627706509680438,-5.570250174922321,-11.681670109839676,-10.526613864482963,-16.37502795452721,-8.418079786328207,-14.774835332179522
68,-6.376959448782401,-6.5885700844499855,-12.055356388924249,-5.109284542819999,-0.9385476916656001,-3.39413903680052,-8.527451260206195,-7.829594747526924,-5.0858690563284785,-10.973066191160799,-9.92674987352652,-16.25112192711943,-7.825127187950308,-13.989874728768026
69,-6.186269755108383,-6.132879060894747,-11.22418906766358,-4.683705898221725,-0.3226149121608616,-3.065018193922829,-7.9863950099273175,-8.046450801745634,-4.642913814519506,-10.351143976543977,-9.43514538917491,-16.190808841665444,-7.32165229851351,-13.299810952742117
70,-6.102934058506059,-5.7328980269587,-10.424490257881562,-4.314398162980653,0.18355151237696346,-2.7955399596961006,-7.516640383496806,-8.27697798307583,-4.251763896293297,-9.831816301438826,-9.068030179626737,-16.200040207075382,-6.92706300855544,-12.726102052228786
71,-6.133311823187882,-5.406843702234455,-9.669596336367633,-4.010339946433196,0.5670232759973708,-2.588063661878702,-7.125368698514192,-8.517401436555138,-3.9200186569054583,-9.426154541471394,-8.836507462327,-16.280453909200386,-6.655878114161278,-12.284575331286572
72,-6.27895801722605,-5.169516118246595,-8.969898367350174,-3.777908265110191,0.8182240306560042,-2.442399851223889,-6.816389911824418,-8.761547937312969,-3.6523457577559233,-9.140043567792041,-8.746114952632979,-16.429185838022406,-6.517257070832939,-11.98486284708918
73,-6.536496478195161,-5.031679914465875,-8.332539204433358,-3.620605476216082,0.931319074250141,-2.3558044067694928,-6.590004514191073,-9.001068633550826,-3.4504595388858856,-8.974052114952825,-8.796608443437792,-16.638884215721184,-6.514742789502564,-11.830075961182038
74,-6.897696171802118,-4.9995985741774795,-7.761247753405878,-3.538889971541774,0.9044818467817839,-2.323063896699126,-6.4430058440913305,-9.225790314924435,-3.313221434174916,-8.923521295200894,-8.981974631493763,-16.897929374041848,-6.646225733515794,-11.816734295505475
75,-7.3497502470797285,-5.074747508981068,-7.256316101540117,-3.530123918324347,0.740022043183238,-2.3366633079555457,-6.368821874864744,-9.424172162497953,-3.2368446996577345,-8.978859081395699,-9.290665831273058,-17.190851613910827,-6.904127029140995,-11.934954559826602
76,-7.875748260549388,-5.253723517107787,-6.814719911594311,-3.588646049956254,0.44436756083726203,-2.3870261167964415,-6.357790717875759,-9.583839005966416,-3.2151788783647444,-9.126015200478712,-9.706036480576063,-17.49892953288546,-7.275787275932143,-12.168893673855022
77,-8.455322075151209,-5.528358303881568,-6.430375937966943,-3.705970817691607,0.027899633321360494,-2.462817968141725,-6.397559971103297,-9.692159938170986,-3.2400477546357953,-9.347101913460797,-10.20695213051897,-17.800941493558994,-7.744037567842414,-12.497428279252393
78,-9.065436095655981,-5.886032725509212,-6.094523138838262,-3.8711074192807358,-0.4953524851311928,-2.551307712804198,-6.4735960845926535,-9.73684234444921,-3.3016182560910807,-9.621122657263243,-10.768536668256058,-18.074034212539033,-8.2879208910094,-12.895039427012223
79,-9.681283659189363,-6.310177298985452,-5.796206544203293,-4.070984510489992,-1.1081441294859633,-2.638781765940735,-6.569785479098584,-9.70651451515203,-3.388785074610677,-9.924771708125919,-11.36302233751665,-18.2946651899476,-8.883526129797005,-13.332858721608792
80,-10.27724506356932,-6.7809350010845435,-5.522837143920534,-4.290960201539201,-1.7905563722490212,-2.711008046184244,-6.669103798584664,-9.591273317349126,-3.4895638907210795,-10.233272367416768,-11.960668836001451,-18.43957074547093,-9.5048939743218,-13.77982304463256
81,-10.82786012922714,-7.275955355654486,-5.260797708347264,-4.515392918079553,-2.5206232405068096,-2.7537429049372486,-6.7543236006820155,-9.383175764873187,-3.591491940991364,-10.521226936808699,-12.53072135829577,-18.48671004591272,-10.12495449798639,-14.20388078113256
82,-11.308769566433162,-7.771284038635996,-4.996063966341132,-4.7282467716939225,-3.275020498421547,-2.753268721357998,-6.808725175710949,-9.076654746212974,-3.6820361499675975,-10.763457332349642,-13.042381698762565,-18.416138454505177,-10.716459872455587,-14.573193550622321
83,-11.697584095355445,-8.242309592539774,-4.714812831608342,-4.913704982632506,-4.029790624327584,-2.6969432271701788,-6.816772076404253,-8.668840905048427,-3.749006419581182,-10.935819692444023,-13.46577045720366,-18.210770623642954,-11.252881849118577,-14.857283322353078
84,-11.974647296687696,-8.664728676356932,-4.403994121792906,-5.056766357470449,-4.761078545475754,-2.573736762271513,-6.764714270463391,-8.159776257387863,-3.7809672175919604,-11.015979363974726,-13.772861240975285,-17.85700404550436,-11.709250890294431,-15.028084054331538
85,-12.123666368620363,-9.015492994166369,-4.05184817723469,-5.143802276556312,-5.445853176477534,-2.3747321717213348,-6.641087901889486,-7.552510767604125,-3.7676363813907967,-10.984133379737797,-13.938368369930274,-17.345185222277838,-12.062919864665075,-15.060867203529238
86,-12.13219277279945,-9.273702748971616,-3.6483564314409045,-5.163054257380121,-6.062590767100911,-2.093563729516312,-6.4370896034042175,-6.853079235065949,-3.7002566374931805,-10.823665085115481,-13.940566879154371,-16.66991018672582,-12.294237556246017,-14.935019187315719
87,-11.99194104862642,-9.421411949577102,-3.1856136045935703,-5.105054484992269,-6.591897802310881,-1.726774908301872,-6.146812728634955,-6.070360821605045,-3.5719231101398394,-10.521710797518441,-13.762018333598053,-15.830156936385487,-12.387115583689557,-14.634655071045847
88,-11.698939322379223,-9.444311339014929,-2.658109951713357,-4.962954289398342,-7.017054142054148,-1.2740789102573302,-5.767341948293143,-5.215827338360281,-3.3778503860058358,-10.069614457475257,-13.390171403073623,-14.829250826257198,-12.329469741238075,-14.149057040172218
89,-11.253510857829369,-9.332257567228613,-2.062912795780709,-4.73274941106455,-7.324461009741956,-0.7385105036830717,-5.298711957756117,-4.303189982174673,-3.1155663758463645,-9.463246379338013,-12.817806062146012,-13.674668314197424,-12.113517302391823,-13.47293003456624
90,-10.660093282600092,-9.079623659836985,-1.399740026646969,-4.413396046621498,-7.503982186911073,-0.12646270326218384,-4.743745259699321,-3.3479578024588856,-2.7850256272319753,-8.70316694170953,-12.043295854058766,-12.377691139852953,-11.735916924223659,-12.60647139516993
91,-9.926909971988067,-8.685454798576597,-0.6709235584314237,-4.006816721286242,-7.549169357910155,0.5523940287456031,-4.107790875882831,-2.3669240168277925,-2.388638642219415,-7.794623137721271,-11.070671769572256,-10.952930452992652,-11.197745617151622,-11.55525668395339
92,-9.06551479846548,-8.153423256589988,0.11873371455388958,-3.517798743371698,-7.4573643786721915,1.2853103511323969,-3.3983882676282535,-1.37759797570084,-1.9312146041421747,-6.74737309733218,-9.90948112265396,-9.41774622980013,-10.504315335853262,-10.329949485244198
93,-8.090236419397113,-7.49158654783567,0.9621986236245708,-2.9537908109995064,-7.229673887326749,2.056774021153939,-2.624879285377673,-0.39760206633879525,-1.4198146184300908,-5.5753410055659804,-8.574444731181877,-7.791591115663474,-9.66483958548055,-8.945848711875296
94,-7.017552257155088,-6.711963969016075,1.8505314011248577,-2.3246068045265353,-6.870816456383503,2.8489410697314286,-1.7979885790993904,0.5559443284164948,-0.8635144059424925,-4.296113730915718,-7.084926988978786,-6.095310928902998,-8.69196906252042,-7.422293288616109
95,-5.865426090547607,-5.829958654256735,2.7732708873875254,-1.6420505440516033,-6.388849421785276,3.642175132651173,-0.9293919724498577,1.467027285529193,-0.27308081079402285,-2.930301477803246,-5.4642463598492945,-4.350437068106645,-7.601224991404643,-5.781951673366374
96,-4.652646092845442,-4.863663503572743,3.7188536429781895,-0.9194801787111267,-5.79479028995455,4.415680907649457,-0.03129273103581191,2.3212964410175205,0.33942562382798114,-1.5007965107820365,-3.738866282749076,-2.5785078213773196,-6.410367699793765,-4.050031634207435
97,-3.3982003368481024,-3.8330972249965196,4.675036197497599,-0.17133399170971808,-5.102154174838173,5.148210932167245,0.8839745010984515,3.1065465636197125,0.9611017024159391,-0.031973755925621454,-1.9375150353219488,-0.8004543312021195,-5.1387432089475595,-2.2534514177673715
98,-2.120722452890929,-2.759418517909577,5.629291372391168,0.5873604074912993,-4.326432297542194,5.818820070231201,1.804294967764761,3.813093635357563,1.5786800242453851,1.4511183189910504,-0.09028507710533264,0.9639182834622929,-3.806649789979486,-0.4200142323288479
99,-0.8380311711902116,-1.6641612588027552,6.569156169333564,1.3414739118925185,-3.484536882463167,6.407639389504602,2.7180684610075123,4.434024000553495,2.1790064254841575,2.923530896648638,1.7722428637368843,2.6963331034704248,-2.434759001822454,1.422376935027956
100,0.4332238912738231,-0.5685238028701166,7.482518111795177,2.076244621678911,-2.5942360627152725,6.896639497503718,3.614441690926336,4.9653049013089365,2.7494897612917564,4.361116021943774,3.6198163343570027,4.380316251081459,-1.0436135571986391,3.246436101995357
101,1.6778084718868458,0.5072646782377197,8.357836169395275,2.7777143479032405,-1.6736000840698788,7.2703519976917415,4.483477345817592,5.405754328913393,3.2785021974747552,5.741133167861242,5.4232461462806585,6.001344306294795,0.34678921766417653,5.026124656802766
102,2.88204812398441,1.5444858069074292,9.184299396662876,3.433121994938208,-0.7404776330398077,7.5165166937126315,5.316261334369675,5.7568764438662114,3.75571511611677,7.042751924972572,7.155048383493117,7.546872931520129,1.7173313687718896,6.737185630669215
103,4.0338821309027875,2.526372016516766,9.951930893084752,4.031244291670318,0.18798149877683634,7.6266225999477895,6.104950942527647,6.022575934322479,4.172363731570585,8.247452026542966,8.789989210075309,9.006261903113833,3.050036490568237,8.357577392817443
104,5.12284097073954,3.438439510562071,10.651647277954567,4.5626751842926,1.0957438277246994,7.596313721322963,6.842767775532234,6.208770943851759,4.52144096282765,9.339327710230506,10.305531971897192,10.370616118982705,4.32827335641698,9.867804782009788
105,6.1399628715087875,4.268712294295736,11.275285184232025,5.020035856786422,1.9682388870358882,7.425636152134717,7.523941125235828,6.322929611888072,4.797826313771661,10.305304892823225,11.682187620545651,11.63256439802682,5.536912430623771,11.251147262654401
106,7.077665604209014,5.007839245252246,11.815606845724764,5.398108588993527,2.792628017312212,7.119110806863163,8.143610066146007,6.373559432879745,4.99835745621694,11.135278669674257,12.903770245736515,12.785998526040805,6.662443019102847,12.49378597904007
107,7.929589776558703,5.6491105735630285,12.266296998113228,5.693890219838156,3.55799231056807,6.68562514072944,8.697695798956142,6.369680953738227,5.121850858185646,11.822176897974291,13.957560148649769,13.82579483757933,7.6930557537230895,13.584834997072543
108,8.690429586167037,6.18838425339737,12.62196266561703,5.906564720567765,4.25544078392472,6.138146338809968,9.182758634797258,6.320317335495208,5.169074251574606,12.36195366500642,14.834377473128972,14.747540243019898,8.618693491962652,14.516285815968029
109,9.3557664366677,6.623935919802197,12.878145314955203,6.037398445509033,4.878142894714734,5.49326655380117,9.595855775699816,6.234028908364624,5.142669998722375,12.753514633410889,15.528570037060183,15.547284262520465,9.43107316628742,15.282877582552427
110,9.921920622828907,6.956247247765827,13.031351699681126,6.0895654275916336,5.421292016485322,4.7705976721593775,9.934416649627375,6.1185174791380375,5.047026408396121,12.998575476654882,16.03792021964152,16.22133846488349,10.123681497551088,15.881908642261664
111,10.385836958742388,7.18774921378007,13.079107074380829,6.067913685588919,5.882009114921922,3.9920394094926923,10.1961523301913,5.980319861453306,4.888094722295809,13.101455990215177,16.36347832650319,16.766144769651394,10.691749386422297,16.313009039943665
112,10.745020980114234,7.322538583660073,13.020033296985481,5.978686834173999,6.25919837426431,3.1809505130907505,10.379014308504482,5.8246049297164255,4.673152771370213,13.068816454660878,16.509333873773222,17.178233681896227,11.132213320791802,16.577897912524108
113,10.99754101430568,7.366087173909471,12.853953481417763,5.829217487771052,6.553368101241158,2.361257841319199,10.481214663298049,5.655083304811148,4.41052123928505,12.909348287203324,16.482340408954478,17.45429091117221,11.44367564330047,16.680152128855585
114,11.142105984259404,7.324961830757458,12.582022153830483,5.627609137983473,6.766430339620705,1.5565415375216043,10.501313819793525,5.474032371221336,4.109243614674065,12.633435372666908,16.29181179747122,17.59134388019103,11.62637633133445,16.62501088699596
115,11.178219063130067,7.206568135578483,12.206874488702391,5.382421539110275,6.901491423764151,0.789136661760908,10.438374146240609,5.282431164026197,3.7787452006836966,12.25280360382705,15.949207021483192,17.58706735164446,11.682185344330104,16.419234570135444
116,11.106394913660514,7.018924089532645,11.732781173697315,5.10237216344235,6.962643731801024,0.07929269656599217,10.292169058304836,5.080190842667335,3.4284897386161157,11.78017400597383,15.467816324812809,17.440190756068287,11.614616926969925,16.071025235588582
117,10.928416176855755,6.770463752527563,11.165788575236993,4.79606372583309,6.954766587831733,-0.555568544233301,10.063429325663868,4.866458779450537,3.067654077622895,11.228930824901099,14.862454970789164,17.15097187469226,11.428857647847893,15.590002084047457
118,10.647596331090014,6.469866841019527,10.513819149867834,4.471745305639739,6.883341728328019,-1.1014601198324214,9.754101659377044,4.639969014315855,2.704840957761269,10.612811726510397,14.149164219110569,16.72168687377238,11.13179156325728,14.987211590672652
119,10.269012970970122,6.125909156259009,9.78670636167259,4.137112244043039,6.754286038859725,-1.5482731220088857,9.367590289671377,4.399409427195874,2.34784640534278,9.945623819399145,13.344915090871746,16.157079424847222,10.73200149777838,14.27514282456742
120,9.79967760731507,5.747329395453968,8.996142493264374,3.799147702769114,6.573801643712146,-1.8900362746646833,8.908951126166722,4.143776115066574,2.0034916154278886,9.240986840878902,12.467310113374287,15.464713260874863,10.239725730927725,13.467715827848059
121,9.24861351973303,5.342708822208352,8.155525572355591,3.464006456156616,6.348241536119281,-2.1249833996556786,8.385010500342739,3.87268718023179,1.6775208445452108,8.51210317238068,11.534280041042331,14.655181414821703,9.666753035284477,12.580214010457972
122,8.626820695510085,4.920360814794805,7.27970099646803,3.136939518816164,6.083988680171329,-2.255431419631038,7.80438573915402,3.5866307897392447,1.374558633617647,7.771553009678462,10.563774388629579,13.742138650553272,9.026244581732604,11.629138726680768
123,7.947116109480692,4.488227938601134,6.384602593119236,2.8222571988512093,5.7873483077850505,-2.2874817077213185,7.177392052376548,3.2871264645090488,1.098113725586046,7.031112361024088,9.573445847345676,12.742138987927996,8.332478375302639,10.631974179779625
124,7.223848198661323,4.05378533123108,5.486806096995876,2.523328040398041,5.464455970518508,-2.2305653890450254,6.515829012452207,2.9767852152558185,0.850615172511373,6.301592395192584,8.580330276436106,11.674276601200257,7.600520466283226,9.606861851651258
125,6.47249539296654,3.6239505563905645,4.603015134529748,2.2426110248099556,5.121205711805794,-2.0968585398300807,5.832650056686654,2.6592635233619824,0.6334687495113506,5.592701069301335,7.600527036073039,10.55964475112262,6.8458359348633,8.57219369173196
126,5.709168659931003,3.205001089373119,3.7495053713224658,1.9817176531655127,4.763201995939151,-1.9005971005748745,5.141529337354397,2.339116708844362,0.4471270854517562,4.912930508727792,6.648888515843676,9.420642168143287,6.083859396717307,7.54614114540371
127,4.950046001559092,2.802501008692394,2.9415558553585117,1.7414991714188153,4.395735842349816,-1.6573248850838467,4.456350487332174,2.021566574862635,0.2911717107179893,4.269474321587943,5.738730826994665,8.2801675862323,5.329547877954642,6.54614296895899
