,AF3,F7,F3,FC5,T7,P7,O1,O2,P8,T8,FC6,F4,F8,AF4
0,-1.1192026449545662,-1.6434434868790941,-7.075981357577732,-1.559354747208963,-4.1439576403214025,-0.7040706844877649,-1.4650604744836349,-0.6722239562237166,2.303905454749148,-2.606113656358222,1.1856234079506143,-0.7653222368148728,-2.268375829656566,-1.9624437281891907
1,-1.1080399303395518,-2.449548809902682,-6.342909501450286,-1.549183661849879,-5.132776836707347,-1.7938816267940483,-2.039670473676889,-0.15296129608720618,0.8783546190490615,-2.4897701429905665,1.026411888532059,-0.25707903174325075,-2.0446034083509845,-0.9326446277383402
2,-1.0851307826117462,-3.235361125820603,-5.6119440402393,-1.5286543377234503,-6.09849884828385,-2.839690436742818,-2.5957538412458443,0.3602955930345623,-0.5167461461643983,-2.362825570981596,0.8756714350993395,0.25506251285036047,-1.8242702902983101,0.09532013363544443
3,-1.0385530444513031,-3.9732345585749336,-4.878714869587415,-1.4867741887123198,-7.019395686296667,-3.8095585523655613,-3.1118800415987047,0.8746685547823654,-1.8522327919641914,-2.2090526472993606,0.756234105957799,0.7800810007021464,-1.5984189756368599,1.1246765503450942
4,-0.957481510753946,-4.637201468513651,-4.138956354218581,-1.4133197323008562,-7.874858612091915,-4.674150871717198,-3.5684729856340547,1.3964532532079006,-3.1008974913088774,-2.012923031284385,0.6901220823755266,1.3260219249902352,-1.358085898191734,2.1585283318253974
5,-0.8326318467616786,-5.203846294897929,-3.3888612978980883,-1.299187777245625,-8.645870144375118,-5.407742335828198,-3.9485416973709917,1.930647331611122,-4.238398898738991,-1.760132748651957,0.6978736125704541,1.8995855920874891,-1.0945520698517657,3.199714190849148
6,-0.656640833603063,-5.653089548657733,-2.6254182681387195,-1.1367109113746625,-9.315433582661312,-5.989080708912517,-4.238269246436236,2.4805678736767356,-5.24405857755693,-1.4381192282280724,0.7978794493069858,2.5057667571714006,-0.7996168606743597,4.2506480809620415
7,-0.42436696590116924,-5.968853833100142,-1.8467195063352135,-0.9199259888099766,-9.868948573168552,-6.4020748076073986,-4.427436481321306,3.0475762124941164,-6.101511523786831,-1.0365507237457035,1.005752374869263,3.1475600239206782,-0.4658867893493722,5.313144365716942
8,-0.13309690687601042,-6.139584364987342,-1.0522239396185393,-0.6447846750124829,-10.294522497134995,-6.636287137066839,-4.5096684700040415,3.6309225634861453,-6.799185890253601,-0.5477621635255044,1.3337602961600643,3.8257459587339993,-0.0870621919747825,6.3882357158700875
9,0.21735375731933948,-6.158599280866638,-0.2429586226017768,-0.30929692445545987,-10.583209607950526,-6.6872194900242565,-4.482503185271052,4.227717059287113,-7.33059690637395,0.03289066884413783,1.7903563184638318,4.538771650142578,0.3418004308870473,7.475996466375694
10,0.6246517299665634,-6.024251234063044,0.5783560796142744,0.08639840180469384,-10.729171799793722,-6.556389291745216,-4.347293483179179,4.833027441619893,-7.694450842223255,0.7067837609290258,2.379835969540938,5.282734661103529,0.8240721865135433,8.575386980504284
11,1.084068731798349,-5.739890406684291,1.4072678806650627,0.5400380798183229,-10.729755727767207,-6.251202052875896,-4.108962519449729,5.440097828429231,-7.894563347054115,1.4719036305365774,3.102144464023801,6.051472623566829,1.3613994022262421,9.684135016062971
12,1.5887088834380039,-5.31362843816847,2.237645714807567,1.0473141096466387,-10.58548117619551,-5.784629947430425,-3.7756372428328757,6.040678160268714,-7.939601023961,2.3228651387698016,3.952848402551979,6.836754560967574,1.9536275061506028,10.798668666440937
13,2.129828492451934,-4.757912461393558,3.0618244300559705,1.6020264225479008,-10.29993670086615,-5.174709000791429,-3.3581850370559834,6.625449300329191,-7.842657573685606,3.2510743146934282,4.9232772423109195,7.6285649197012155,2.598807640372712,11.914112472811588
14,2.697230941145229,-4.088928980360484,3.8708344420143463,2.1963040556258613,-9.879582011352042,-4.443870268637115,-2.869677876791929,7.184522906321594,-7.620679553840131,4.245033218305508,6.000829037760064,8.41546606052735,3.293284846058462,13.024353300724103
15,3.2797139930095653,-3.3258686628250342,4.654702076370462,2.8208858645968986,-9.333462350838808,-3.6181255568130126,-2.324808882551893,7.707987954519549,-7.293763257430726,5.290772498345475,7.169422065630068,9.18501913748485,4.031857221355627,14.12217506904153
16,3.865541882168867,-2.4900937521691895,5.402798872167755,3.4654471826700393,-8.672846964731006,-2.7261349326692685,-1.739287782877241,8.186469030765876,-6.884352360980946,6.372384931090088,8.41006122218001,9.924238198501907,4.807986068285157,15.199452439864396
17,4.442912027509217,-1.6042570786643682,6.104213451672685,4.118955721672989,-7.910809586567881,-1.7981892360108065,-1.1292425675559083,8.611657943124987,-6.416373607108975,7.472622631695301,9.701478984142202,10.620049889241336,5.614030707023135,16.247385913793565
18,5.000388035244649,-0.6914228515225798,6.7481195705509425,4.770039639777981,-7.061771952967716,-0.865144363337931,-0.5106526306520955,8.97678167019616,-5.914352656447529,8.573515061533776,11.020807998502521,11.259732500689093,6.441480867343505,17.25675730627673
19,5.527277044097226,0.22576631790816537,7.324118728704242,5.407352738056564,-6.141031370116896,0.0426547462871204,0.10116623165184846,9.276975899752978,-5.402552885363132,9.65696666275028,12.344246713204084,11.831313128988974,7.281165032130361,18.218186266581526
20,6.01393834061791,1.125842001163132,7.822543327425882,6.019924729849488,-5.164291534116773,0.8964226362914126,0.6920106129425327,9.509542353598999,-4.904176221330566,10.705301486320701,13.647689082139463,12.323908814672286,8.123423044954505,19.122373892295915
21,6.452018482348451,1.9891586996375554,8.234713890574554,6.59748703944188,-4.147213555864001,1.6699170179635043,1.2491625404309814,9.674077366904053,-4.440658062248984,11.701734540009483,14.907300742006887,12.72800451647995,8.958242487191903,19.960325816286513
22,6.834614036507473,2.7984237174431783,8.553149319863726,7.130766130259355,-3.1050018964824697,2.3403210701156376,1.7616801542305938,9.77246763837927,-4.031078986151511,12.630762066271094,16.100033723798553,13.03566633124146,9.775367693451829,20.7235517731598
23,7.156366387511905,3.5390990937127578,8.771732313022838,7.611737112097933,-2.0520376452093885,2.888989976327689,2.220601303217443,9.808756747570774,-3.6917054736269477,13.478472559773579,17.204077889986532,13.240692267028074,10.564395573348285,21.404240291414254
24,7.413494662059482,4.199671098354022,8.885833640189887,8.03383057808887,-1.0015693780020551,3.3020317936091548,2.6190573649543474,9.788893258802837,-3.43566192512423,14.232785412054595,18.19924996730186,13.338705170934775,11.314872632670895,21.995406392422325
25,7.60377346368881,4.7717868859661525,8.892399613494991,8.392085655995974,0.0345304728895832,3.570699664866204,2.9522974685779397,9.720377955896966,-3.2727286402606643,14.88362498023036,19.067321606852232,13.327193249450561,12.016403633937378,22.491008881066676
26,7.726462421434213,5.250262242293399,8.79000737211178,8.68324292432853,1.0459388406449206,3.691581204729765,3.217627256236697,9.61183351774707,-3.209256223088034,15.42303649499864,19.79228776649737,13.20550356723014,12.658776777736458,22.886033698133655
27,7.782194891379884,5.632969254975959,8.578892881612981,8.905772879609986,2.023983678737316,3.6665806832101073,3.414270992948803,9.472524086703443,-3.2481861775577405,15.845248198165663,20.360576546264806,12.974793802683777,13.232105601118374,23.176541341152305
28,7.772833570066198,5.920617491131265,8.260956450284116,9.05983892313516,2.961676358877508,3.5026991904207416,3.5431703035120803,9.31185416923202,-3.3891692079495632,16.146682001218952,20.76120146894996,12.63794797118933,13.726984842255801,23.359678819917203
29,7.70130142421094,6.116445699138976,7.839749441999977,9.14719751551899,3.8536796526962322,3.2116262007010064,3.606736271843474,9.138875969706433,-3.6287749662693725,16.325913119084035,20.985857186088158,12.1994630290087,14.13465594110568,23.43365917511665
30,7.5713977734286315,6.2258430875756465,7.320444063524551,9.1710416393937,4.696218188617611,2.809162708349376,3.6085739954868434,8.96183194473276,-3.960787806411808,16.383578413892863,21.028960247148984,11.665315352294213,14.447177495640894,23.397714524365867
31,7.387612023833076,6.255921106668154,6.709787164935869,9.135797076424986,5.486940499523966,2.3145020416551816,3.553200228822252,8.787756053993226,-4.3765815757361555,16.322234674741424,20.88763865604385,11.042819020097145,14.657597456412175,23.25203279236466
32,7.154950581739979,6.215059046294344,6.0160398235991615,9.04688416486886,6.2247439646343565,1.749399862133375,3.4457752188579334,8.622153833911772,-4.865562678537732,16.146172197558275,20.56167754750205,10.34049085557328,14.760127206423098,22.997693242415192
33,6.8787935984273805,6.112448345531568,5.248905832362028,8.910459803133797,6.909575280158728,1.1372691413552667,3.2918682576480327,8.468777817229146,-5.415665530981459,15.86119463441122,20.053432145454487,9.56793840413381,14.750321273405643,22.63661931458764
34,6.564795304486916,5.95765918790139,4.419451833283248,8.733154608464423,7.542219036121769,0.502238587337524,3.0972721100636016,8.32950970324158,-6.013879541012166,15.47438054790694,19.367721188440623,8.735784220186561,14.625267549382148,22.171566863374856
35,6.218834435967859,5.76024817832386,3.5400188111733355,8.521818495966787,8.124085691776282,-0.1317856205647662,2.8678748102605782,8.204353451563613,-6.646782941669282,14.993843296688933,18.511712893477917,7.855631841468742,14.383789808899941,21.606160876857587
36,5.847011198388696,5.529419143041925,2.624119890642184,8.283285508952092,8.657008275540356,-0.7420145529082671,2.6095897386640154,8.091535166169987,-7.301056406993699,14.42850368996445,17.494811142917325,6.9400664484165935,14.026657326295675,20.944984300949788
37,5.455677178662579,5.273742630089706,1.6863145457307664,8.024166236070975,9.143054903725941,-1.3075888828887914,2.3283375685178744,7.987698006733124,-7.963948580544558,13.787885717389019,16.32854289795054,6.002669342129402,13.556787585907196,20.193710008535753
38,5.0514776862102,5.000935315239725,0.742046306628196,7.750673765794626,9.584361831293675,-1.8102743965960788,2.0300673007637378,7.8881746604522425,-8.62366735024827,13.081941178260333,15.026441134249206,5.058014396680462,12.979420585512393,19.35925461503475
39,4.641384008240067,4.717698741887169,-0.1925684007531945,7.468486877859678,9.98298926026747,-2.235013542479032,1.720799015716822,7.787316576673334,-9.269675846900535,12.320905224783964,13.6039135855608,4.121610483821032,12.30223979277456,18.449924813856857
40,4.2326955418785746,4.429616599172932,-1.1010078718999288,7.182651985550879,10.340799791849532,-2.570315252020606,1.4066691114375174,7.678857866674107,-9.892880549315135,11.515181971646035,12.078087315969952,3.2097578247767906,11.535416099824044,17.47552510199633
41,3.832996874963012,4.141109487339177,-1.9666690083631515,6.897523138150202,10.659357854411702,-2.8084755571142286,1.0939599026430409,7.556291564034488,-10.485709186405018,10.675257048082605,10.467621155136406,2.3392965183140135,10.691555766409524,16.447399366039814
42,3.4500612433260374,3.8554452043854184,-2.7732387807741654,6.616737534118165,10.939848575917885,-2.9456317519261694,0.7890988053018972,7.413236208547202,-11.042086423927909,9.811631933248115,8.792480187462568,1.527239046225043,9.785539876056273,15.37838613892647
43,3.091698985733285,3.574801487493634,-3.505097175731977,6.343223095628359,11.183016802783829,-2.9816615882017836,0.49861705789389316,7.243772018665999,-11.557323474613623,8.934773498739961,7.073668155450008,0.7902929838744495,8.834250891334024,14.282677031815966
44,2.76555727780689,3.300377303578948,-4.14772998837014,6.0792346443878795,11.389130289952345,-2.9199450302996395,0.2290636102720817,7.0427294345681375,-12.027941896459595,8.055072226401846,5.332915820089298,0.1442941833510438,7.856191316829462,13.17557817797412
45,2.4788845833439446,3.0325479478293573,-4.688126400402369,5.826415246314235,11.557973422890745,-2.7670093535050357,-0.0131237407384704,6.805918791810383,-12.451451495835123,7.1828041675454,3.592327084845621,-0.3964167141577248,6.871008980086173,12.073183416590457
46,2.2382786284341822,2.771057834820922,-5.115135396619461,5.58587867922037,11.688877676689978,-2.532079882629149,-0.22178123989579707,6.530296863682534,-12.82609920680214,6.32809347578197,1.8739895971035196,-0.8196321126629199,5.898950825657314,10.991974236615217
47,2.049439142320949,2.515242776935892,-5.419757335640054,5.358307766139968,11.780792448028867,-2.226559671943538,-0.39120183624309074,6.214071742703044,-13.15060320063053,5.500872353779247,0.19956059455953543,-1.1158828186146172,4.9602707240600905,9.948365444723867
48,1.9169455082183198,2.2642710387404614,-5.595352633324314,5.144061952214326,11.832396045309968,-1.8634623533027632,-0.5163206382958456,5.856750670964865,-13.42388654316817,4.710832868711529,-1.41015974503951,-1.2789653006085726,4.074616695978981,8.958217676310886
49,1.8440750999068742,2.017390006321606,-5.637757797184821,4.943286440662826,11.842242777742364,-1.456822578205594,-0.5928870170401437,5.4591362477180505,-13.644827128307401,3.967361729347406,-2.935655856785139,-1.3063512657962002,3.260420788342985,8.036338335524219
50,1.8326716205000328,1.7741633623591908,-5.545308302646502,4.75601480303746,11.808939096657474,-1.0211071593340453,-0.6176107540486125,5.023276142139711,-13.812042760159148,3.279447294463485,-4.359114398172268,-1.1994492616935453,2.534312539244545,7.195991537847702
51,1.8830659296862848,1.5346826734262926,-5.318776008131561,4.582257409620464,11.73133950206583,-0.5706473644750646,-0.5882740855633148,4.552371168929491,-13.923729261721554,2.6555498852093966,-5.664820298026379,-0.9636992194414937,1.9105755597479517,6.448436020078691
52,1.9940464110594334,1.2997377344855132,-4.961234354858595,4.422069161756972,11.608750568313132,-0.11910983517249532,-0.5038055433930521,4.050646904650166,-13.977564279743762,2.103432442176813,-6.839517543733747,-0.6084928427404678,1.4006661766702464,5.802508827483145
53,2.1628730501293782,1.0709321426657672,-4.477866979261666,4.275591574723674,11.441128718707297,0.32097889404106744,-0.364314750716755,3.5231947792112277,-13.970681300306953,1.62995732415549,-7.872718870856995,-0.14692423118664155,1.012812773826039,5.2642722634983015
54,2.385329151367511,0.8507343698288148,-3.875735100315173,4.143066146818435,11.229255534366262,0.7386411663969598,-0.17108965841621113,2.9757893318540467,-13.899709757834243,1.2408640848181585,-8.756946948442641,0.40461539806383445,0.7517140567776914,4.836741769702619
55,2.655806225984187,0.6424597212727015,-3.1635169068675926,4.02481822363492,10.974875017899352,1.1247786602499787,0.07344110089866258,2.4146888731842475,-13.76087044710506,0.9405499457409603,-9.487888619899332,1.0269786927331352,0.6183535810199579,4.5197124294659075
56,2.9674198736472412,0.45018415257021827,-2.351228964465347,3.921213097192621,10.680780494552469,1.4724144156230108,0.3657777447485343,1.8464269301652807,-13.550112804622508,0.7318773279688218,-10.06444444525928,1.6989152008026633,0.6099454610395335,4.309700494115548
57,3.3121563035588872,0.27859581073544065,-1.4499365367146804,3.832588385034933,10.350843172663554,1.7768381141003289,0.7014475062283785,1.2776010879833921,-13.263282986233616,0.6160298650009628,-10.488660527518386,2.397810599654365,0.7200207717656958,4.200012275194942
58,3.6810496621419726,0.13279367692743282,-0.47145777496697333,3.759168362655508,9.989978068194873,2.0356489362695664,1.0751275410373713,0.7146641854875616,-12.896317385531123,0.592430654852951,-10.76553887597028,3.100483856686492,0.9386555367071724,4.180945600645267
59,4.0643892909864565,0.018044902472706938,0.5719338047372258,3.7009668392470925,9.604045706308812,2.24869454286391,1.4807880786074294,0.16372130376924177,-12.445461347516085,0.6587272878430431,-10.90273378156734,3.7840113939320186,1.2528309750613227,4.240120202453915
60,4.451953707177268,-0.06048631571946029,1.6678038780703657,3.6576856358590417,9.1996909052687,2.4179108496599317,1.9118513746900712,-0.36966420959175605,-11.907514018928294,0.8108403367221749,-10.910151818717138,4.426545243897883,1.6469070191956918,4.362924656200504
61,4.833265258364036,-0.09802477360698326,2.803843878984922,3.628615989865699,8.784124119966567,2.5470743411449566,2.3613627859344204,-0.8806510962702051,-11.280097119374142,1.0430663973264438,-10.799480692717028,5.0080915602115414,2.103182656315494,4.533059726652456
62,5.197857233267597,-0.09047067179497308,3.968144498191414,3.612550422622352,8.364855996291835,2.6414847286071064,2.822171208402275,-1.3652801543773814,-10.561939692251878,1.3482232682292685,-10.583676489135804,5.511217372330603,2.6025125779776683,4.733151655097277
63,5.5355445924536975,-0.0346698685092263,5.149451195733852,3.607712856636876,7.949400738560161,2.7075992302738,3.287116491862709,-1.8206049947855207,-9.753164850470736,1.7178235234011032,-10.276439254297154,5.9216574698668865,3.1249495213996945,4.94540482101856
64,5.836690159318773,0.07135076596620082,6.337396721542049,3.6117149358262224,7.544967557717982,2.752640409557435,3.749220757464352,-2.2447837807780773,-8.855560028386764,2.1422637747540185,-9.891703472781412,6.228799303646384,3.650385109760368,5.152262180680263
65,6.092458909564437,0.2282020052799428,7.52270491303752,3.6215462028528176,7.158161213302369,2.7841982590873213,4.201878758352957,-2.637122907792201,-7.872810275093198,2.6110205348979862,-9.443164280807332,6.42603059856403,4.159167820551082,5.337044042950485
66,6.295053135213116,0.4350212112350879,8.697358848019256,3.6336046260186525,6.794712165956297,2.8098453996326467,4.639040077945712,-2.9980660466724527,-6.810674440198928,3.112849616003572,-8.943853723884143,6.510940809592243,4.632683580374239,5.484539867605609
67,6.437920898184683,0.6894421003420532,9.854725228031159,3.643771759528223,6.4592541900137945,2.8367827159822396,5.055373962234893,-3.329125383667412,-5.677085859535227,3.635992799127387,-8.405775366248182,6.485373018797558,5.053890535968419,5.581531925603236
68,6.515929804150579,0.9876482876344911,10.989625947276409,3.6475335592317726,6.155162768062541,2.8715310266689147,5.446406569054372,-3.6327555073313067,-4.482162014939825,4.168399962548011,-7.839601330835914,6.355327200550453,5.407802651128461,5.617232803214347
69,6.525498214410487,1.3245053251286585,12.0983476729344,3.640143806334805,5.884461738061865,2.919681272949406,5.808620505872511,-3.9121739513125253,-3.2381119383568144,4.697974714765555,-7.2544340328843715,6.13071911588925,5.681916003216259,5.583621429691459
70,6.4646774196787415,1.6937587090298118,13.17858195914706,3.6168229464117574,5.64779965694205,2.985710775222559,6.139507766133431,-4.171135673657528,-1.9590359880511077,5.212847300555517,-6.657634889752613,5.8250021977608935,5.866568266736866,5.4756657522370995
71,6.333181787537109,2.0882809138825946,14.22929261599325,3.5729820020479863,5.4444926084995355,3.0728671990439813,6.4375698021981265,-4.413671265533902,-0.6606197317725883,5.701672211956997,-6.054722856703217,5.4546638649261086,5.955218490328097,5.291425068100558
72,6.132369081299014,2.5003495484496328,15.250513114176442,3.5044597280519305,5.272627187315666,3.1831163989694393,6.702262475959919,-4.643800269100434,0.6402682507790586,6.153941160660788,-5.449345781929661,5.038613350154058,5.944633107636348,5.0320313775032695
73,5.865178423965378,2.9219401297689123,16.243083182731745,3.407760950441425,5.12921542830358,3.3171464775182073,6.933888476711267,-4.865232105018632,1.9260561739855155,6.56029576080689,-4.843326830592667,4.597484631546959,5.834965893388159,4.701556359837494
74,5.536036896245657,3.3450190767797405,17.208339057437392,3.2802839141263735,5.010391616136478,3.474418812901341,7.133444813269353,-5.081068211908501,3.178999988529512,6.912819482803835,-4.236786298715208,4.152883802694418,5.629723710769587,4.306777384703621
75,5.150746281968359,3.761824247886096,18.147775189911332,3.120523657490707,4.911638741527962,3.653257214492752,7.302437515362728,-5.293520029697439,4.381733490496104,7.205286265744817,-3.628336149903094,3.7266134255867365,5.335615279173469,3.8568605519082437
76,4.716358840400758,4.1651213596763315,19.0626961993108,2.9282372192537176,4.828030047399043,3.850967805123538,7.44267887297718,-5.503658213153177,5.517803834494235,7.433343972378992,-3.01534151587207,3.3399057862761556,4.962285648705591,3.3629797009155253
77,4.241046354519589,4.548425261957735,19.953876612104917,2.7045559988457204,4.754469610181147,4.063983502353722,7.556083678867407,-5.711208657316946,6.572160850473978,7.5946144305786385,-2.3942411236963093,3.0126926990575478,4.521943890082566,2.8378877737256185
78,3.7339621787708364,4.906176165225056,20.821243364773235,2.452032082894332,4.685916477070669,4.288027185587161,7.644480104072768,-5.914409742324441,7.531574748188047,7.6886981311680564,-1.7609166447508304,2.762933610499259,4.028895993599475,2.295453031751775
79,3.205093188680985,5.233863166696538,21.663593124585578,2.1746094111577325,4.6175798197158535,4.518286828848479,7.709448727464322,-6.1099418994324415,8.384966636492932,7.717080471784976,-1.1110979212619396,2.6060185581355992,3.4989998414243435,1.7501701746030116
80,2.665097209713802,5.528090394136989,22.478353469568287,1.877516655761063,4.545076780606766,4.749594937848589,7.752200116239823,-6.292935875181274,9.123647752160046,7.682946019554709,-0.44078690731857195,2.5542584980407668,2.9490640866442375,1.2166561438622807
81,2.1251202149168993,5.786583591543716,23.261393415809817,1.5670849850415713,4.464548605484152,4.976604363591631,7.773496771117846,-6.4570620120442594,9.741472952540969,7.59091494814464,0.2533199520536717,2.6164712429301415,2.3962162445953736,0.7091407264017997
82,1.5965856400815195,6.008136319847399,24.006884583108896,1.2504990297507481,4.372733425304428,5.193953192589326,7.773619180788148,-6.5947009429500145,10.234919265418384,7.4467200373563776,0.9734311839146682,2.797665765914396,1.8572657203372904,0.24096166212731301
83,1.0909468403625004,6.192495862238813,24.707210541041917,0.9354930765317739,4.266996003970433,5.396412830594481,7.7523695039626,-6.6971958191935395,10.603100750603666,7.256843864255643,1.7202988990288521,3.098822061094903,1.3480848717267249,-0.17592650185359332
84,0.6193952808968267,6.340191023639469,25.35292046846595,0.6300071747332555,4.145316683341842,5.5790152250268426,7.709102099607307,-6.755185844559435,10.847727633550203,7.02813545633586,2.4929099741874032,3.516760638753614,0.8830274017811212,-0.5314196186740509
85,0.19252270891361287,6.4523082615208365,25.932725448153974,0.3418196630007875,4.006243823319428,5.737156686359991,7.642769129352939,-6.7590190095170115,10.973011745579422,6.767424762044378,3.288240333607154,4.044096881139606,0.4744007455499791,-0.817694184519481
86,-0.18005568758341117,6.530228374875066,26.433541021284203,0.07817382923359668,3.8488158972372264,5.8666764843873525,7.551971626128198,-6.6992377458779915,10.98551336715935,6.4811522945553595,4.101081623286458,4.669280690683521,0.13200869748614788,-1.0295834894071503
87,-0.4901005824383122,6.575341834703499,26.840586065545832,-0.15458251477739474,3.6724609510192967,5.963908686202756,7.435010497738238,-6.567124404778289,10.89391955420041,6.175030438353241,4.923949893457607,5.376729085300103,-0.13721851337490115,-1.1648783706340404
88,-0.7311456748968033,6.588765484601628,27.137553196581813,-0.3513250205111514,3.476882514725747,6.025706460824521,7.289936364073861,-6.355284280226826,10.708744074216057,5.8537521557522965,5.747086965791068,6.1470656103379016,-0.32948901961663,-1.2245287567704493
89,-0.898863392583206,6.571085708129368,27.306867622385596,-0.5084295672326317,3.2619421093214656,6.0494398809051555,7.1146007142850705,-6.0582338322939595,10.441945331404883,5.52076177596164,6.5585651460889896,6.957482706271071,-0.4442931561270438,-1.212723300469056
90,-0.9913695747013535,6.522152178051478,27.33004856213894,-0.6239820209926266,3.027548772039856,6.032970993673606,6.906713080135988,-5.672953260859488,10.106469529999075,5.178100468020256,7.344503029696611,7.782239889741174,-0.4844155791889608,-1.1368301158391172
91,-1.0094416789869174,6.440941582961479,27.18818035726854,-0.6979099639529592,2.773565107257535,5.974612887382132,6.66390972546773,-5.199358145783222,9.715738466691102,4.826335233783406,8.089393927744277,8.59330214380702,-0.4558125348683911,-1.0071912433090418
92,-0.9566319463835743,6.325503404576852,26.86249096935133,-0.7320307140182685,2.499737053305544,5.873081647465844,6.383838773279868,-4.640646196046955,9.283111161520363,4.464574895622878,8.776540049081715,9.361111129222374,-0.3673595322462697,-0.836774889731072
93,-0.8392645449700581,6.1729921757758754,26.335025683579694,-0.7300147499071797,2.205651364002682,5.72745077949282,6.064264742982666,-4.003482435788501,8.821353810185984,4.090570908016886,9.388577065389395,10.055469249225128,-0.23048178540042483,-0.6407001766327919
94,-0.666312518964622,5.9797845504291915,25.589394839449763,-0.6972671508761132,1.8907220886168956,5.537116786847061,5.7031924601518975,-3.2979979468669325,8.342153135719103,3.7008966110660406,9.908067214514,10.64650575307893,-0.05868455577137895,-0.43565712563375303
95,-0.44915613495183015,5.741675231016431,24.611566848102584,-0.6407320018072759,1.5542060543018723,5.301782390767924,5.299006838309919,-2.537591388436489,7.855705161163424,3.29119634970576,10.318135669984022,11.105686581265813,0.1329966680207155,-0.23924946466243904
96,-0.20122937167712612,5.454142524227231,23.390672207102185,-0.5686267433513373,1.1952471853854545,5.021460800109426,4.850621860554281,-1.7385370268366283,7.37040586532742,2.856495025546802,10.603124070170301,11.40682584203332,0.32860452941168455,-0.06929015433238238
97,0.06243419000182268,5.112671439372325,21.919781662198833,-0.49011548905127894,0.8129496738019377,4.696501287399877,4.3576300695547925,-0.9194165483959085,6.892663187405974,2.3915583338790825,10.749235964477863,11.527056375065484,0.511904330665817,0.05692020059355278
98,0.32574135405475657,4.713119635117788,20.196622340988483,-0.41493198659660335,0.4064801322570781,4.327634069030205,3.820443526860932,-0.1004037025446235,6.4268418588869425,1.8912934582204033,10.745150609614896,11.447719400861157,0.6670423332415159,0.12330319027926148
99,0.5721475528862235,4.2521087417384,18.224198097226225,-0.35296431964859165,-0.0248016468390489,3.9160314160650884,3.2404179900326953,0.6975590902060242,5.975342850795896,1.3511780031585374,10.582582732806669,11.155137615975073,0.7791948616673853,0.11567343143109869
100,0.785312094534342,3.727420123112549,16.011282453021764,-0.3138156243213693,-0.4811856532973474,3.46338142037628,2.619952841171391,1.4536443203392961,5.538807165958494,0.7676999636315082,10.256765412027475,10.641240514247658,0.8351829674446304,0.022343863365935534
101,0.9497744691263383,3.1383704440033395,13.572754069585493,-0.3063583237353238,-0.9624341969685619,2.9719701739318087,1.9625597954110527,2.1480289146714875,5.116420724218045,0.138784038237144,9.76683159871564,9.904014699649004,0.8240244903564037,-0.16536049056745145
102,1.0516216408870454,2.4861403137721383,10.929747145744534,-0.33830240388974847,-1.4675941348668475,2.4447671356656175,1.2728944978109442,2.7627339000532203,4.70628694488381,-0.5358267973741203,9.116069528465617,8.94775723235283,0.7373948495917436,-0.4527036379933636
103,1.0791148142828215,1.774030742627308,8.109594238877722,-0.4157995035510765,-1.994812826287747,1.8855073513280043,0.5567474508706969,3.282363968067857,4.30582997499328,-1.2542663545620603,8.312031050813097,7.783118582194896,0.5699723490546366,-0.8412715828035655
104,1.0232460033909643,1.0076273700850653,5.145547209428433,-0.5431036452050224,-2.5411746346792303,1.2987630241031607,-0.17900623863685006,3.6947090245960137,3.912194951059194,-2.012342794970518,7.366480322299362,6.426933195751663,0.31965296119496395,-1.328844864058006
105,0.8781986515429931,0.19485969872582024,2.0762724866607947,-0.7223068549612512,-3.1025755801319606,0.6899957816674565,-0.9264961625946281,3.991185540136485,3.5226193621725748,-2.8034546213604807,6.295181385756998,4.901847468269258,-0.012369310820822387,-1.9094087122358823
106,0.6416910483943506,-0.6540499720551023,-1.0548718527173633,-0.9531643237189492,-3.673651784598816,0.06558022038787555,-1.6769812176438181,4.167110361215946,3.1347576865864224,-3.6186310812832576,5.117534168576885,3.2357644602466977,-0.42165043825928716,-2.573291169923624
107,0.31518577631824685,-1.5267464134317925,-4.200759106294383,-1.2330194382775388,-4.2477728868879705,-0.5672105906655504,-2.4210051250050655,4.221810552805487,2.746947737695259,-4.44669484700594,3.856077255682475,1.461130610309673,-0.9006598245466049,-3.307415408667299
108,-0.09604700461700537,-2.4090029087791645,-7.311590180959668,-1.556834131526553,-4.817106090890056,-1.200265748997668,-3.148578463081065,4.158578948794468,2.358411239324836,-5.274538640458248,2.5358811428669816,-0.3859084316681763,-1.439043214478399,-4.0956524403414125
109,-0.583019842531,-3.2850730311162644,-10.33612972644193,-1.9173249333829618,-5.3727515226371025,-1.824749101979032,-3.8493830650747345,3.984487438956723,1.9693837050769574,-6.087502985402216,1.183857351237335,-2.266457447996221,-2.023969487679729,-4.919263470755303
110,-1.133274294866931,-4.13811963838901,-13.22304479519968,-2.30520040592677,-5.904945785137056,-2.4312663618402297,-4.512994930936626,3.710070512106973,1.581170604492639,-6.869839200185686,-0.17199215146316282,-4.139905166234386,-2.640548563122925,-5.757424993739798
111,-1.7312804156646306,-4.9507077914707045,-15.922306333538563,-2.7094916184458704,-6.403327834032656,-3.0100854508680874,-5.129122161660345,3.3488918022200247,1.196128905586566,-7.6052395267006805,-1.503362678145675,-5.965023517956955,-3.2723110364036243,-6.587831963813363
112,-2.35898078005971,-5.705348626271724,-18.38661224824762,-3.1179637847101542,-6.857259096252598,-3.5514044311793245,-5.68785485170312,2.9170072690432773,0.8175760224178124,-8.277414294035081,-2.782450709688501,-7.701115411104463,-3.901742399101716,-7.3873736492817415
113,-2.9964640342328557,-6.3850807473677005,-20.572789277869003,-3.5175939650112578,-7.2561878254936465,-4.045656886662798,-6.1799240804074405,2.4323406281771276,0.44963202665185936,-8.870694096650555,-3.9827535454117613,-9.30919116046921,-4.51086456791905,-8.13287320005136
114,-3.6227463973971137,-6.974073859619013,-22.443129310920007,-3.8950969675498515,-7.590045924190513,-4.483840546029319,-6.596966735068049,1.9139897396442718,0.0970050668663822,-9.370633770214583,-5.079844026305239,-10.753148415703798,-5.081854819249956,-8.801876723358147
115,-4.216633172804975,-7.458236428754293,-23.96661458187957,-4.237479329965083,-7.849664655865465,-4.857851909124384,-6.931791783399718,1.381486461946991,-0.2352664424551861,-9.764595126864522,-6.052098990099955,-12.000924114163489,-5.597687800432581,-9.373471699582694
116,-4.757626340626352,-7.825805802794703,-25.119986046758413,-4.532599300744148,-8.027193517943227,-5.160808247746017,-7.178642000707049,0.8540363769192653,-0.5420983260911566,-10.042286472201713,-6.881359550509469,-13.025580947408011,-6.0427810575822605,-9.829108098262724
117,-5.226838802742544,-8.067895855394728,-25.88861058585037,-4.769708983377025,-8.116504052059136,-5.387339193562722,-7.333443251335963,0.34976816987461523,-0.8186529531797908,-10.196237614345508,-7.55350083684149,-13.80628557125954,-6.403619320962821,-10.15338890745338
118,-5.607871090405328,-8.178974158589826,-26.26710528744912,-4.939953468448142,-8.113558005404974,-5.533833362105598,-7.394031215293058,-0.11497525061055897,-1.0606192640292817,-10.222188965810268,-8.05888838117156,-14.329131518364342,-6.669328233535253,-10.334791017097915
119,-5.8876028998918155,-8.157238526129861,-26.259680702824195,-5.036801073749148,-8.016717535793912,-5.5986298796705025,-7.360342838740143,-0.5262710097720145,-1.264461566792742,-10.119373330006615,-8.39269819894738,-14.587757140255865,-6.832164907020142,-10.366273558861433
120,-6.056850536728754,-8.004862231061464,-25.880170147644467,-5.056378953053898,-7.826974341531225,-5.582147966117237,-7.2345569379401375,-0.8731439766996757,-1.4276222010475326,-9.890670285877826,-8.555078618451601,-14.58370939028973,-6.887891687961457,-10.245729553889248
121,-6.110843312896565,-7.728079015114539,-25.151720039561404,-4.997689958939726,-7.548075072374491,-5.486948346584673,-7.021165937216135,-1.1479587524278787,-1.5486690137695636,-9.542616329600605,-8.551135010235896,-14.326509652630754,-6.83600205011082,-9.976238801697832
122,-6.049478466823536,-7.337084107423794,-24.106128104867008,-4.86269087588342,-7.186523042526283,-5.317718774202722,-6.726959777912095,-1.3466511339144926,-1.6273837416189196,-9.08525905975194,-8.390724349548025,-13.833389225694752,-6.679774116570824,-9.566086413831805
123,-5.87732639945727,-6.845737017825976,-22.782832703927646,-4.656219787407293,-6.751442094780939,-5.08117446319301,-6.360905061661402,-1.4687803800804762,-1.6647901502860112,-8.531850773786017,-8.088055353780817,-13.128679386306663,-6.426137638141105,-9.028523178162432
124,-5.603375749882504,-6.271066020431493,-21.227576949371873,-4.38577084556684,-6.254297473383784,-4.7858651286451295,-5.933908605448001,-1.5173921610337917,-1.6631216882059023,-7.898386202314979,-7.661101617885182,-12.242862905053814,-6.085353605893639,-8.381260933290918
125,-5.2405286479147595,-5.632590892951286,-19.490793438496716,-4.0611261282896045,-5.7084795666402215,-4.4418851401199895,-5.45846448388752,-1.498693441029582,-1.6257291490700816,-7.203000160756336,-7.130848266468074,-11.21131812280039,-5.67052056519599,-7.645716403641042
126,-4.804876679086027,-4.951496302515613,-17.625776017615898,-3.6938646734797858,-5.128767886457282,-4.060492026298483,-4.948195597917762,-1.4215541125892428,-1.5569307155869445,-6.465251757186522,-6.520404826996629,-10.072810549955964,-5.196935632501035,-6.846037491100092
127,-4.314804782881096,-4.249700991025605,-15.686721500742195,-3.2967774110124277,-4.530703527936235,-3.6536495508827334,-4.417312747595045,-1.2968647332717884,-1.4618104546553867,-5.705330820214069,-5.854026927421295,-8.867808108338922,-4.681348886893144,-6.0079646451204045
