,AF3,F7,F3,FC5,T7,P7,O1,O2,P8,T8,FC6,F4,F8,AF4
0,-2.4984264587784693,-4.353252856139829,0.8162191421407189,-1.1981766057739252,0.5464029764079272,1.5226996948094933,-2.4117288794310365,0.5852774741728602,0.4585773272543835,-1.1786379334855226,-4.386920431905788,-3.7857884005661506,-2.1782013939702787,-7.123945523056011
1,-2.2912469506640334,-3.4073657749132695,2.626325871719818,-1.6368837583798288,0.46152844913607866,1.511220553880918,-1.1495424111969537,1.0526058222500585,1.5333395220539137,-0.7412495078216167,-1.980816596599722,-2.1101054319494925,-0.909710422579233,-7.414704108446752
2,-2.0712839841466453,-2.474320660738386,4.442201151123559,-2.058658548228651,0.3826266378368607,1.5127592218268038,0.09924267070241183,1.5205851150862708,2.5828906077781526,-0.30027072807807764,0.41419114503422677,-0.4535132865832745,0.3435453426442432,-7.685373978903612
3,-1.8340625842787588,-1.5593839324575345,6.234857296642852,-2.4489262469344686,0.3101495090797981,1.5294495988810537,1.3154764485362243,1.9982373176223,3.587656584031423,0.14187443113178871,2.779074319584714,1.1786828126268134,1.5701631900625743,-7.917301007652562
4,-1.5749432715976148,-0.6673406625136937,7.975599767257151,-2.7939284817596945,0.24464756020710576,1.563056133662549,2.4812180181695367,2.4947711383473155,4.5297594695882415,0.5826900235504944,5.095521171215098,2.7815518052477226,2.7597068133767606,-8.092830034208255
5,-1.2892128583225584,0.19760498794531747,9.636428874420487,-3.0811450665945133,0.18675771274689176,1.6149022783719096,3.58024629998559,3.01939378844153,5.393662312072249,1.0196475332030683,7.346180714696166,4.35030299153032,3.9028874005258656,-8.196015845625679
6,-0.9722470128541381,1.0318857438113755,11.19037820889564,-3.2996745825443363,0.1371764969810167,1.6858133690720472,4.59846945323246,3.581055593071323,6.1667028475428145,1.4502209384418225,9.514857344267867,5.880023424267955,4.991671937356275,-8.213277371297881
7,-0.6197398081578961,1.8325831308730443,12.611792334076918,-3.440560883921127,0.09661884228180966,1.776074188511347,5.5242186293722355,4.188123705387882,6.839481157875178,1.8719162204381408,11.586654602424744,7.365405199562492,6.0193184878706285,-8.133965559201814
8,-0.22798394763602073,2.597402247126641,13.87655687627879,-3.4970535198215535,0.06576431396531102,1.885399701323344,6.348422208285154,4.847993160500009,7.406072750621285,2.282296181166354,13.54807449756549,8.80049049782127,6.980347713917292,-7.950814982917989
9,0.20582273675813026,3.324621635542904,14.962300896461231,-3.4647918170718275,0.04519420424377034,2.0129171915964097,7.064665620657377,5.566656477214032,7.864050747391251,2.6790034518150176,15.387084751592734,10.178466649129755,7.870466164961429,-7.660252226192811
10,0.6832723557417943,4.0130326173832565,15.848593099570051,-3.341905857103475,0.035324006247106465,2.157159191709726,7.669148732758099,6.348264445020548,8.214317530815832,3.0597856968174044,17.093168656188002,11.491541654259466,8.686458886777416,-7.262541438588654
11,1.2044702911618772,4.661880876973307,16.517150323417976,-3.1290323181200086,0.03633600460553649,2.3160684477281652,8.160557458156497,7.194718052860726,8.460763752768878,3.4225265011913826,18.657370364980093,12.730922930380803,9.426067210296285,-6.761758395464944
12,1.767809220700203,5.270818899995953,16.952070504737975,-2.829248014685058,0.04811574456257407,2.487017706332795,8.539868750252618,8.105332970245355,8.609787316070522,3.765283272230947,20.072343564433773,13.886910509240666,10.08786397617029,-6.165596835050514
13,2.3698109787930846,5.839873271923752,17.140094916186833,-2.447927870154119,0.0701944564370255,2.6668476006162787,8.810108421240884,9.076613329006754,8.669714479175042,4.0863309270949095,21.33240562092371,14.949103105528177,10.671134951572839,-5.485022223994959
14,3.005048491172514,6.369427644886613,17.07089721186746,-1.9925363169629344,0.10169839821680288,2.85192522457977,8.976079651674421,10.102162179787161,8.650169388024642,4.384208826635175,22.433594678484646,15.906704001687105,11.175772904245722,-4.733796484599844
15,3.6661557463949954,6.860220594283548,16.737390271073803,-1.4723619584183025,0.1413064254327823,3.0382243228139685,9.044077245649408,11.172744067084386,8.561438091297575,4.657768877032427,23.373724843318055,16.748905267918087,11.602189402734274,-3.9279021782377748
16,4.3439296838199235,7.313356756192621,16.136036590513786,-0.898205663452178,0.18721850855588518,3.221425748507294,9.021599448289505,12.276502542232484,8.41386957275786,4.906224225006369,24.15243414891111,17.46532381914547,11.95124815732262,-3.0848968249841113
17,5.02752401228425,7.730328929579514,15.267145053276721,-0.28203251189668643,0.2371395646435972,3.39703469794613,8.917066405026837,13.399323471470442,8.217350609121292,5.129199682386136,24.77122062775385,18.046460964690283,12.22422252916451,-2.223227990976935
18,5.704731732140915,8.113048029324398,14.135136594150717,0.363402154027831,0.2882843739553425,3.5605101016634926,8.739552705099658,14.525324463829136,7.98088380671106,5.326786188541469,25.233462711609636,18.48415806617179,12.422778619797967,-1.3615380376579422
19,6.36235005307991,8.463876437019861,12.748762143370872,1.0249426528026524,0.3374098900605169,3.707401662686695,8.498540464943682,15.637441546297525,7.712288319695407,5.499600880634183,25.544420114891924,18.772023551495536,12.548982952575777,-0.5179853273581081
20,6.986617195758368,8.78565787022003,11.121256323889485,1.6894283807446944,0.3808800549483741,3.833490691530552,8.2036980239512,16.71807602829452,7.418029903923642,5.648850190390528,25.711209239813616,18.905809090573054,12.60532915039719,0.2903925319932498
21,7.563704939219062,9.081733800628964,9.27040943018751,2.3440824183820776,0.41476511669858596,3.934931294529659,7.864687350069179,17.74975824917867,7.103172632411526,5.776386289173695,25.742743539235544,18.88371473261976,12.594772370425757,1.0482487528517717
22,8.080245379633462,9.355934517154356,7.218539833231282,2.9768791318347554,0.4349732312716413,4.0083884159866,7.491001652202438,18.71578312491245,6.771432636457476,5.884740757533269,25.6496267486427,18.70660595763555,12.520756747235417,1.7424090153762202
23,8.52386736512971,9.612534091394526,4.99235091546793,3.5768761280863033,0.43740785320091247,4.051168856151018,7.091834227972863,19.600777389731363,6.425308379882975,5.977118036269799,25.443988229280585,18.37813186590564,12.387222365263222,2.3622494039051434
24,8.88371809435257,9.85616295262096,2.622661506301926,4.13449730216475,0.4181408861550974,4.061340713803742,6.675979782303341,20.39116980473237,6.0662629229946505,6.057336297705548,25.139255461387812,17.904742756297388,12.198584190948285,2.8999644224872685
25,9.150947258623427,10.091677808330502,0.1440058242542796,4.6417563298346405,0.3735896293584425,4.037835780855816,6.251769296922528,21.07555005251657,5.694938628054229,6.129711916823425,24.749867071522285,17.295614578609914,11.959683250605977,3.350728122390321
26,9.319133425195115,10.32399440320835,-2.4058932701236664,5.0924131807992925,0.3006859929713591,3.9805286040106322,5.8270384644450255,21.64491528216205,5.31139007525528,6.198891852817901,24.29093797585573,16.562494604418543,11.67571707250295,3.712758351480333
27,9.38463456083444,10.557893268917375,-4.986766755164293,5.482059767947123,0.1970290582056074,3.8902857039188063,5.409127844300264,22.092812297698956,4.915324422976784,6.26964416938554,23.777894190833386,15.719485762462611,11.352160163976613,3.9872972496328254
28,9.346846849658482,10.797811793783175,-7.556541209095603,5.808134553186188,0.061015424047364146,3.768979063166893,5.004910653933817,22.415387369945442,4.506339804707112,6.346620558942843,23.22609735383029,14.782786058495306,10.994685433938734,4.178519884781458
29,9.2083584433268,11.047637041443517,-10.072160039105913,6.06986946523559,-0.10805559439540714,3.6194594625551635,4.620841898820337,22.611355693313136,4.084152338128584,6.4341063606017075,22.65047784548699,13.770394841606972,10.609094291142755,4.293378387778514
30,8.974987544203769,11.31051241661376,-12.490463053995159,6.2681753412156604,-0.3099035641093288,3.4454874212694993,4.2630206380314215,22.681900561350087,3.6488018851908257,6.535773526258581,22.065191718689213,12.7017909748128,10.201257843280008,4.341383438044385
31,8.65569745974422,11.588668020630505,-14.769103262515012,6.405474044756091,-0.5432167513859629,3.2516221960897216,3.93725560273398,22.63051006211021,3.2008267572195206,6.654450934706461,21.483312107611464,11.59758169276667,9.777065981230583,4.334320960097393
32,8.262385291033805,11.883280650549624,-16.867480043502397,6.4854866926213655,-0.8056318543921032,3.043072356346606,3.6491231612931108,22.462757496312634,2.7413987978193246,6.79192509821851,20.91656177964742,10.479117466621402,9.342376953809678,4.285900866135172
33,7.809545801594316,12.194366275328628,-18.747667552657195,6.512988310475357,-1.0937457148655452,2.8255146307568815,3.404006077405198,22.186031324103052,2.2724128069134584,6.948782891816394,20.375090684202004,9.368068590645198,8.90295853230065,4.211336576789317
34,7.313817483499031,12.520706189813646,-20.37531620752114,6.493539698654208,-1.4031613063335069,2.6048905428740974,3.207102049685828,21.80922135402897,1.796527495522686,7.1243059308117935,19.86730073632184,8.285962758445306,8.464413222668984,4.126857822139741
35,6.7934235760957575,12.859807724551548,-21.720503702696824,6.433207366677124,-1.72857007010092,2.387192247705186,3.063392760348899,21.342369790876447,1.3171583926384858,7.316423095852272,19.3997191991646,7.253688077276146,8.032083521304267,4.0491640289713455
36,6.267526669568555,13.20790088114606,-22.758510899450222,6.338282425356228,-2.0638715601732947,2.178249447726163,2.977566894396975,20.796298153286266,0.838426206274195,7.521724080099701,18.976921540313395,6.290971643700498,7.610937977046793,3.994831344812078
37,5.755521501965022,13.559973299160946,-23.47049745546178,6.215009511090251,-2.4023292623570955,1.983527782409365,2.9538941122165476,20.18222343763112,0.3650671085899756,7.7355340996235915,18.601504593645668,5.415849611507347,7.205444015659707,3.9796928104678106
38,5.276296417437407,13.9098473672381,-23.844051971360294,6.069337055850276,-2.736758740801067,1.807945560463914,2.9960512647735467,19.511378777451366,-0.09768628901852926,7.952048626876114,18.274111453001,4.64415054971549,6.819438529163107,4.018217424675663
39,4.847499157492954,14.25030465048487,-23.873591496690363,5.906700401598406,-3.0597413676420304,1.6557114156300785,3.106907308711058,18.794654895791883,-0.5442440297806874,8.164526413000436,17.993510541577315,3.989019281114954,6.456011557687629,4.122918877017368
40,4.484846373045462,14.573263521228839,-23.56058599832622,5.731849272445054,-3.3638540134275865,1.5301827810720694,3.2882792065726574,18.04227869141799,-0.9688107160611277,8.365538052417266,17.756731977431347,3.460511924829126,6.117420983395837,4.303827976160929
41,4.2015173813909845,14.870015358673239,-22.913586079482982,5.548730404691675,-3.6419025594620114,1.4337455675759956,3.54067689983765,17.26354437206566,-1.3655463218902826,8.547265430681389,17.559263822309124,3.065292805431777,5.805055805185098,4.568063571135488
42,4.0076699093049095,15.131522099832548,-21.948038126017185,5.360433634637857,-3.8871458350959807,1.367718564246041,3.863060052572888,16.466610858573745,-1.7287342908583079,8.701844717225468,17.395308507991796,2.8064591541314248,5.519461769111729,4.919534016106934
43,3.9101076743883842,15.348772200082868,-20.6858809051153,5.169204685534578,-4.093497585126309,1.3322897417233992,4.25263114161488,15.658376622354387,-2.052954873759881,8.821742112498173,17.25809536800061,2.6835101794532514,5.260436214683032,5.358794026812759
44,3.912116777186246,15.513183090092575,-19.154931027831328,4.976520850709076,-4.2556974158403875,1.326493438882418,4.70468740856833,14.844439008272364,-2.3332591533694154,8.900147045675917,17.140238918048933,2.6924643308644223,5.02718965684413,5.883070170269235
45,4.013472327508783,15.617028108374564,-17.38807950331357,4.783218666410749,-4.369446270130414,1.3482357811860268,5.212548391937858,14.029139011485391,-2.56533638384298,8.931362525228467,17.034125750877422,2.8261146092547964,4.8185613171548365,6.486454065008612
46,4.210602081708093,15.653857931339418,-15.422334791297468,4.589657381477031,-4.431506491735554,1.3943705455183686,5.767567828856408,13.215684967715967,-2.7456655521062023,8.91116871434858,16.93230789646026,3.0743990753917427,4.63326698396451,7.160248524156394
47,4.4968828671895045,15.618882865620538,-13.297756994303967,4.395899233782155,-4.439770003354035,1.4608206341917906,6.359230622703214,12.406340807449158,-2.8716422399245767,8.837135087113273,16.82787851567226,3.424854315558385,4.470152449649129,7.893440376819953
48,4.863039320540003,15.509283496541569,-11.056332345938912,4.2018872214903755,-4.39329966367025,1.542734003799932,6.97532909236629,11.6026578036713,-2.9416738102330773,8.708858992052104,16.714806733932097,3.8631153185759173,4.328425270097327,8.673265480726961
49,5.297612780541355,15.324422776755606,-8.74083715575137,4.007603280196781,-4.292347755769107,1.63465962908948,7.602209080297778,10.805724844043862,-2.9552385462339883,8.52811364405785,16.588211944954637,4.373427172975757,4.2078412089531785,9.485827300430731
50,5.787469549139916,15.065941442578113,-6.393736829185399,3.8131941150208477,-4.138352438649626,1.7307293337958924,8.225075445895769,10.016412329780103,-2.9129070780049355,8.298895061606116,16.44456328177851,4.939140966150072,4.108827553260791,10.316730491698886
51,6.3183199858077295,14.737728410120624,-4.056160112713141,3.6190570361643863,-3.933910091787262,1.8248338860784918,8.828346358543506,9.23558822085306,-2.8163281661627506,8.027362675741564,16.281795247403107,5.543174473964375,4.032531158748573,11.15169370969447
52,6.875222283604246,14.345766925233608,-1.7669823497946,3.4258828720743204,-3.682720604822492,1.9107855409947745,9.39604547633616,8.464289815064147,-2.6681860902783403,7.7216708163113505,16.09933413978123,6.168424655596842,3.9807838692755353,11.97710973474317
53,7.443048504095161,13.897865844970129,0.43795603915656345,3.234657275934372,-3.389503697602571,1.9824638450621601,9.912220926016005,7.703840363571426,-2.472141674517091,7.391689740117405,15.898032514610815,6.798123687416816,3.955983038029617,12.780526012470947
54,8.006896372302414,13.403293791494235,2.5264786567402924,3.0466255479165816,-3.059886210236868,2.0339461763522606,10.361380453342868,6.955905006834027,-2.2327708668561317,7.048618075973447,15.680012113149777,7.416134478450077,3.9608910618381903,13.551025420655156
55,8.552437388650297,12.872340949771498,4.470542000466103,2.8632289642028983,-2.7002621700820555,2.0596276067735513,10.728932361468994,6.22248525260299,-1.9555127269349715,6.704494228812886,15.448419855181129,8.007185264936991,3.998364271924501,14.279494962044533
56,9.066198339327745,12.315837516186207,6.246544629486101,2.686022060110067,-2.3176287736132397,2.0543352663579517,11.00162076421259,5.505855182063593,-1.646632880325901,6.371621531079762,15.207106345373255,8.557045596140881,4.071027104963585,14.958778109397175
57,9.5357784836441,11.744658854295045,7.83548378917371,2.51658045594923,-1.9194019364180301,2.0134408452416785,11.167941535293314,4.80844628749525,-1.3131996791088025,6.061930464495038,14.960242176284371,9.052648495429617,4.180912155180683,15.583714302592089
58,9.9500084258975,11.16924573597359,9.22297156353578,2.3564080500507734,-1.5132152380125385,1.9329722427838982,11.21852362731232,4.132691693481714,-0.9630603136964981,5.786310999415662,14.711894139708585,9.48216666605658,4.329090755727194,16.151076237363792
59,10.299059063772944,10.599164333634231,10.39912608599345,2.2068511541892213,-1.1067068257227808,1.8097226607737407,11.146460258065877,3.48084389854354,-0.6047963802480616,5.553957172383902,14.46558959516628,9.835054114555735,4.515321734870036,16.65942094760193
60,10.5745106542985,10.042725866338301,11.358356096344377,2.0690258111067337,-0.7073004036921112,1.64135350739666,10.947575873589376,2.85478192813531,-0.24763652991048576,5.371771258361436,14.223900486484622,10.102067704741698,4.737747106186104,17.108873308030095
61,10.769393634329303,9.50668103616093,12.099059787140288,1.943763333033195,-0.3219880026093845,1.426486921517039,10.620617483626477,2.2558233203166993,0.09869068128225297,5.24387415199486,13.988078183814977,10.275285171781784,4.992662080780492,17.500861040737615
62,10.87821405014314,8.996000011976653,12.623261016611917,1.8315779008166366,0.04287731540714832,1.1647843193430576,10.167362664398535,1.6845542209983708,0.4241693784475286,5.1712617046565095,13.757767220466754,10.34813614039961,5.274382646671889,17.837820232728447
63,10.896976036078089,8.513744475687018,12.936206514517776,1.7326585638494783,0.3817715523270952,0.8570080873687574,9.59264082023674,1.140688324228197,0.71876691341265,5.151634851418045,13.530820735601957,10.315460075833888,5.575227236493356,18.12289051004149
64,10.823211041654378,8.061034047261984,13.045946149797416,1.6468860587677563,0.6901667638008784,0.5050635919650991,8.90426857064991,0.6229636053804449,0.9727442458415472,5.1794164735472386,13.30323308731124,10.17360013335803,5.885620658411205,18.35961827459209
65,10.65601900308004,7.637105554184945,12.962914986018305,1.5738726534209995,0.9646698858368383,0.11201817664306443,8.112903689217855,0.12908492239255992,1.1769828135455735,5.245952988187216,13.06919592943183,9.920535312353426,6.194319805810671,18.551683216494062
66,10.396121319461427,7.239460273150361,12.699531336423156,1.5130209836488517,1.2031285170506756,-0.3179066747905532,7.231824189406939,-0.3442805180148528,1.323305137297633,5.339885928259321,12.821274178208489,9.556045691443598,6.488752664910177,18.702657648538583
67,10.045920028408018,6.86409128556369,12.269820040121955,1.4635959266974166,1.4046987720182793,-0.7793739515892021,6.2766397138953804,-0.801450452935618,1.4047708970643416,5.447668823469762,12.550689536086706,9.081897595791137,6.7554553882444,18.815801965289985
68,9.609552735130798,6.505780225738717,11.689065556304968,1.4248023074656124,1.5698707191404706,-1.2660038448192554,5.2649420120354,-1.2476174261566815,1.4159359929835935,5.554197102325571,12.247692951328519,8.502028678376867,6.980586827289237,18.89389483952389
69,9.092929154302277,6.158449536660004,10.973495795813676,1.3958607616657872,1.700447886851329,-1.7704823081534935,4.215900995930849,-1.6886856076526542,1.3530671586273257,5.643513171014112,11.902003294144968,7.822707996328222,7.150495198189765,18.939094132627403
70,8.503732455159943,5.815552340174305,10.139994833304744,1.3760740774717577,1.7994784074662828,-2.28470487396988,3.1498130828277393,-2.1310629150953377,1.2143079670696773,5.699545236655427,11.503286255258644,7.052643187676308,7.252306609269557,18.95282288024935
71,7.851367183315199,5.470477647421449,9.205840647335359,1.3648765456170333,1.8711361416376895,-2.799953004892114,2.0876092669616613,-2.5814196887149254,0.9997937391309115,5.706837365989517,11.04164477155825,6.20300606969331,7.274500869349465,18.935673532243403
72,7.146836760129514,5.116945879504344,8.188463327922538,1.3618596024281977,1.9205511919491731,-3.307098644911103,1.050331937579104,-3.0464267038888027,0.7117142071933441,5.65123088175588,10.5080917555034,5.287350789484027,7.2074390870600356,18.887323760107435
73,6.402538683182058,4.749370432415331,7.105220469039121,1.3667689878879077,1.9535917765270956,-3.796831330127145,0.058592329458065355,-3.532485542283605,0.35432455829427717,5.5204639800711215,9.894978957381896,4.3214062006988545,7.043811912062197,18.806459532030978
74,5.6319740787647765,4.363165271306163,5.973189503031327,1.3794718345357881,1.9766036581014077,-4.259901093174138,-0.8679756836600583,-4.045463984662495,-0.06609344344533252,5.304665960244663,9.196361883268091,3.3227355878772964,6.77898563593619,18.69070536389857
75,4.849378189463264,3.9549845259049436,4.808980033844705,1.3998957849101623,1.996117881369388,-4.687369617133947,-1.7112463962263746,-4.590448566121079,-0.541319795703286,4.996732200643524,8.408288054476976,2.3102696923221133,6.411232876232563,18.536566502393427
76,4.069287280025462,3.5228857486324348,3.6285708002932684,1.4279453622658556,2.0185409529587206,-5.070861743866887,-2.4550973762436006,-5.171525314021163,-1.0613368473457963,4.592574188431552,7.529002818370525,1.3037305657018379,5.941843117111828,18.339392268337555
77,3.3060633284806062,3.066412698790588,2.447174607950806,1.4634027130504863,2.049843158343728,-5.402809323863409,-3.085850055178719,-5.791597461811995,-1.614527746998439,4.091244896813775,6.5590720639572115,0.32297242398604176,5.375115080544908,18.093372687826463
78,2.573400131339324,2.586596296494257,1.2791309674470257,1.5058204385312508,2.0952604908002304,-5.676679343969481,-3.592640631160568,-6.452245776932466,-2.1879382234254643,3.4949437606925478,5.5014239000793905,-0.6127289984418133,4.718237331475076,17.79158042915347
79,1.8838340969512948,2.0858746557523267,0.13782207860307027,1.5544140284640926,2.159024111924726,-5.887178441121565,-3.9677108121069993,-7.153633607090248,-2.767603306064381,2.808908050560917,4.36131217297549,-1.4854044152704733,3.98106565699511,17.42606663843797
80,1.2482815881126037,1.5679356941789615,-0.964394990574177,1.607961088845178,2.2441291070563505,-6.030426609165458,-4.206612645285308,-7.894455233115743,-3.3389341764130362,2.041199251221167,3.1462049787362574,-2.2791009289306747,3.1758063163220585,16.988014326868832
81,0.6756232382114078,1.0374890626256794,-2.0162475121732593,1.6647145050664909,2.352152042334858,-6.104094188663523,-4.308325574823318,-8.671922901495495,-3.887153335273817,1.2023945670107543,1.8656022088534054,-2.9805380391760474,2.3166146364371176,16.467949180686023
82,0.17235461751196907,0.4999780835278913,-3.0076030921338686,1.7223368190294581,2.48312444581901,-6.107497763837313,-4.2752863362565385,-9.481785301665614,-4.397760155199431,0.30519557524596613,0.530788307731281,-3.579673569283075,1.4191201743074964,15.856006365967264
83,-0.2576780443126238,-0.03875309049652897,-3.9295236267242744,1.7778631371037288,2.6354668513867083,-6.041651745079209,-4.11333310940144,-10.318368429551924,-4.85700433065921,-0.6360305636039348,-0.8454699087082281,-4.070143799634959,0.49989369141062917,15.142252433120767
84,-0.6134392919864599,-0.5728172296993261,-4.774313632131743,1.8276995575023613,2.8059858888055533,-5.909272528636371,-3.8315649310052136,-11.174628866303944,-5.252342211050258,-1.6057567508741146,-2.2492658361262334,-4.449544295739016,-0.42412291492156423,14.317062305904033
85,-0.8967478289866486,-1.0966429531119914,-5.535556069124437,1.867663113682831,2.9899353078660744,-5.714731172070891,-3.442116998718287,-12.042210069136818,-5.572851283508788,-2.5878227964626697,-3.6659175304879006,-4.71952363029073,-1.3361968199024445,13.37155105268156
86,-1.1121924291440273,-1.6053093255504445,-6.208128569162259,1.8930672557879573,3.1811404543593635,-5.463949663343339,-2.9598536887054148,-12.911495249540803,-5.8095817275037565,-3.5659560540368496,-5.080334329948211,-4.885672965759012,-2.2203650108762427,12.29805703817229
87,-1.2669200561635232,-2.094831986771389,-6.7881958984001525,1.8988538676754667,3.372184186382026,-5.164236749032188,-2.401984337918207,-13.771655927281783,-5.955830200455622,-4.5242613493358075,-6.477368511860163,-4.957209838729229,-3.0619480512614947,11.090666036970072
88,-1.3703061578563882,-2.5623807606914997,-7.2731788091235545,1.8797691686691511,3.5546505130102415,-4.824062514618441,-1.7876110830030216,-14.610701730550481,-6.007327559614121,-5.447661289308544,-7.842139756005015,-4.946471395044641,-3.8479951066040576,9.745756094253997
89,-1.4335255178315958,-3.006413719715263,-7.661702683379144,1.8305773358044974,3.7194204878036508,-4.452775603748349,-1.1372216377536633,-15.415542096054063,-5.962336987352602,-6.322273118359552,-9.160324946701584,-4.868246938834189,-4.567644653268653,8.262534039934652
90,-1.4690469494101546,-3.426717217294117,-7.953530370875291,1.7463029241840877,3.8570131576904574,-4.060272074853962,-0.4721418327853028,-16.17207300730456,-5.821661913417828,-7.135711720913067,-10.418408814951846,-4.7389900011166795,-5.212389571162324,6.643530349778204
91,-1.4900769899118238,-3.824345711746937,-8.14948316646098,1.6224912986727766,3.9579625987002656,-3.65662996007196,0.1860366784329355,-16.865302503139773,-5.588565928445108,-7.877311319447197,-11.603892174213907,-4.575956568038573,-5.77623800622885,4.895020293396892
92,-1.5099780093241923,-4.201460542980542,-8.251353528633542,1.4554750302301398,4.013219986840379,-3.2517279014223592,0.8160379542917832,-17.479528516483096,-5.26861072231523,-8.538262241785368,-12.705455158115035,-4.396319652709517,-6.255764389751932,3.027343685198987
93,-1.5416857399431696,-4.561073901747742,-8.261813489660717,1.2426332016983113,4.014566940432281,-2.854868455498059,1.3974767233067262,-17.998581406602842,-4.869422024367439,-9.111663994923923,-13.713074048348401,-4.216311238010512,-6.650049549935003,1.0551002680673391
94,-1.5971502286283334,-4.90671251788606,-8.184322992951964,0.9826297603490031,3.95502322242024,-2.4744260420077433,1.91141123366177,-18.406140026540637,-4.400395602348812,-9.59250101447455,-14.61809244602521,-4.050440230231896,-6.96051456985097,-1.0027981754290092
95,-1.6868223003227243,-5.242023731879025,-8.023041708333364,0.6756167098824745,3.8292290830059437,-2.1175368766324922,2.3408598074237252,-18.68612391843172,-3.8723549315675863,-9.977551937866439,-15.413250300253358,-3.910829148816089,-7.1906589473314595,-3.1232338513140236
96,-1.8192049186745483,-5.570353279287559,-7.782746395882337,0.32338833322465027,3.6337809203624594,-1.7898452263924518,2.6712688228820207,-18.823156600616,-3.2971708317404747,-10.26524656909218,-16.092676971115342,-3.80670343515331,-7.345719180496809,-5.279157205494032
97,-2.0004858932421556,-5.894328387026749,-7.468754562051394,-0.07052604790542215,3.367499273448351,-1.4953179883697179,2.8909213377445906,-18.80308777240608,-2.68735380322952,-10.455486786310319,-16.651856679267894,-3.7440567503305937,-7.432268817186056,-7.440033669883046
98,-2.2342654202689793,-6.215480899385217,-7.086854310422507,-0.5008408943455521,3.031610940453812,-1.2361376009240606,2.9912765083601083,-18.613556457095992,-2.055633190957161,-10.549448422283742,-17.087576013683186,-3.7255044426432136,-7.457784516452987,-9.572460317840982
99,-2.5213887124243755,-6.5339427354577655,-6.643239516892952,-0.9605715533406101,2.6298319371691474,-1.0126806594946276,2.967230768880689,-18.244572496639417,-1.4145425102428129,-10.54938064615919,-17.39786322188312,-3.750325963327488,-7.430204185929973,-11.640942312899682
100,-2.8598905511397983,-6.848240618972446,-6.144448903771079,-1.4411723734239423,2.1683437144838087,-0.8235859187487019,2.8172920516006372,-17.68909042208135,-0.7760347469384921,-10.458418144938188,-17.58192819408196,-3.8146861491884576,-7.357503190460284,-13.608811835329643
101,-3.2450553765229864,-7.155209918655696,-5.5973080825054025,-1.932754831417446,1.6556601546363061,-0.6659108358061899,2.5436577441721675,-16.943547886975896,-0.1511525538472017,-10.280419876839714,-17.64011134471044,-3.9120162036105546,-7.247313531465766,-15.439266183738779
102,-3.6695933217214365,-7.450039307479003,-5.008875283241541,-2.424381582995906,1.102387247978747,-0.5353703013155316,2.152186895188225,-16.008340428583466,0.4502257874177043,-10.019845661884823,-17.573848931380375,-4.03352845848813,-7.10660816491262,-17.09649674472373
103,-4.123928568445864,-7.726448867594787,-4.386393276898274,-2.9044293328075974,0.520882055894108,-0.42664445324853895,1.652259522198126,-14.88820495095698,1.0195526478415442,-9.681677385735284,-17.385660586741135,-4.1688339731517186,-6.941467266251505,-18.546875526327902
104,-4.5965910309885585,-7.976994364366577,-3.7372507809926043,-3.361009489537682,-0.0751767327640612,-0.33373562193845,1.0565210366573208,-13.592486433504996,1.5496883062361513,-9.271385529243744,-17.079161438890797,-4.306627897818748,-6.756935606468582,-19.76016035756097
105,-5.074695936403239,-8.193480056542997,-3.0689556424899487,-3.782430427582491,-0.6712883445651319,-0.25035011754090786,0.3805159690526227,-12.135266635746413,2.0348967473066453,-8.794935808055886,-16.6590967543158,-4.43540412964579,-6.556971747501105,-20.710673786695082
106,-5.54448907764189,-8.367452093893457,-2.3891188455437953,-4.157679532037737,-1.2526762879157662,-0.17028056587810872,-0.35777936343166383,-10.535339195059866,2.47077282788376,-8.258826007495118,-16.13139217002964,-4.544158397643103,-6.344481549144665,-21.378404713683764
107,-5.991929300973227,-8.490735348481882,-1.7054433325247484,-4.476898255786172,-1.8048550317560583,-0.08776815882815539,-1.1385112514361424,-8.81602023122615,2.854116273806047,-7.670139095233615,-15.503207409710981,-4.623037880697583,-6.12142082340234,-21.749976779020187
108,-6.4032754511120205,-8.555970454118615,-1.0257066802415093,-4.73182050773243,-2.3141890287284372,0.0021708268559051044,-1.9405726133977332,-7.004785919358564,3.182769825213481,-7.03659466029956,-14.782976400209911,-4.663896529190622,-5.888945605885766,-21.819424960514606
109,-6.765644200340949,-8.55710712416319,-0.3577244818093611,-4.916145063995943,-2.7684164784705176,0.10346571988395231,-2.7422766181077525,-5.132729602208309,3.455440757418283,-6.366577711061695,-13.980413584396329,-4.66071986198206,-5.64758516356931,-21.5887235349735
110,-7.067509075824695,-8.489815364926674,0.29071662598841136,-5.0258167939628215,-3.1571123346798813,0.2187686135063697,-3.52205786612544,-3.2338338457754077,3.6715265561198795,-5.669124164619294,-13.106466971659106,-4.6098923386102975,-5.397414191650732,-21.068015898055133
111,-7.2991188841040575,-8.351786544205307,0.9119616591811465,-5.0591984685522915,-3.4720682804616567,0.34929711475486663,-4.259176780867849,-1.344060085919703,3.830965855259213,-4.953847011764923,-12.173203724326243,-4.510293837365405,-5.138206791625477,-20.275509724390805
112,-7.4528230469371755,-8.14290841205293,1.4986240092983258,-5.017123152057304,-3.7075710938132924,0.49475280429666507,-4.934399798085476,0.4997286280637278,3.934133892445207,-4.23079505922549,-11.193622713920242,-4.363226927636298,-4.869564130020498,-19.237018459783783
113,-7.5232994616524325,-7.8653096168061305,2.043748271488356,-4.902825351752546,-3.8605653753173277,0.6533258627025725,-5.530625282351064,2.260978364056576,3.981796552284644,-3.5102457571652304,-10.181398642363932,-4.17219121084795,-4.591017661208382,-17.985150672282856
114,-7.5076863111931464,-7.523279194202149,2.5409870698514783,-4.72175677896759,-3.930693108444565,0.8217941377448681,-6.033425226345159,3.904734871149389,3.9751278411208864,-2.8024439355710093,-9.150572214034053,-3.9425337526554785,-4.302117917677933,-16.558170758031636
115,-7.405623033634032,-7.123075027308428,2.984777777153706,-4.481299893683219,-3.9202111318493245,0.9957190698818053,-6.431477325590395,5.398942743078802,3.9157833633069887,-2.117307980234254,-8.115208721769847,-3.6810143779307523,-4.002523013803401,-14.998576139023585
116,-7.219207828506368,-6.672642073112693,3.3705049353982823,-4.190399132150184,-3.8337966365856113,1.1697314622329908,-6.716870408520733,6.71567202884514,3.806010169648497,-1.4641316015873882,-7.089051646975262,-3.39532958414629,-3.6920999669765733,-13.351455734545597
117,-6.95287982823852,-6.181265221200054,3.6946357393219023,-3.859134793333369,-3.678257890190611,1.3378889035987207,-6.8852761019263085,7.832191615436465,3.648765230555401,-0.8513103914554511,-6.085197404471103,-3.0936376211387144,-3.3710458103676224,-11.66271099879421
118,-6.613233796182903,-5.659182203234173,3.9548189221306393,-3.498266840332998,-3.4621714258294305,1.4940767012159755,-6.935988346735534,8.731819299882885,3.4478135069132376,-0.28611724544901407,-5.115812268102986,-2.784120166713981,-3.0400258709980776,-9.977233579163048
119,-6.208774594702177,-5.117179459703437,4.149941426621134,-3.1187752286836132,-3.195468546590767,1.6324180095633791,-6.871838180736289,9.40449684312977,3.207782088550843,0.2254587055719065,-4.191904230459215,-2.474605141704084,-2.7003163981988583,-8.337141601830558
120,-5.749618217385326,-4.566189856114081,4.280141818892368,-2.7314207365978147,-2.8889942973273124,1.7476577437443368,-6.698993773897831,9.847061107071633,2.9341564212796296,0.6788058346345622,-3.3231531813414583,-2.1722633998026386,-2.3539309977128737,-6.780177174873069
121,-5.247146171361641,-4.016907261101525,4.346783716029734,-2.3463466934551627,-2.5540614417262586,1.8354890528220944,-6.42665602914698,10.063205991743013,2.6332146753314007,1.0707223439335312,-2.5177942210710347,-1.8833815500310989,-2.003706965401428,-5.338358162690631
122,-4.7136208322603625,-3.4794302337938996,4.35239553643909,-1.9727379529168698,-2.2020201029832944,1.8927996991416507,-6.066659763587447,10.063151054395322,2.3119042969078962,1.3994000217892753,-1.782542868963794,-1.613205378327686,-1.653329117396681,-4.036958089872146
123,-4.161771645681065,-2.9629456645328363,4.300583730029959,-1.6185489921970573,-1.8438602335341268,1.9178264268386542,-5.632991172786357,9.86304902624217,1.977669775232241,1.6643750121342153,-1.122549111613443,-1.3658441451848915,-1.3072748288759437,-2.8938637166869254
124,-3.6043657272629903,-2.475462797813189,4.19592503652776,-1.2903082822007097,-1.489859355974302,1.9102155023779894,-5.141235038254695,9.484174914434643,1.638242812306587,1.866459050239612,-0.5413703192750059,-1.1442258756644899,-0.9706739664631925,-1.919335150814404
125,-3.0537802815513753,-2.0236076979618485,4.043840288877451,-0.9930014094674304,-1.1492832884995188,1.8709951922160521,-4.607969805044008,8.951944623287634,1.3014064809575792,2.007658946022563,-0.0409592602584076,-0.9500966412476559,-0.6490892922363357,-1.1161694918651197
126,-2.521596296837217,-1.6124865787717804,3.850450131806131,-0.7300311803106954,-0.8301441318370966,1.802470796839914,-4.050133589435206,8.294812883208085,0.9747451920890424,2.091086172339562,0.37833075861594323,-0.784060135537356,-0.3482335392905077,-0.4802446811647927
127,-2.0182319397165447,-1.2456225613338714,3.6224135199457237,-0.5032493918184086,-0.5390181308673089,1.7080555668173825,-3.484387533360961,7.543100430955792,0.6653929689655819,2.1208550579029177,0.7177187147495576,-0.6456551213972685,-0.07364607236771495,-0.0013956313452552751
