,AF3,F7,F3,FC5,T7,P7,O1,O2,P8,T8,FC6,F4,F8,AF4
0,-5.2106005449178125,-4.754725288449743,-7.4321066935462365,-3.2894793166772387,-4.877779050885527,-2.585516885650694,-3.3793550543894324,-2.808899540368106,-4.593695746083197,-1.6775672312131693,2.9722711410512686,-8.631557073678806,-5.554834233843589,-1.7594047349951265
1,-4.851440957801091,-4.726229522121838,-7.063601745798585,-2.887802875716526,-4.60931728228685,-1.6842055942007739,-2.831420126085108,-1.8733985548914844,-3.74617218371887,-1.4295675040530305,3.9643315616953765,-8.196331623722001,-5.987186435230035,-1.8887027232726312
2,-4.501904424480976,-4.695796969135306,-6.720960994255575,-2.488511940177849,-4.340536079237709,-0.7975042998993505,-2.306446492640287,-0.9507176360267406,-2.918695050216278,-1.1917877261300338,4.948114587878904,-7.797469036927856,-6.424316583659748,-2.0307098445118776
3,-4.161988683727014,-4.652604483756753,-6.398082808860958,-2.089678642719666,-4.0706232382164576,0.061950609187752755,-1.818614836664306,-0.05401805766125472,-2.1271175486292586,-0.9676250381332688,5.921393843737916,-7.443206910235626,-6.854923744178706,-2.1788180929661025
4,-3.8300619473872763,-4.585409204764718,-6.087221270084585,-1.688832425011804,-3.7981225995803727,0.8826823899000633,-1.3799951083571325,0.8046785783538662,-1.385093858896731,-0.7587998760120239,6.883244517367256,-7.138817675479662,-7.266853901209929,-2.324861078124777
5,-3.5027835887315377,-4.482892350388486,-5.779078485691468,-1.2830042898367364,-3.520957003684228,1.6547261852036748,-0.9999894163931995,1.6148426706909156,-0.7034178798322391,-0.5651379267095397,7.834029765060213,-6.886135928274654,-7.647349918842509,-2.4591169801863084
6,-3.175124779444776,-4.334001012258497,-5.462958299507704,-0.8688031120004663,-3.2364777185921203,2.369922834394349,-0.6849016902664031,2.3677079427126495,-0.0895162385115357,-0.3844650865097619,8.775306336126166,-6.683266298555309,-7.983343740305993,-2.5704164323037215
7,-2.840496543511289,-4.128277355330233,-5.1269845432101055,-0.442524797992742,-2.941543351443855,3.0221391704145315,-0.4376580211054841,3.0564539376073383,0.4528792777624116,-0.2126236304509849,9.709653190523603,-6.524494512379614,-8.26178122859589,-2.6463618863244354
8,-2.490986133375728,-3.856168336789762,-4.758384956399518,-0.0002934457537270979,-2.632631617176789,3.607402498463894,-0.2576943065731105,3.6762983247378718,0.9238649238509852,-0.043611022975719595,10.640430991861145,-6.400411705562119,-8.46996783861274,-2.673657540445613
9,-2.1176952863344263,-3.5093121532549874,-4.34383836559609,0.4617680783904024,-2.3059858053512494,4.123941553712175,-0.1410191157276156,4.224502138171618,1.3272984145315947,0.13016253720494816,11.57148244247823,-6.298249458643004,-8.595923536017345,-2.6385415969197825
10,-1.7111664033014349,-3.0807990278691872,-3.869877721756894,0.9473426781912775,-1.9577941668773837,4.572132186160116,-0.08044977914435289,4.700294342256688,1.670536738154161,0.3175066628957527,12.506785129218738,-6.202410711851421,-8.628736637987538,-2.5273056467993227
11,-1.261876153348235,-2.565403903247369,-3.3233366605204164,1.45970544626687,-1.5843956321907515,4.954352756397878,-0.06600953376637733,5.104724867283576,1.9639923769850889,0.527987330737525,13.45007045589302,-6.095170450250025,-8.55890745861605,-2.326879755039413
12,-0.7607716596015394,-1.9597883850607127,-2.6918243636450985,2.00150082807501,-1.1825010939424978,5.274760630898554,-0.08546468773499745,5.440457018611748,2.2205310193690275,0.7713860696674876,14.404423407534148,-5.957511175622769,-8.378673806701446,-2.025457290713337
13,-0.19982300879525275,-1.2626700349981974,-1.9642134719337043,2.5745205316823423,-0.7494176010721278,5.539005480096175,-0.12497448988043754,5.711510250560137,2.45474085988701,1.0571039237982038,15.37187731848813,-5.770052882494964,-8.082312047241686,-1.6131316699238134
14,0.42743314901953655,-0.4749584830476345,-1.131127553148636,3.179492146244317,-0.28326331360592477,5.753896460421824,-0.16982247392985625,5.922963451248872,2.6821085312827235,1.393534999126468,16.353016314633916,-5.514035114033465,-7.666409224596459,-1.082517605737425
15,1.12538250258221,0.400142015006396,-0.1854160193624848,3.8158882917717016,0.21683758314054286,5.927040131164619,-0.20519491685623167,6.080628991968609,2.9181412198219077,1.7874376886411407,17.34659822325235,-5.172307521085074,-7.130102059071615,-0.42933035420880067
16,1.8958773893933183,1.3570661979907923,0.8773961298553857,4.481767012658985,0.7505901213181677,6.066466203799379,-0.21696867135351508,6.190709911558759,3.177479697187975,2.2433362113135895,18.349214221382066,-4.730283468535597,-6.475276415257384,0.3471036800253242
17,2.7378594887256322,2.387863862065397,2.0586986573408765,5.173655622229183,1.316404121850208,6.180259406154604,-0.19246794352085103,6.259455962604628,3.473051559722014,2.762989601458247,19.355007131699338,-4.176809370067045,-5.706717000325516,1.2434324302655366
18,3.6470833883257217,3.482227695910315,3.356444283346493,5.8864907600159215,1.9113202006557652,6.27621647330078,-0.12114942088431267,6.292837187594755,3.815315294565599,3.3449674821455493,20.355475011438376,-3.5049028802898428,-4.8321934874747505,2.2519873413256257
19,4.6159616677584685,4.627583711318868,4.764874797701824,6.613625997017599,2.530995466794023,6.3615458780132,0.0048216064746542525,6.2962549656481075,4.211642320754535,3.984370044773802,21.339388014059857,-2.7123173872709287,-3.862467381274866,3.360642267310276
20,5.633548912287247,5.809254956366822,6.274346481513211,7.3469148850410715,3.1697561980127027,6.44262375424322,0.1901351437884713,6.2743094979770415,4.665875888247906,4.672722882817385,22.292843359309266,-1.8018984763792931,-2.8112045274217548,4.552844328610521
21,6.685677666671369,7.010707406354142,7.871276271625829,8.076872561501517,3.820721453281133,6.524813461148466,0.4360628179571282,6.230639334532162,5.17809346663853,5.398066217459914,23.199475713229706,-0.7817092857751856,-1.694781486164173,5.8078326525496395
22,7.755253957712006,8.213883440564379,9.53822862467611,8.792914089373516,4.475997088525227,6.612350426879041,0.7403594446749912,6.167843174894951,5.744584410438396,6.145244464960121,24.04082962198806,0.335085558224849,-0.5319793683993876,7.101052398437757
23,8.822713610308561,9.399623397555288,11.254159638049615,9.483663659128048,5.126934818361585,6.708290011502202,1.097343405369823,6.087487870266572,6.3580392399465255,6.8963885177084725,24.796888896223972,1.5305752513737807,0.6564350960853199,8.40476161045831
24,9.866632570622984,10.548169762963797,12.994828787794932,10.137325470189854,5.764446844137409,6.81451418135103,1.4981511047156046,5.990200444499073,7.0079327142540855,7.631571219724316,25.44674658514511,2.782684165843033,1.8482352650585006,9.688818094144603
25,10.864474360605358,11.639741859898757,14.73337890476078,10.742103597097078,6.379363539757531,6.931791400791399,1.9311530629451938,5.87583636807805,7.681071171894433,8.329606336334592,25.969388997873494,4.065956482233512,3.0203547466846192,10.921623057175724
26,11.793446556863929,12.655161839194427,16.441072519698995,11.286654055927158,6.962819200844282,7.059882055376018,2.3825116142691214,5.743710958414308,8.362266110931742,8.968952311017448,26.344558544148956,5.352512772296512,4.149583310827308,12.071188085240706
27,12.631428210750773,13.5765061118735,18.08816003811988,11.76054828613238,7.506648258503131,7.1976790554819585,2.8368530540322405,5.592875839992521,9.035091256060468,9.528674901065811,26.55365390708319,6.613139671615114,5.213313990038397,13.106283211379038
28,13.357923432408965,14.387751107024526,19.6448448284577,12.154724254113487,8.003771793002981,7.34337117320002,3.278021329559509,5.422418881054003,9.682679395774032,9.989418760402993,26.58062291297127,7.818467547163847,6.190312095232625,13.997617656190542
29,13.954992998917213,15.075378851258442,21.082302737239107,12.461899791121896,8.44855233659507,7.494615818721278,3.6898766234171636,5.231764694838552,10.288517111611952,10.334337453235811,26.412802920220155,8.940185940277086,7.061473317477316,14.719001521105604
30,14.408114718191696,15.628906587702074,22.37370802030318,12.676922736929399,8.837094405134659,7.648708166998178,4.057100332475025,5.020953566389553,10.837199035627933,10.5499335139326,26.041664706178832,9.952242352153272,7.81053572912661,15.248435572440114
31,14.7069242265466,16.041306278784607,23.49521420684959,12.797034339874322,9.167469494529414,7.802734718993928,4.36596777490923,4.790879217403137,11.315108207743858,10.626765003085296,25.463418885114088,10.831967486555614,8.424710200743641,15.569076816900123
32,14.8457919294756,16.309285134530022,24.42683811539415,12.82202664397555,9.439847804616804,7.953701961156249,4.605051551687476,4.543469937285046,11.710995700848276,10.559982956848444,24.67944967947389,11.561070838274299,8.895196475651831,15.670030163496671
33,14.824199376888034,16.43340665767331,25.153198955870014,12.7542812084831,9.656524362028193,8.098634868144817,4.7658217964783205,4.281802680795069,12.016440302756468,10.349674207530526,23.69654915857129,12.126455057138827,9.217557446181337,15.546921596533327
34,14.646888655019707,16.41804144469412,25.664071968938533,12.598684618152683,9.821833658542701,8.234644727882706,4.843114077331223,4.010144692529853,12.2261761362822,10.000994162676884,22.526934551105185,12.520805304877877,9.39193057672568,15.202216369511525
35,14.323770291324818,16.271147023172,25.95472656672153,12.362424680433664,9.94195377116395,8.358969652139647,4.835441018376647,3.7339212048767196,12.33828156925625,9.524083079493955,21.188040938548664,12.742920496380844,9.423062190401348,14.6452571104004
36,13.869588202537138,16.003886108295678,26.02603150907059,12.054678905168709,10.024607752171201,8.468992750475124,4.745129692891135,3.459610515907315,12.354226607423294,8.933767433287034,19.702091282878847,12.79776681824361,9.320157830405355,13.892011213269061
37,13.303354061475234,15.63010255325111,25.88432329453802,11.686213172304162,10.078676428985897,8.562242082651203,4.578273668943225,3.1945695835897743,12.27877884653427,8.249055775227157,18.09545540837878,12.696249447453539,9.096550422343777,12.964533353270825
38,12.647577385387724,15.165683274680406,25.541047758761653,11.268913349018744,10.113742479085213,8.636374817744725,4.3444968213007495,2.946794940100897,12.119771223370643,7.49244637382044,16.39781949604275,12.454714322040756,8.769197227669066,11.890165539423032
39,11.92733035427749,14.627841856567692,25.012198079226994,10.81527618530211,10.139590783618315,8.689147685468633,4.056536249577173,2.7246261611562477,11.887739718951561,6.68907213214974,14.64119783121673,12.094206686271663,8.358025964840063,10.700511826454857
40,11.169196337669938,14.034364845711004,24.31758417601264,10.33788793730074,10.165694100285233,8.718377273384906,3.7296632419098255,2.536402660781407,11.595446130994327,5.865716641070895,12.858828040490211,11.639526154870401,7.885159111238547,9.430236381872463
41,10.400157351720436,13.40286441090918,23.479977850477436,9.848919448281341,10.20071489694284,8.72189561668385,3.3809719954348187,2.3900884888286202,11.257308296789713,5.049743023495333,11.083998361424314,11.118128684343942,7.374052278266426,8.11574194073561
42,9.64647798486221,12.750080345948508,22.524183644838846,9.359664617461812,10.25205294922741,8.697507448459444,3.0285734799978914,2.292882755821972,10.888765145736441,4.267983045721873,9.348859282828885,10.558933256345265,6.848586643640065,6.793790886843812
43,8.932641677375416,12.091269770369243,21.476086170316893,8.880145247733893,10.325464194300016,8.642955126667504,2.690735600733559,2.250834444031546,10.505605413368464,3.545636253067817,7.683271335966951,9.991094034313264,6.33215585838475,5.5001323815642165
44,8.280389526328461,11.43971463369136,20.361720423451956,8.418799482803845,10.42477026744916,8.555896148921061,2.3850114150357866,2.2684799019859008,10.123287558775573,2.905227077728529,6.11373610061299,9.442796517258003,5.846784699731914,4.268195043863735
45,7.707902857972847,10.806366893199778,19.206403971602555,7.982264448214777,10.551671390918935,8.433897318594962,2.127396169289901,2.348520107783041,9.756276340120657,2.3656631740460012,4.66245036512833,8.940129632183691,5.412311588462502,3.1278964606136035
46,7.229160717230608,10.19964104587037,18.033961285202036,7.575257580762126,10.705668972849482,8.27444997592538,1.931552745175027,2.4915534253685023,9.417420137616304,1.9414325817081894,3.346516200234979,8.506076873463838,5.045661953340449,2.104610909774181
47,6.853493758795606,9.62535449893404,16.866062590725647,7.200555962612683,10.884098790891477,8.075011873033477,1.8081438118409443,2.6958781006595287,9.117392670901223,1.641971596092693,2.177333672979415,8.159660341674508,4.760235241836895,1.2183273614857784
48,6.585346783442174,9.086807824757251,15.721692759568276,6.8590684014600924,11.082270531604854,7.833081374196297,1.76430624645377,2.95737702509387,8.864222491410025,1.4712291819817649,1.1601978024335808,7.9152628447799085,4.565424980115163,0.4830218952484267
49,6.424253107126623,8.58498917713296,14.616759804456978,6.54999070926699,11.293704299694916,7.546307293207298,1.803298002118514,3.269495476560049,8.662932881493408,1.4274473400012389,0.2941166885442148,7.7821460009950725,4.466288495059804,-0.0937375243525069
50,6.365015962834254,8.118880833135755,13.56384765165557,6.271030923951702,11.510449796135648,7.212633545208225,1.9243396885541357,3.6233208727645025,8.515313474410306,1.5031707111469692,-0.42813648059408604,7.76417740137472,4.463380855489151,-0.5109402589803934
51,6.398086068579066,7.685841825643072,12.572114159674891,6.0186886237502675,11.723469856978467,6.830473752558091,2.1226636721325796,4.007771858117429,8.419842947710983,1.6854933071835383,-1.0197289413737969,7.859776937469622,4.552765886642768,-0.7740259426364483
52,6.510119559579559,7.282038926885526,11.647332591520447,5.788571194235997,11.92306726295276,6.398908000435747,2.389773279672564,4.409901608533251,8.371778715011697,1.9565446921585408,-1.499228090528753,8.062089196787904,4.72621428881438,-0.8945156379915199
53,6.684695000905621,6.902898129305556,10.792072208561978,5.575729668721788,12.099332240380587,5.917891874481406,2.713904080880037,4.8153163923424085,8.363423305841641,2.2942103421422395,-1.8898201924976765,8.359383049513701,4.971593204309172,-0.8893835722327418
54,6.903161515152667,6.543549717937248,10.006010457087239,5.37499723126688,12.242588160084233,5.388466418074504,3.080668601621005,5.208704765006623,8.384567326983033,2.6730698517071034,-2.2183040054136116,8.735670508822956,5.273442433775134,-0.7801833716161043
55,7.1455828800768435,6.199242031991369,9.286364496522957,5.181314455630267,12.343814729722302,4.812956717495584,3.4738555566711584,5.574465006079872,8.42309606471835,3.0655223042901256,-2.5138888561415835,9.17152542590708,5.613720733178566,-0.5919573364746309
56,7.391735728169159,5.865702172814953,8.628423154405068,4.990026706206028,12.395030769641686,4.195146184807915,3.876344848576534,5.8974086164391135,8.465732395628184,3.4430522272599653,-2.8068415640784545,9.645069624580067,5.97269258635102,-0.35197361981517866
57,7.622114392344243,5.539426032088974,8.026152437320928,4.797140737804121,12.389621435354302,3.5404127614779366,4.271090149415035,6.163507174336402,8.4988746246538,3.777574708303403,-3.127041347689545,10.133080812058148,6.329912935006352,-0.0883519858168999
58,7.818891399845311,5.217884814687896,7.47284013922295,4.599529511406801,12.322597221281667,2.855812373702956,4.642112562108062,6.360641005395391,8.509476335834893,4.042787286479894,-3.5025140942002624,10.612164796483908,6.665256270916748,0.17134859940972777
59,7.966782511064347,4.899640735135998,6.961739744486856,4.395076833669057,12.190774725457416,2.1500950910374907,4.975443400917844,6.479302977778755,8.485908508096415,4.215451586528624,-3.9580243430005773,11.05992647700834,6.959929267659938,0.4015004532477619
60,8.053769608429079,4.584370786996297,6.486672139932086,4.182756686409822,11.992872388804045,1.4336416083679673,5.259953643584671,6.513209780335155,8.418743372505073,4.276530420403729,-4.5138033169103515,11.456071643598284,7.197404320055563,0.5796560822602586
61,8.071643506591181,4.272803958327246,6.042546284391893,3.9626459240849865,11.729518346996718,0.7183120214880979,5.4880132981780605,6.459775764815832,8.301404626084727,4.21211548790832,-5.1844844215868156,11.783375587564564,7.364215550626433,0.6876037354782165
62,8.016340708798907,3.966583419209201,5.625766748335497,3.735873320989044,11.403172221932598,0.01720475547595296,5.655935464549688,6.320410512666904,8.130638512218015,4.014095155356671,-5.978304997812884,12.028464279736227,7.45056885321926,0.7121720415826197
63,7.888061978408894,3.6680707911271995,5.234506090414827,3.504512603902755,11.017968076125722,-0.6556698502168153,5.7641758091258195,6.100610849291707,7.906773708889086,3.6805295891369783,-6.896616101182512,12.182367884539312,7.450732615091703,0.6457447838770843
64,7.691174990693597,3.380114107341485,4.8688320461760695,3.2714314960535242,10.57949122595535,-1.2857901144832213,5.817276626566537,5.809830904195309,7.63375367311072,3.2157204613640182,-7.933722153720705,12.240822931363487,7.363194171497007,0.4864677439904872
65,7.4339164701069675,3.105803288942235,4.530691603233718,3.040111843029427,10.094505972322754,-1.8585806747502873,5.823563534683963,5.461128960742026,7.318941410707364,2.6299826071826082,-9.077051336241832,12.20431706141756,7.190586126832532,0.23815061614316183
66,7.127919327353612,2.8482360004431344,4.223764272848261,2.8144565934291044,9.570653413340143,-2.359906004745168,5.794619964526045,5.070605555337352,6.972712060469922,1.9391429954465946,-10.30763770308584,12.077887446898856,6.939403721459502,-0.0901136096300317
67,6.78759658077588,2.61031285706168,3.9532039679978315,2.5985974076532177,9.016137803306362,-2.7765769049905065,5.744578004655403,4.65666171858699,6.6078623326646655,1.1638062096375705,-11.600879205726276,11.87069894472487,6.619547412111855,-0.4845734335972412
68,6.429416339231975,2.3945749463494455,3.7252924169416555,2.396712425746607,8.43941671544215,-3.0968481643568766,5.689272496500446,4.239117745614503,6.238876789867017,0.32843419979199556,-12.927523757308526,11.595438759843367,6.2437324169382915,-0.9276386495922099
69,6.071101435938668,2.2030894570788693,3.5470272458953196,2.212858515537526,7.848905838051983,-3.3108885041034277,5.645308557909109,3.838240505234885,5.881097907621525,-0.5397086539694673,-14.254828859766487,11.267569749786048,5.8268088698021705,-1.3988413109439872
70,5.730785062152582,2.037382379590436,3.425666048423379,2.05081799207785,7.252705512838086,-3.4112066599581503,5.629092594671045,3.473731319783283,5.54984943378123,-1.4116944019336544,-15.547838147765376,10.904485618742903,5.385033882153856,-1.8758840973853472
71,5.426152289321204,1.8984123333204324,3.368245847829794,1.9139577840843058,6.658354367594804,-3.393018526990901,5.655875309968726,3.16372780437343,5.259561952907908,-2.258104728843199,-16.770718443396067,10.524610628206146,4.935332608950711,-2.335724260712651
72,5.173597733127411,1.7865769533117326,3.3810963792265665,1.8050992614701256,6.072615050867846,-3.2545403200265293,5.738852689983423,2.923872086777836,5.022947035328507,-3.0501900003151055,-17.88810239329179,10.146485587402628,4.494580819626524,-2.7556433860187206
73,4.987430572613319,1.7017420947647321,3.469365095593692,1.7263982014932575,5.5012965319137885,-2.9971937226548375,5.88836665948052,2.7664941353119636,4.850262183757147,-3.76096792776228,-18.86638472150921,9.787880486954355,4.078936588742746,-3.1142562729243806
74,4.87915770329671,1.6432836584471293,3.6365708794989304,1.6792356524485539,4.949115813131451,-2.625712043628235,6.111240870159919,2.6999525068468424,4.74870303513185,-4.366220281069145,-19.674924902694624,9.464971331157091,3.703243383251618,-3.3924178694788902
75,4.856872998566494,1.6101320409693785,3.884201804131376,1.6641214418057766,4.419599595968654,-2.148140603391714,6.4102797223739225,2.7281664427298304,4.721952443246504,-4.845352528489102,-20.28711525364428,9.191613811698682,3.38052114356529,-3.573995536671095
76,4.924775845270778,1.6008102375412407,4.21137004577584,1.6806126419161524,3.9150242599108847,-1.5757285254324969,6.783950924810924,2.8503633814938913,4.769908397745015,-5.182088472405693,-20.68128062234278,8.978739023479084,3.1215560389055304,-3.6464839148394668
77,5.082836551178136,1.6134585203043286,4.614534693051425,1.7272495445368194,3.4363911188972027,-0.9227123118930819,7.226263772384525,3.061054558391304,4.888603770601554,-5.364979740940461,-20.841383960445285,8.833887119144732,2.9345936467628535,-3.6014497949687208
78,5.326621188453673,1.6458413282905349,5.087301665848503,1.8015121750883645,2.9834337079262014,-0.20599458820871472,7.726847009604744,3.350238745269785,5.070320392498569,-5.387718676496328,-20.75752086344432,8.760885813619844,2.8251349528294023,-3.434803109567477
79,5.647284201581805,1.6953352993808208,5.620309827937826,1.8998013519739108,2.554654741500298,0.5552749606339524,8.271222024209855,3.70382136574945,5.303888523081065,-5.249252526146723,-20.426195048047635,8.75967406582259,2.7958303199222465,-3.1468967323371624
80,6.031732692499469,1.7589007829279393,6.201212845117204,2.0174490305363917,2.1473917592491714,1.3402049203188213,8.841259303472974,4.1042242055676255,5.575151202502599,-4.953706258224982,-19.85037533247716,8.82626728399409,2.846463430769646,-2.742462973119492
81,6.462960774220033,1.833042329555976,6.814765835562655,2.1487624772699485,1.757911724920964,2.126737566192337,9.415798483720662,4.531150600379953,5.867562285011327,-4.5101300428535795,-19.03934283791155,8.952857991798187,2.9740150043129434,-2.230399528357923
82,6.920546108935264,1.9137665765876715,7.443023835651625,2.287106165874614,1.3815359224084622,2.892274695318586,9.971405309860343,4.9624635383328,6.162879134098779,-3.9320942865596322,-18.00834408629594,9.1280445640534,3.1727950580850766,-1.6234219042572133
83,7.381294778282098,1.9965485176810767,8.065656337114172,2.425024870818912,1.01279757321092,3.6143324169430464,10.483233317914358,5.375130708060616,6.44190818367804,-3.237158773437605,-16.778070331747568,9.337180403547576,3.434632972226679,-0.9376017665949877
84,7.8200153190135335,2.0763184952124902,8.660379138506224,2.5544107580325734,0.645635258733043,4.271202929819804,10.925954671354567,5.746191068632797,6.685264087929694,-2.4462427251013503,-15.373985901092892,9.562835918128092,3.7491162033856003,-0.1918110315984433
85,8.210397585652654,2.1474813425920165,9.203500866782763,2.6667152045021325,0.2736244640597454,4.842601483754347,11.274723049136687,6.053700502870071,6.8741088013420155,-1.5829209841926286,-13.825530065571916,9.785364170739314,4.103870094122246,0.5929089683959438
86,8.525966729103768,2.2039758641789042,9.670576005331643,2.7532024601557663,-0.10975320445489564,5.310277594847469,11.506131111747347,6.277617899537456,6.990843022088589,-0.6726700361670398,-12.165219281337468,9.983557224626232,4.4848720813853475,1.3940338328422979
87,8.74107740190874,2.239378262756767,10.037149253496022,2.8052381015726895,-0.5108078613803066,5.658571352323524,11.599125638805504,6.400597083211647,7.01972783658873,0.257912978849269,-10.427679252736851,10.135374871586626,4.876794068590764,2.1882776088597673
88,8.831909348734579,2.2470485572987626,10.279568587581629,2.8146016143386112,-0.9353156968921229,5.874898156889346,11.535845394545762,6.408654836602019,6.947419328010378,1.1818953661747835,-8.648638140734374,10.218722613918777,5.263367699433576,2.9523280353709405
89,8.777424153998235,2.220315694888451,10.375838060037733,2.7738099617486487,-1.3881834680320162,5.9501480112457745,11.302350532304327,6.291691342854172,6.763403817662904,2.072776471664446,-6.863912672123245,10.212253227913164,5.6277692093914675,3.663573672793875
90,8.56024474386547,2.152695374444222,10.306477354494652,2.676437706286726,-1.8731198786474244,5.8789879354643775,10.88921743451379,6.043846728900419,6.460326345487619,2.90521934240403,-5.108417747076467,10.096166228513857,5.9530229210502155,4.300801804302018
91,8.167423244805436,2.0381336601265856,10.055353129235323,2.517418683035233,-2.3923326213945852,5.660057664223991,10.29197826838376,5.6636854418543425,6.034209424573722,3.6557322381655712,-3.4152277362360124,9.852980629743211,6.222424014296131,4.844847696622933
92,7.591067308777098,1.8712680965858248,9.610446068112287,2.293313981831463,-2.9462706060039254,5.296049720126081,9.511389815677935,5.154207967341041,5.484562196021104,4.3032887950252,-1.8147148068312589,9.468256916934683,6.419980747435873,5.279177899144809
93,6.828799812701219,1.6476964650127848,8.964517259679951,2.002531611583914,-3.5334297321886905,4.793666534447352,8.553522021734825,4.522696195094677,4.814381772954899,4.8298764513348384,-0.333786777789888,8.931243987736169,6.530873747452967,5.590392315043976
94,5.88403288260608,1.3642425984815336,8.115639293474851,1.6454855925332574,-4.150237046686316,4.163450833429214,7.429663890133487,3.7804045970281615,4.030049970258282,5.220962709106566,1.0047562106712689,8.235426931143767,6.541926253608834,5.768631808601132
95,4.766044311926264,1.019208634019142,7.067561863195038,1.2246860077076132,-4.791023008462585,3.4194910580020683,6.1560521442743825,2.9421145693315665,3.141131008848605,5.46586938103898,2.182730727524562,7.378952303616551,6.442074926373276,5.80788007169408
96,3.489851103531304,0.612602168096205,5.8298876484768645,0.7447551408514458,-5.448086420704313,2.5790097960106704,4.7534348317986375,2.0255734995289334,2.1600790657421283,5.558045728825197,3.1869329704381384,6.364908803028449,6.222825890412158,5.706150045124789
97,2.075880323482911,0.14632423751722104,4.418040574471596,0.21236713516512734,-6.111852342150779,1.6618485164659087,3.246486763833134,1.0508428026621917,1.1018676394441493,5.495231420954739,4.009346738093015,5.201443328850712,5.878675258147849,5.465546509723227
98,0.5494426306644173,-0.37569879707673115,2.8530153391951045,-0.3638899784544615,-6.771119840155732,0.6898657615853374,1.6630968005269064,0.03958052788227041,-0.016445226984060212,5.27950020453957,4.647190407084847,3.9016964819782354,5.407468814197555,5.092198441027867
99,-1.0599800823366181,-0.9474572929596726,1.1609054782896726,-0.9737294069581276,-7.413393184798502,-0.31373101717689106,0.033549694260658805,-0.9857148713877645,-1.1762009350451974,4.917176690908994,5.102800332617789,2.4835482299542577,4.810673539346518,4.596058175456483
100,-2.71961420831767,-1.5608898605579964,-0.6277821328614183,-1.6054548343878843,-8.025286620740857,-1.3250970304531158,-1.6103716871334441,-2.002471751865169,-2.3576585057635353,4.418622318313229,5.383352488569703,0.9691733344828204,4.093534951904358,3.990569288518506
101,-4.394414116119166,-2.2060148078954755,-2.479006074423312,-2.24631713381112,-8.592989234067566,-2.320480037696817,-3.236334371129755,-2.9887944178251136,-3.540531854103415,3.7978918165447046,5.500429291692179,-0.615583613072619,3.265098366733971,3.2922107164557506
102,-6.048186371358758,-2.8711648111605657,-4.356229424684759,-2.882927500134073,-9.10277281671094,-3.27694245775331,-4.812420663133572,-3.924164768820611,-4.704530415688219,3.072267733404131,5.469444426395351,-2.241992951527552,2.3380785369324966,2.5199305692471308
103,-7.644775012386822,-3.543320028701862,-6.221574476564115,-3.501711216575581,-9.54152206278393,-4.173049591732213,-6.308075463841832,-4.790068270776631,-5.829886182661005,2.2616874987985915,5.308945323478434,-3.879353755898094,1.3285708509997258,1.6944889616536578
104,-9.149259103098812,-4.208526774111011,-8.037040153888427,-4.089382132217502,-9.897263306328957,-4.989498600309704,-7.694999350787323,-5.57051930463036,-6.897849344889252,1.3880845062735634,5.039820427449381,-5.4959975719784095,0.2556082212786928,0.8377345997663745
105,-10.529112118663827,-4.852381952111777,-9.765725384267435,-4.633415507446908,-10.159666403321488,-5.7096649696042245,-8.947953146760682,-6.25246626616671,-7.891135352765247,0.4746705294968233,4.684445196156284,-7.06033731257874,-0.8594203882799403,-0.028155714577516554
106,-11.755274331601102,-5.460558639855653,-11.373002807608232,-5.122496582168617,-10.320495021705081,-6.320047187621064,-10.045444290025513,-6.826063740823172,-8.794308766092778,-0.4548097556186823,4.265805406294816,-8.541914097331096,-1.9934632602883764,-0.8814423793005527
107,-12.80309300651323,-6.019345427777662,-12.82759195956267,-5.546923311127916,-10.373982962946231,-6.810595491739662,-10.970271695822202,-7.284806710846005,-9.594092923618346,-1.3768205198353995,3.806638238359521,-9.912395299050372,-3.1225763706279213,-1.701558987717231
108,-13.6530901951872,-6.516170774659116,-14.102487780691671,-5.89894331035012,-10.317117169826375,-7.174915220318134,-11.709912607022686,-7.625529047464111,-10.279598131102237,-2.2687422689133276,3.328631064727947,-11.146479626928441,-4.222730899884327,-2.469784470254712
109,-14.29152470282217,-6.9400834991038565,-15.175708208826302,-6.173007276811052,-10.149811675639752,-7.410338940711414,-12.256741412151973,-7.848275076415666,-10.842464678492963,-3.109517142516972,2.8517149354964566,-12.222669336653565,-5.270615530217851,-3.1698184507112876
110,-14.710724088427796,-7.282162237736234,-16.030833986836573,-6.3659247600581725,-9.874961510498382,-7.517865312908746,-12.608076852854033,-7.956058982757055,-11.276921324804302,-3.8802085193008122,2.3934839547772655,-13.123876219687203,-6.244393034103663,-3.7882317756368007
111,-14.909174282599047,-7.535830991820797,-16.657325061105883,-6.476913516521878,-9.49837170241384,-7.501967864884617,-12.766061189457671,-7.954532225902161,-11.579765115446676,-4.564458012291615,1.9687626889099044,-13.837837554582999,-7.124376428852054,-4.314772767626685
112,-14.891367619766733,-7.697064817058968,-17.050610804682115,-6.507540300876652,-9.028563530080882,-7.370283282755327,-12.737382831736847,-7.851583287477348,-11.75027380843791,-5.148831080220543,1.5893320673673406,-14.357330247349074,-7.893598493759799,-4.742520719932571
113,-14.667423604463085,-7.764478216820833,-17.211964547841685,-6.461558008459933,-8.476467394580986,-7.133195301476785,-12.532861686397966,-7.656896183313631,-11.790066850797045,-5.623050594785058,1.2638117755985043,-14.68018437396782,-8.538258014897488,-5.067889095501383
114,-14.252509375504024,-7.739297091366071,-17.14818470893167,-6.344650808932127,-7.8550184786445705,-6.803336022564181,-12.166922642361168,-7.381493907370572,-11.702933846603122,-5.980124296689968,0.9976861881176597,-14.809109384333647,-9.048035380112525,-5.2904901858293405
115,-13.666097222198962,-7.6252218934597495,-16.871113612366926,-6.164104725423206,-7.17867720365816,-6.3950309487436785,-11.656986280942268,-7.037290393242858,-11.494649703880505,-6.216376482399842,0.7934530255152201,-14.751355768438227,-9.416278212082021,-5.412880447506611
116,-12.931103228989034,-7.428194822827509,-16.397029909514604,-5.9284255420173775,-6.462900621325548,-5.923716351610837,-11.022806787148737,-6.636669973339032,-11.172792233416732,-6.331396288851223,0.6508695590134773,-14.518241141701477,-9.640063952406587,-5.440211499839173
117,-12.072953599158081,-7.156087927917816,-15.745951185026321,-5.646928631050344,-5.723592602114568,-5.405357173579917,-10.285785561072032,-6.192107462237479,-10.74657120391318,-6.327914620795529,0.5672698830298263,-14.124572692454095,-9.720150376660856,-5.379815390987519
118,-11.118624266068823,-6.818332226038624,-14.940880860795023,-5.32932615720235,-4.97656004967852,-4.85589095036382,-9.468286249806598,-5.715836225216064,-10.226669638863042,-6.211619819559247,0.5379277017864615,-13.587998932834088,-9.66082713301008,-5.2407538096771225
119,-10.095696358539266,-6.425510328371906,-14.007029651025148,-4.985335885356697,-4.237000007883263,-4.290719203589542,-8.592973768601562,-5.219567140157238,-9.625090702127169,-5.990919610958664,0.556441707652442,-12.928323540687517,-9.469681788216553,-5.033359443549741
120,-9.031465251060856,-5.988935842292735,-12.971037358330388,-4.624331969948457,-3.519038845580665,-3.7242630045357927,-7.682196335146463,-4.714258483431348,-8.954998030529495,-5.676653905117069,0.6151251321031511,-12.166812191164679,-9.157292279441998,-4.768793455734456
121,-7.952133755962321,-5.520241061825799,-11.860215336890516,-4.255051800294051,-2.8353398741842364,-3.1695942164710678,-6.757425208826203,-4.209934852149959,-8.230534339209157,-5.281759526077263,0.7053874392245543,-11.325518655239527,-8.736854195992626,-4.458635927132977
122,-6.882110823843397,-5.030990182461655,-10.70182364155224,-3.885365887911302,-2.1967903189405127,-2.638148659273101,-5.83876199472073,-3.715551682499664,-7.4666032048953435,-4.820884882090539,0.8181031137645005,-10.42664946571709,-8.223747524314096,-4.114517475972084
123,-5.843427797019338,-4.5323299864006135,-9.522391208957538,-3.522112036448678,-1.6122733577314954,-2.1395226420963733,-4.944518924000587,-3.2389007489501167,-6.678602324884135,-4.309951692540191,0.9439677956276836,-9.49197895130153,-7.63504574082557,-3.747792923882185
124,-4.855276996073498,-4.034685480958768,-8.347084162212374,-3.1709915344749025,-1.088526481781621,-1.6813505034549692,-4.0908742268032325,-2.786551643310886,-5.882102453358125,-3.765663176738742,1.0738438003673263,-8.542320476290683,-6.988971811709304,-3.3692539530500736
125,-3.933673240898614,-3.5475052333493426,-7.199127463813798,-2.836523373353733,-0.6300838865742396,-1.2692582800168986,-3.2916028888028106,-2.363824833000666,-5.092473627388751,-3.2049635194766695,1.1990949326559022,-7.597056690183599,-6.30431054015246,-2.988877397797585
126,-3.0912372955473946,-3.079059827247969,-6.099288163373445,-2.522051590319374,-0.23929803915330322,-0.9068872119220426,-2.557882526110319,-1.9747930464887635,-4.3244685024969085,-2.6444613100249055,1.3119056435871477,-6.6737316959138795,-5.599793439310477,-2.6156080605345475
127,-2.3370995372899266,-2.6362959868108584,-5.065432476657898,-2.2298000039414694,0.08356613666165029,-0.5959799405736524,-1.8981743150256505,-1.6223086291131519,-3.591780731152762,-2.0998387145912774,1.4055741811699396,-5.787710186802768,-4.893479046902867,-2.2571782505000426
