,AF3,F7,F3,FC5,T7,P7,O1,O2,P8,T8,FC6,F4,F8,AF4
0,2.836544093209994,1.1769074992595223,0.6730577351418692,-8.499500720072334,3.139646048001534,0.14840187889486306,0.40455220466321,-2.780105209578085,-3.5232680054156083,-1.7760905288756628,1.5264032782236354,-0.7706142758333371,4.2190482621061145,5.084469468331171
1,5.771195673104946,2.2055608879992294,0.6153206225591472,-6.749484817982884,3.275694229588637,1.1931630341623372,1.587488436204216,-0.6545110458635668,-2.612433859796051,-0.6622714990938388,3.262793512944059,2.253321735252644,7.093127961014096,7.781251779666902
2,8.653108584987129,3.2000410877691614,0.5595236265762743,-5.028562836469301,3.411163519892122,2.2200065632931683,2.752932695636383,1.4213883413963184,-1.7541899080489707,0.38511080608689285,4.929079240092442,5.218966604681239,9.899222337454027,10.429689808019718
3,11.445245915084556,4.148378749427182,0.5051217902238908,-3.354414039927077,3.542680589117538,3.20684039316384,3.8809393012747893,3.4187735766010614,-0.9694628798227755,1.3399847969132963,6.490943336611808,8.085945513499757,12.590114132107079,12.989366852971726
4,14.113154760280132,5.040097264153262,0.4517050396881215,-1.7433106808816028,3.6670379788347693,4.132898450042445,4.952344583549398,5.310595191850741,-0.277236281403816,2.1790821910797606,7.917256018690941,10.816540114308935,15.122244865819562,15.422389518829522
5,16.625833524338063,5.866483182077064,0.3990804150781138,-0.20974774294369392,3.781286452388986,4.979359197962909,5.94927908764032,7.07208255475896,0.3058578387901614,2.882501283934949,9.180892453258492,13.37648724064643,17.456964295769883,17.694353327973026
6,18.95648875956613,6.620816262523791,0.3473334669035514,1.2338909853061923,3.8828027489579076,5.7298994170154005,6.85565656415974,8.681255171208825,0.7659487255183249,3.4342180248441956,10.259446089065309,15.735712994464947,19.561612079109118,19.775206943261203
7,21.08314782524483,7.29854203036276,0.2968648797397256,2.577615548346725,3.969327918720569,6.371164111076315,7.657623676202101,10.119420436255528,1.0923205591165306,3.822521084573888,11.135805642893468,17.868976453961924,21.410381744155494,21.63997957142652
8,22.98909709028233,7.897368186360588,0.24839988920060435,3.8140452494745274,4.0389741545118065,6.893134302312154,8.3439513862063,11.371629525144664,1.2777588938065323,4.040337883222867,11.798561190033405,19.756392042968706,22.98491931475021,23.269335584865583
9,24.663122700481228,8.417268832681533,0.20296920765119936,4.9385425375987255,4.090201271219713,7.289375817679424,8.90634697722035,12.427054223075556,1.3188113752558852,4.085415103544844,12.242207590430388,21.383798738440284,24.274617178168235,24.649924605676805
10,26.099541428276577,8.860386562569206,0.16186130601207005,5.949254776979772,4.121767130223723,7.557154885407756,9.339665878786358,13.279245304618966,1.2159247288863215,3.9603219619443353,12.467122783817116,22.742948519438496,25.276579318781444,25.774504764061223
11,27.29802178662109,9.23083140419425,0.12654749220132144,6.847059058941294,4.132659003822467,7.697411516349596,9.642006185339437,13.926239658898812,0.9734292589231642,3.672257736109925,12.47931379001061,23.83149561986803,25.9952562940134,26.64183092275085
12,28.26320880191609,9.534386015299818,0.09858340208935437,7.635412227376673,4.122014744219463,7.714589303540236,9.814676037854966,14.370497819918807,0.5993582745280606,3.232664123877783,12.28994188436022,24.652781109826684,26.44177415266189,27.256316185597722
13,29.004177856123786,9.7781357483067,0.07949297312948873,8.320114755872789,4.089043162118445,7.616328858068944,9.86203333567941,14.618671868829832,0.10510867836777397,2.6566631699234,11.914656324908721,25.21542202467672,26.633005762891813,27.627490968857572
14,29.533752696773455,9.970047965190904,0.0706432274878725,8.909001491685718,4.0329520331661435,7.413039614846303,9.791206677877096,14.681220866360546,-0.4950342439610016,1.9623581038958564,11.372779679846317,25.532728120684094,26.590451062716205,27.76929700663922
15,29.86772971932151,10.11852701506739,0.07311978331470712,9.411574760688675,3.9528901872229896,7.117370605140555,9.611715067751657,14.57190381836826,-1.1844728706201986,1.170044895778234,10.686395787528475,25.62198010075912,26.339002417029842,27.699262921945458
16,30.02405469708408,10.231970725343784,0.08761357613509253,9.838597003776657,3.8479081816903355,6.743605936183549,9.335011461637544,14.307187684035501,-1.9449330594465237,0.30138612422537314,9.879393827704211,25.50360961668301,25.905672628988683,27.43761297708012
17,30.021998499122176,10.318352106905088,0.11432861761089147,10.201661380784987,3.71694073073279,6.307015857245714,8.973981178539447,13.905610218365632,-2.757118274768652,-0.6214036861909997,8.976519366716289,25.200323556936883,25.318357236696578,27.00636076275351
18,29.881374072947317,10.384846718983296,0.15291879040816775,10.512759394279309,3.5588133147707004,5.823198682821203,8.542429567835553,13.387135161373477,-3.6013449479631716,-1.57631971664128,8.002476321097054,24.736213872648566,24.604691242909098,26.428434760084198
19,29.621828214816183,10.437521997524385,0.20245900842334244,10.783864527198576,3.3722748264735007,5.307450845055476,8.054593058054992,12.772531548286542,-4.458129655459734,-2.542244877224594,6.981114155158895,24.13589044023528,23.79104574175508,25.72687384534028
20,29.262230360618545,10.481099831509605,0.2614530733649812,11.026550120856148,3.1560571707972294,4.774200616960697,7.524702941064839,12.082800660477128,-5.3087083464343685,-3.499525621778259,5.934724113258366,23.42366911287692,22.901694189657942,24.924119572485846
21,28.82016968197904,10.518797865784936,0.32787763860367203,11.251657801886779,2.908960940994376,4.236535160010878,6.966622145465396,11.338664226741352,-6.135478260270723,-4.4304381763526415,4.8834581971402455,22.622840995195208,21.95816283873828,24.041420340791266
22,28.31156327769458,10.552249252680433,0.39925907538104327,11.469029510886417,2.629963684617888,3.705841264498281,6.393563469906937,10.56011777061819,-6.922362340375478,-5.319546308589647,3.8448762380411643,21.75504282396278,20.97876676673167,23.098352466726688
23,27.75037308905266,10.58149653141429,0.47277796977286135,11.687312229396522,2.3183445632829054,3.1915694317718306,5.817885994463229,9.76604616345348,-7.655101476378667,-6.153955922924278,2.8336213318880836,20.839742894114007,19.978324026082117,22.11245675225641
24,27.148427486370004,10.605054299419441,0.545394676983287,11.913840674756136,1.973817219379744,2.7011211044074344,5.250957453509229,8.973896158683646,-8.321480501188024,-6.923471241064571,1.8612227265054813,19.89385289126775,18.96803666186279,21.098987051631905
25,26.515344431145923,10.620036848043238,0.6139886954026726,12.154599739314005,1.5966617515992951,2.2398512351103532,4.703066066077552,8.199402575601566,-8.91149022357342,-7.620653762022407,0.936026791486995,18.93147339038573,17.955527517168758,20.070768358578054
26,25.858554506673865,10.622348768565384,0.6755042361104583,12.414264972926794,1.187846739287008,1.8111730771702261,4.183365835993221,7.456369204800864,-9.417422181046582,-8.240781387752804,0.06325857374449753,17.963778849362516,16.945023350842582,19.038163711393057
27,25.183421568094683,10.606936658321285,0.7270941545226413,12.69631564549188,0.7491329397359959,1.416748677884076,3.6998432870086075,6.756510434933589,-9.833888131338604,-8.781703632735658,-0.7547838888231916,16.999045182311537,15.937675374109348,18.00914925954321
28,24.493455492399775,10.568097899523769,0.7662546022425055,13.003210812383793,0.28315138231068093,1.0567467650040867,3.259299029001538,6.1093629500583,-10.157755092661384,-9.243591383071504,-1.518404687315606,16.042818035491475,14.932006021696056,16.989493480875662
29,23.790606347474924,10.4998384651395,0.7909434974486687,13.3366144402242,-0.20655004084121484,0.7301492284548671,2.867342704827657,5.522276656423957,-10.387990504668867,-9.62858685237953,-2.230065551783912,15.098212212111306,13.924465035247536,15.983029994683946
30,23.075623551503725,10.396266470267918,0.7996770932060434,13.697651348232492,-0.7154958673183909,0.4350877484038688,2.528403432139312,5.000489390139944,-10.525420682704649,-9.94037033686195,-2.893844387237754,14.166323144293228,12.910070127745811,14.992005713545076
31,22.34845836041978,10.252002617572515,0.7916003480513888,14.087172209982134,-1.2383110438262184,0.16919281770596045,2.2457590696862284,4.547281874410176,-10.572417149661847,-10.18367233758114,-3.5148311492365125,13.246721830758355,11.883100112644803,14.017479472591484
32,21.608684301325102,10.062584002059987,0.766528387046051,14.506004195453883,-1.7687886884060284,-0.07006187297042572,2.0215865135888254,4.164200018820773,-10.532536492544455,-10.363768841012623,-4.098503758430659,12.337997498788253,10.837803398287562,13.059742164672498
33,20.855908966441167,9.824835293540447,0.7249580712595731,14.9551647763065,-2.2999966729894066,-0.28503601806763645,1.8570325933206104,3.85132324398216,-10.41014705500194,-10.486001199055538,-4.650129336395053,11.43830906740326,9.769083368742912,12.11872875519045
34,20.09015254395009,9.537182254635821,0.66805033303385,15.436019678013729,-2.8244195964590904,-0.47763564519394675,1.7523021836584884,3.607552030577117,-10.210077870750068,-10.555359131741946,-5.174231961254675,10.545907716087125,8.67312523758888,11.19439600137085
35,19.31217313585817,9.19988711732941,0.5975849957156187,15.950371120556367,-3.3341303975087717,-0.6490763283469327,1.7067577043883861,3.430886917414518,-9.937320954367447,-10.57615642701211,-5.6741585371762735,9.659597702570384,7.547936064512451,10.287046489634664
36,18.523724493585764,8.815192207324333,0.5158901072841198,16.500468341895917,-3.820984779284396,-0.7997083717232023,1.719022475750974,3.318675185883726,-9.596808345723396,-10.551815789747021,-6.15176182445347,8.779109720047726,6.393778492184062,9.397587245333407
37,17.72773633121277,8.387365107889709,0.42574790715488053,17.088938168058107,-4.276832354588484,-0.9289128348565613,1.7870796305008791,3.2678093748752546,-9.193272497637361,-10.484764809163247,-6.6072068536313955,7.905369499784416,5.21348709399747,8.527717259398422
38,16.928410358283823,7.922643884558685,0.3302801290775749,17.718638644632843,-4.6937400666848745,-1.0350738667517059,1.9083589751786219,3.2748716203120596,-8.731185406526908,-10.376431919784407,-7.038895822224874,7.040653263307393,4.012663407736155,7.680042157980666
39,16.131227499706785,7.429084014533461,0.2328165585002466,18.39244328294465,-5.064224400348304,-1.1156289193695206,2.07980657745412,3.3362274923846766,-8.214760870796681,-10.227321700126069,-7.443498719814586,6.188629956777455,2.799751468907056,6.858116336668446
40,15.342864225882376,6.916310327606108,0.1367521421861017,19.11296720639068,-5.381488573855496,-1.1671942164929887,2.2979351763449434,3.448080242217854,-7.647997892537075,-10.037144730764032,-7.816073612399402,5.3542967381470055,1.585998412794474,6.066413414574705
41,14.571018619274176,6.395178925564991,0.04539896342630216,19.882249459338404,-5.639659868652059,-1.1857586967243627,2.558856448774592,3.606499378440351,-7.034743225335775,-9.804979535253816,-8.15026188352141,4.543818425752456,0.38530335856894793,5.3102252898870725
42,13.824150013613732,5.877357362975082,-0.03816016226920002,20.701408315108953,-5.834020864900351,-1.1669358226280528,2.8582980290566438,3.8074362114000304,-6.37875704026881,-9.52945172935762,-8.438548174844156,3.764284204346815,-0.7860461328653054,4.595489874979061
43,13.1111403093686,5.3748370123329705,-0.11120976319258463,21.570289039341237,-5.961226241822474,-1.1062592211242968,3.191609326661113,4.046734957768611,-5.683774952707775,-9.208925051300271,-8.672579615713502,3.023396893939546,-1.9097538178669033,3.9285492769167933
44,12.44089015573815,4.899398407705227,-0.17152509112812336,22.48712601015592,-6.019494097211932,-0.9995051739840844,3.553761054474908,4.320142714521242,-4.953568787208768,-8.841706778207582,-8.84354199756709,2.329111956425202,-2.966014200252756,3.315843825163725
45,11.821867858875443,4.462056161258221,-0.21747487877911906,23.448242097772486,-6.0087588385042645,-0.8430231073105393,3.939343556923532,4.623315908469881,-4.1920150350249665,-8.42627411769091,-8.942591020118288,1.6892448167877223,-3.934130869494539,2.7635517825527707
46,11.261632185000577,4.0725127586729215,-0.24809793895329296,24.447806447395454,-5.9307730243077925,-0.6340552314466416,4.3425679911284405,4.9518157768238416,-3.4031828252040004,-7.961528005287995,-8.96133447660579,1.111065680211552,-4.7932456610326675,2.2771889434500117
47,10.766352089355548,3.7386496207471476,-0.2631484414984351,25.477667245346204,-5.789147985211643,-0.37102818817364464,4.757272756962861,5.301082962753768,-2.59145168282739,-7.447076346946365,-8.892356030310264,0.600900995340103,-5.523160981603018,1.8611865502281886
48,10.340346749259771,3.466080236157993,-0.2631055038518908,26.527269832256223,-5.589326408403988,-0.053801707744597894,5.176936605874161,5.666383068817265,-1.7616631517502002,-6.883540764991062,-8.729763501370883,0.1637603489738466,-6.105226952041671,1.5184698223571975
49,9.98566787890436,3.2577855906940347,-0.24914457066966095,27.583664137258435,-5.338483508962703,0.3161389893065925,5.594700178879681,6.042720892911193,-0.9193006054632614,-6.272871207161823,-8.469736243982155,-0.19699304910299517,-6.523255075969795,1.2500619717938184
50,9.701743675736205,3.1138479185836676,-0.2230709803101462,28.631600254994744,-5.04535690054978,0.7355584898716071,6.003398796278578,6.42472930013764,-0.07068055989411827,-5.618643785470248,-8.111039571347233,-0.4799109569493053,-6.7644127104561935,1.0547391319133754
51,9.485101236413895,3.031295333906088,-0.18721932980469125,29.653708048670524,-4.7200089970172945,1.1994227007086706,6.395610205094667,6.806547113092274,0.7768709828981101,-4.926310864760394,-7.655470550219345,-0.6856512941464855,-6.820048502642992,0.9287602902137548
52,9.329182808113277,3.004066695669407,-0.14432483459704162,30.630755882924937,-4.37352969346652,1.700930693451964,6.763721032939924,7.18170732398813,1.6148900105946014,-4.20337012283884,-7.108199204591197,-0.8170765093371558,-6.686398575886715,0.8656935169154533
53,9.224270459737776,3.0231027413364986,-0.09737458221119863,31.541984020953098,-4.017690743510729,2.23162575335069,7.100014803174121,7.543060930188936,2.4337279492229205,-3.459421967405589,-6.477972371131602,-0.8792454736800036,-6.365127128585127,0.8563558391525645
54,9.157532508899525,3.0765659369495113,-0.04944770567974007,32.36550880348832,-3.6645659123481833,2.781579609489845,7.396782864034531,7.882761431908043,3.222616784455584,-2.7060922403781067,-5.777153926385253,-0.8792882759110623,-5.863663263431916,0.8888795737597823
55,9.113202352292161,3.1501871597462237,-0.0035541730942653424,33.07879364552437,-3.3261322496952137,3.3396402509823524,7.646457746858697,8.192329631023478,3.9698655021438833,-1.9568085059068494,-5.02158427851426,-0.8261578864757757,-5.1953074085978255,0.9489131712540394
56,9.072895839673752,3.2277317056694366,0.0375182321982563,33.65918137948217,-3.013868052902591,3.893731581329641,7.84176624033652,8.462808053828638,4.663192222451347,-1.2264322146134006,-4.230253532211675,-0.7302594291209172,-4.379094500838328,1.0199588884706483
57,9.016066795649074,3.2915702566111538,0.07134030684152534,34.08447887203366,-2.7383628855356332,4.431191926427172,7.975896764768192,8.685000518431384,5.2901770313020675,-0.5307647491657044,-3.4247966437997874,-0.6029676126667356,-3.4394164640126865,1.0838415112039055
58,8.920591553154976,3.323333011820067,0.09595451809910184,34.333579143486546,-2.5089546191946726,4.939137696958302,8.042672717928756,8.849777461588276,5.838800221984627,0.11403878929969657,-2.6288346194967693,-0.45605556843037265,-2.4054227876837224,1.1212915907452645
59,8.763463236299199,3.304618374153309,0.10995977383397566,34.387099654414364,-2.3334077134166744,5.404838305480665,8.03672098571317,8.9484149056453,6.298014613300897,0.6921015182386209,-1.8672008823742101,-0.30107148052624305,-1.3102334641404652,1.1126149780266812
60,8.521567241265894,3.2177230778652515,0.11256418273949811,34.22801009172073,-2.217645586175113,5.816088910027927,7.953623679042556,8.972928021926771,6.658293666878346,1.1884505033204216,-1.1651022940224567,-0.14870914610461958,-0.19000994905457094,1.0384108937690877
61,8.172502855463167,3.0463596498732533,0.10360346667580007,33.84222049150373,-2.1655478931039958,6.161568716012123,7.790042267338676,8.91636142292222,6.912101092564333,1.5895882424849352,-0.5472669039605176,-0.008222251664434882,0.9170658576276236,0.8802958968953677
62,7.695412225403678,2.776329059205464,0.08352444103719739,33.21910091626361,-2.178821035775346,6.431174111146142,7.543806696365706,8.773007016252754,7.054240493739786,1.8839732097554254,-0.03712559089359238,0.11307035325135603,1.971857520030051,0.621591307724507
63,7.071775898532341,2.396119419213811,0.05333505077067755,32.35190607651469,-2.2569475586166368,6.616317324507675,7.213966528100201,8.538533502977186,7.082061210977475,2.0623871697484195,0.3439343655879101,0.21014804086141836,2.9353447054122515,0.247935335113718
64,6.286133945404382,1.8974042987319573,0.014524450563685547,31.238081613600016,-2.397217372908302,6.710182357747904,6.800805045544206,8.210026036098713,6.995514935517147,2.1181804415687924,0.5772155188678383,0.2804898986014792,3.769665456009536,-0.2522132186901381
65,5.326694694822894,1.275417102495171,-0.03104173773927095,29.879433852466732,-2.594840781395806,6.7079310400833645,6.305820241954457,7.785947929587891,6.797074311563377,2.0473972581431314,0.6472371484021309,0.3240959466030537,4.439102748478583,-0.8872051526323101
66,4.1858007227579455,0.5291828438606881,-0.08124462463825306,28.282152522200793,-2.8431398635468588,6.606853831163454,5.731679085188797,7.266047307796597,6.491538094070687,1.8487922868169595,0.5421330278225814,0.34332415539620054,4.910993672155601,-1.6619797513804666
67,2.8602334209843354,-0.33840359712378465,-0.13384650976486823,26.456685743419303,-3.1338110034854494,6.406462411821819,5.0821532141971755,6.651238765395741,6.08575622842634,1.523756525019398,0.25392050835101987,0.34255519002454776,5.156546429164032,-2.5779937308662353
68,1.351350802900739,-1.3206537931121705,-0.18662903727373276,24.417476652211842,-3.457247531511593,6.108523422900652,4.362044589914458,5.943491778258618,5.588311345333496,1.0761751905889987,-0.22134895927382628,0.32771200751802776,5.151557821416982,-3.6332878022299075
69,-0.3349346891320086,-2.407307456125404,-0.2375276896826486,22.182579582301397,-3.8029079752316797,5.717034343933307,3.577108504772155,5.145752968451851,5.009190077790123,0.5122409145242207,-0.8835408651010328,0.30567364966992766,4.877030255605047,-4.822666929714897
70,-2.188322477452971,-3.5848810263315447,-0.2847559155783534,19.77318001044202,-4.159712713015821,5.238143466750753,2.7339792241393357,4.261919304783427,4.359468934967227,-0.1597573021279013,-1.7284703275140862,0.28363009562605945,4.319691146033444,-6.137962849723585
71,-4.194412319356633,-4.837117829611313,-0.32691304864589754,17.2130463391755,-4.516450420266397,4.68001644561717,1.8401007223727308,3.2968661645371133,3.651027369858866,-0.9296543172197901,-2.7479974747468625,0.26842721076356796,3.472417761148928,-7.568344656521825
72,-6.33508926555662,-6.145511092373393,-0.3630710542353146,14.52794286953836,-4.862175853034115,4.052652132515714,0.9036618182516802,2.256520801974897,2.8962886039984723,-1.7856298003189408,-3.930170801905024,0.2659481593720145,2.3345664486578412,-9.10064540870757
73,-8.588977306988449,-7.489871115726428,-0.39283595789850945,11.745032152602175,-5.1865818738054354,3.3676505556089675,-0.06646780153334877,1.1479613114282077,2.107980296592701,-2.7144272660293667,-5.2594099520847974,0.2805716055364525,0.9121982702642703,-10.719678761520914
74,-10.931933790786955,-8.848910022025862,-0.4163805140629428,8.892292212641378,-5.480330556372471,2.637936324596026,-1.0608059183378515,-0.020483975979054846,1.2989043604073751,-3.7015718786958174,-6.7167253958983215,0.31473925697781696,-0.7818131937881588,-12.408527635496238
75,-13.337559258285914,-10.200820414239486,-0.434445301251883,5.997970919275116,-5.735330370777047,1.8774417179157068,-2.069336020949955,-1.2391611979412749,0.48170780898854715,-4.731588388343461,-8.279976845751737,0.36865683785423886,-2.727809159601284,-14.148795343000995
76,-15.777702482809703,-11.523827554970676,-0.4483062709796072,3.090096197929856,-5.944948878725062,1.1007553497154638,-3.0815998811955385,-2.4970596354211647,-0.33134779692806055,-5.788219764071653,-9.924174779909814,0.44014380791052177,-4.899525090059294,-15.920817759633364
77,-18.222946946363887,-12.796698369493575,-0.45970820071114676,0.19605614836685836,-6.104153199793881,0.3227446617473992,-4.086806704814751,-3.781837361190795,-1.128614564327802,-6.854646022936881,-11.621830576984,0.5246383658106204,-7.264436543134555,-17.703842494690683
78,-20.64307142111689,-13.999194837094796,-0.4707655486745015,-2.657743016124519,-6.209573888393426,-0.44183667318868114,-5.073958393147986,-5.079909273899669,-1.8992753580418693,-7.913701943115952,-13.343360593890775,0.6153558113129082,-9.784280575879235,-19.476186722792026
79,-23.007482919828522,-15.11246402165228,-0.4838345436796513,-5.446140594477068,-6.259491888446371,-1.1787425877488338,-6.031987836285466,-6.3765958585843725,-2.6335377210741906,-8.948092121806512,-15.057548033238817,0.7035902931307116,-12.415754347191582,-21.21538879019394
80,-25.285624625953428,-16.11936170725755,-0.5013625989440248,-8.145413200599295,-6.2537526783128,-1.8746138738394116,-6.949905028760905,-7.656325765392045,-3.3227915923824622,-9.940602420354798,-16.732063789575612,0.779142202312431,-15.111383353543204,-22.898369967363905
81,-27.44736410605378,-17.00471082917144,-0.5257230840507198,-10.733407132302238,-6.1936160172642225,-2.517326433762798,-7.816944554768193,-8.902882630871613,-3.95971941593012,-10.87430791661749,-18.334043843325972,0.8308461025810473,-17.820542135530943,-24.501622140394545
82,-29.463368035739474,-17.75549903949166,-0.5590449709138093,-13.18962712636511,-6.0815533980200644,-3.096293329162132,-8.622708265930937,-10.09968614576813,-4.538351083786042,-11.73277830345503,-19.83071626863614,0.8471679606633702,-20.490601461619043,-26.00143496381924
83,-31.305469365415494,-18.361021326447148,-0.6030478262394919,-15.495298213650354,-5.921008219091833,-3.60270853866655,-9.357299138675796,-11.23009814195156,-5.054061064321898,-12.500281771843122,-21.19006560253321,0.8168369138657207,-23.06816836689245,-27.374171892697227
84,-32.947031950712535,-18.812973590400663,-0.6588930043973948,-17.633415953852285,-5.716135567986148,-4.029724770336674,-10.01144580864787,-12.277745486609598,-5.503509807009124,-13.161987904815975,-22.38151657023894,0.7294768051264603,-25.500378779325096,-28.596598514166043
85,-34.36331596526176,-19.105501974922863,-0.7270614715710638,-19.588796848575946,-5.471538946495378,-4.372562579808338,-10.576620932677578,-13.226852373914314,-5.8845354637513765,-13.704169323551014,-23.376614007219917,0.5762057988750293,-27.736196910854417,-29.6462593029962
86,-35.53184394583407,-19.235211079276276,-0.8072671950646945,-21.34813574936047,-5.192020075656344,-4.6285526666654,-11.04515903937032,-14.062574960716935,-6.196005117523535,-14.114401044966398,-24.14967277604139,0.35017702307114135,-29.72767242396973,-30.50189165566362
87,-36.43276173023819,-19.201132050233177,-0.8984125620693937,-22.900071565920868,-4.8823551446350795,-4.797116666265832,-11.410379700197963,-14.771330842929606,-6.437636993037045,-14.381755735515787,-24.678371598661542,0.04703792431518087,-31.431107253282743,-31.143860081904904
88,-37.049182268179784,-19.004649082078856,-0.9985893738524528,-24.235257605851057,-4.547106675269444,-4.879693248757578,-11.666719098145418,-15.341114350330626,-6.609806039046551,-14.496992037383103,-24.9442679330961,-0.33470976036391603,-32.80808925537055,-31.554589505091528
89,-37.36749639268939,-18.649381091836343,-1.1051261034356583,-25.346429511227363,-4.190475348439844,-4.879616373305208,-11.809868455340181,-15.761786764550807,-6.713344911112817,-14.452732181960101,-24.93321680009346,-0.7934641459530973,-33.826358828348575,-31.71897573205623
90,-37.37763589741676,-18.141016169018393,-1.2146794604022537,-26.228463137948918,-3.8161924421429396,-4.801952806758477,-11.836913868477325,-16.025330254601926,-6.7493523973920535,-14.24362548091567,-24.63568459413104,-1.3244039586487661,-34.46048657156008,-31.62475458785377
91,-37.073280478332975,-17.487100740876627,-1.3233658051250432,-26.87841716512822,-3.4274524198980036,-4.653307449009597,-11.746470899879258,-16.126057115098362,-6.719023433020697,-13.866496930034678,-24.046958532902682,-1.9195066690356049,-34.6923538043523,-31.262818630905976
92,-36.45200792419703,-16.696791808358974,-1.426925592756849,-27.295559385479283,-3.026886167372668,-4.441606644747659,-11.538808381240528,-16.06077099551082,-6.623518312177747,-13.320483853284399,-23.167260993348243,-2.567711627862363,-34.51144065892742,-30.627478861370278
93,-35.51539301578112,-15.780586549695537,-1.5209119629398367,-27.48137956185139,-2.616576334533654,-4.17586974247793,-11.215957065459657,-15.828881394625624,-6.463890420814158,-12.607165447326848,-22.00178264817625,-3.2552298926988392,-33.91493559498194,-29.716675232657355
94,-34.26906397466755,-14.750047514844354,-1.6008931463083815,-27.439594313029215,-2.1981155348297774,-3.8659768313007015,-10.781798158537478,-15.43247434175991,-6.241088847578426,-11.730688176450863,-20.5606479449846,-3.9659941663045517,-32.90768480086148,-28.532142969018917
95,-32.72272630847515,-13.617543077445625,-1.6626579028275297,-27.176150088093223,-1.7727055205821405,-3.522436334130367,-10.24212421856789,-14.87634065604852,-5.956043826088983,-10.697884072107712,-18.858822120771634,-4.6822333375879195,-31.502001318146927,-27.079541988037104
96,-30.89016211908324,-12.396021278596232,-1.7024137463500475,-26.69922811860209,-1.3412915427338574,-3.156151297479872,-9.604661540359766,-14.167959848917588,-5.609830589424986,-9.518370553424283,-16.915962533861517,-5.385147708692301,-29.717352860921732,-25.368554212675672
97,-28.789207632221476,-11.098830299162472,-1.7169686990875723,-26.019250132582354,-0.9047217942587794,-2.778179467898387,-8.87904056537048,-13.317434117049535,-5.203893618510644,-8.204611800901159,-14.756210191027135,-6.055653320992257,-27.5799439526704,-23.412948205824797
98,-26.441703483794235,-9.739591175390032,-1.7038882174009178,-25.14887683280967,-0.46391806036190786,-2.3994810889800693,-8.076700672293704,-12.337364070802886,-4.740301468596444,-6.771915693123707,-12.407911071117692,-6.675156921639881,-25.12220221812389,-21.230603303684713
99,-23.87340351287895,-8.332119749532863,-1.661619760088582,-24.102984834031997,-0.020041486005724876,-2.030650495938372,-7.210718881212888,-11.242657001394,-4.221995025563018,-5.238339102217328,-9.903252580587907,-7.226317926957196,-22.3821724795334,-18.84347834668833
100,-21.11382131106959,-6.890387234338727,-1.589578596040767,-22.898603969550262,0.4253623342556639,-1.6816326637538472,-6.2955584148521995,-10.050260915828718,-3.652991097725056,-3.6244791975426063,-7.277799997204569,-7.693751933370778,-19.402818790309333,-16.277505473896376
101,-18.1959914147665,-5.428503598301206,-1.4881901245930773,-21.554796875922946,0.8702517881618331,-1.3614326047131498,-5.346741590998682,-8.77882385917565,-3.038509497962091,-1.953139201195767,-4.569921998718551,-8.064633208223732,-16.231234978183377,-13.562388496692003
102,-15.156124165530503,-3.9607056035937447,-1.3588862665303172,-20.09246647565425,1.3120195981233753,-1.0778319151870441,-4.380460346857886,-7.448287050402908,-2.3850044089010414,-0.2488718166283097,-1.8201024352202255,-8.329161024963337,-12.917767365909397,-10.731287976672798
103,-12.033139387141723,-2.5013313791610448,-1.2040562170824092,-18.534083086307934,1.7474692911968919,-0.8371306864941266,-3.4131446975945607,-6.079429472358745,-1.7000971701615513,1.4625810890760231,0.9298544517427373,-8.480865479317012,-9.515057551764851,-7.820380629856687
104,-8.868073313474317,-1.0647656139827517,-1.0269546795572722,-16.903329830791588,2.1728389597789057,-0.6439332666369585,-2.4610129916693677,-4.693388217519506,-0.9924237074740623,3.154921435357642,3.63770760705306,-8.516741278156438,-6.0770183358343495,-4.868288601392164
105,-5.703364318458291,0.33465622972220127,-0.8315733085256873,-15.224671900606465,2.5838713678477117,-0.5009934224472751,-1.5396274361204236,-3.311181585987777,-0.2714217500492612,4.801961971461589,6.261723945627493,-8.437211771799404,-2.6577620282672627,-1.9153839234485655
106,-2.5820340970204327,1.6827901820175002,-0.6224832738859054,-13.522861769873725,2.975927474330764,-0.40912960677481186,-0.6634746583594299,-1.9532601860172243,0.45291170109715395,6.378287517403193,8.761649075041,-8.245938696768507,0.6894938113981243,0.9970161326435772
107,0.45320947566732384,2.96587095047291,-0.40465828983407587,-11.822398627014135,3.344138072347033,-0.36721551431434685,0.15441431445339632,-0.6391056296272046,1.1702639486126327,7.859874849142934,11.09966434479051,-7.949504029922456,3.913514232144536,3.827537546476218
108,3.360914199523689,4.170735697828223,-0.1832877971805837,-10.146965910415775,3.6835854533071943,-0.3722458893958773,0.9027951698761852,0.6131116575773785,1.8702301035157738,9.224644153518936,13.24129002412571,-7.556997755920554,6.9660979786351795,6.5356890540666255
109,6.101831909192121,5.285071076884038,0.03641074636401529,-8.518875256834892,3.989504165311375,-0.4194734350487432,1.572485866097248,1.786812715179523,2.542506621295979,10.45292561453133,15.156197606633976,-7.079548440525319,9.803062598632637,9.082815273833813
110,8.639834205069853,6.2976679672381515,0.2493729055949069,-6.95854712529434,4.2574876495710114,-0.5026100954501512,2.156580716432355,2.8672337136304167,3.177057313500667,11.527835827223802,16.818901123173557,-6.529831816279996,12.385137952963172,11.433025641087257
111,10.942759607453938,7.198668851386231,0.4508555398119987,-5.4840565886653305,4.483686515145361,-0.6140847892227875,2.650596723829921,3.841604824071652,3.7642650973197282,12.435568883664287,18.209307205883018,-5.921586319521572,14.678747863009885,13.554065535405206
112,12.983162632863788,7.979795222271399,0.6365872672538172,-4.1107671994299615,4.66498493289755,-0.7453492634819818,3.0525451723503747,4.699299701840375,4.2950891227882355,13.165614304211681,19.313114432598823,-5.26915518316698,16.65666520493873,15.41810328881915
113,14.738943132036736,8.634546232292912,0.802896622414078,-2.8510678463734247,4.799143976070138,-0.8872234737011462,3.3629207898395626,5.431969991723636,4.761246395506828,13.710916579505959,20.122061237489945,-4.587065038858524,18.29852974285869,17.002414086510445
114,16.193841376811207,9.158364198467693,0.946813758524896,-1.7142191039839514,4.8849040581547625,-1.0302713765729374,3.584601057259289,6.033673034757418,5.155429214816396,14.067988067686999,20.63402636846099,-3.8896438438303553,19.59121940627366,18.289946593943426
115,17.337789280592755,9.548765900210883,1.0661421441966177,-0.7063082698759044,4.922042135779227,-1.165197015547196,3.7226509078333008,6.500991134320639,5.471557024769131,14.236979346467075,20.852986611362063,-3.1906778506533824,20.529064909720102,19.269759926208902
116,18.167110265192317,9.80543918814528,1.1594977648702716,0.16969310407821256,4.911382471503428,-1.2832488730901546,3.7840338292397067,6.833130695033336,5.705047451293387,14.221701428760344,20.78883480100969,-2.5031078698215183,21.113895741993286,19.937318178784437
117,18.68456034574058,9.93030229391598,1.2263148885256663,0.9137787711311305,4.854762287073802,-1.3766172682873377,3.7772385652779237,7.031982480910979,5.853079986709694,14.02958564947933,20.45705875734294,-1.83876732291678,21.354904118926118,20.294628416465343
118,18.899202760027475,9.92752005089839,1.2668193784526696,1.5286759753525352,4.754955677561494,-1.438805626686139,3.7118395384303318,7.102121750183784,5.914819530748489,13.671562122309966,19.87828056257122,-1.2081664045311598,21.268314529645792,20.350207318331044
119,18.826110102639117,9.803468821147122,1.2819725445641192,2.0195450893022726,4.6155608229402585,-1.464953465003195,3.5980167383326673,7.050729091995095,5.891566893315712,13.161837827895184,19.07765735125559,-0.620326961739336,20.876852073522862,20.118863398695332
120,18.485892771573592,9.566641410188076,1.273390233568745,2.393624683607593,4.4408569414685175,-1.4520885347092165,3.4460655992068623,6.887418508989265,5.786808957801505,12.517560691791722,18.08415031236717,-0.08267167039005416,20.209013196483376,19.621286952278385
121,17.904060225985987,9.227485054016578,1.2432429700585093,2.6598372887329083,4.235638824126348,-1.3992879585343072,3.2659290487016106,6.623967574071568,5.606151280288265,11.75836554963881,16.92967699957207,0.3990307018602139,19.298155558247924,18.883448256109112
122,17.1102307746248,8.798169436934016,1.1941433532474484,2.828372742491101,4.005038410169297,-1.3077325599580467,3.0667830529230033,6.273954462861347,5.357129466483564,10.905810331312908,15.648171640393112,0.8206649092697771,18.1814369024517,17.935815126338312
123,16.137215272556418,8.292287007977539,1.1290266617206566,2.9102680409715456,3.7543445880142143,-1.1806443614915578,2.8567038743640327,5.852317429144284,5.048911536937877,9.982724450042012,14.274587561642791,1.1797190157051671,16.89864442290313,16.81241291429469
124,15.02000901873489,7.724493854536413,1.0510299720409642,2.91700426594925,3.4888335151615717,-1.0231044400989677,2.642439321710851,5.374862092498566,4.691918796128052,9.012503712128844,12.84388350105706,1.475194883347126,15.490964957539326,15.549761992637116
125,13.794732405308189,7.110105017614264,0.9633743363692872,2.860140790965353,3.213621093465791,-0.8417569547136876,2.4292969273631395,4.8577478751915155,4.297402913567373,8.018393569146301,11.390038955200783,1.707493490469032,13.999750311924252,14.185736964731092
126,12.497562846950734,6.464662035187022,0.8692538372106671,2.7510031617164428,2.933546028853701,-0.6444145751975306,2.221150033837443,4.316984607797542,3.8770181534093644,7.022802419132751,9.94514092243155,1.878288812123941,12.465329556130856,12.758395946450058
127,11.163698402245688,5.803491830678558,0.7717346806108064,2.600433990186109,2.653086713568825,-0.4395895197692809,2.0205505866269236,3.7679639029433205,3.4424193573989124,6.046678885945292,8.538576129198896,1.9903995648914103,10.925912076731098,11.304827500227066
