,AF3,F7,F3,FC5,T7,P7,O1,O2,P8,T8,FC6,F4,F8,AF4
0,0.09047157844816674,0.2682721885540966,0.13303001177691826,1.8647548971264702,0.1865000995035632,0.6178093345232303,-0.47986443725346417,0.19468903431324516,1.421565540358394,2.3034787675366535,1.4300893576221534,1.404713417390259,0.20477250392818278,0.833433026300837
1,-0.12099177097226008,0.17367442113979242,0.31897466926810875,1.5587627104704842,0.35843306494172245,1.3538102171599895,0.3387410318063274,-0.396277909564609,0.43381590214433274,1.1465152514226258,1.362145407971201,0.9890117383073073,-0.4000773476666603,0.5914758180593606
2,-0.3274350443709997,0.07918699614189796,0.4979132926160777,1.2547858114435138,0.5301185408562555,2.0733539753530263,1.132527060789753,-0.9799852569346629,-0.5337482274434519,0.01370670588708838,1.3053582653951563,0.5793618386390739,-0.9806130055428877,0.349722618441263
3,-0.5348199615685592,-0.017826407561192973,0.6584741935021318,0.9486732788584753,0.6944578775000453,2.759662612218027,1.8834367063899071,-1.5459985364458946,-1.46111552708128,-1.0734928410853493,1.2598924542696528,0.17638411417486055,-1.5260670727554946,0.10873693004255114
4,-0.7493332181111334,-0.11994516820145253,0.7898452192516523,0.6363455451171779,0.8444222592825168,3.396940174224831,2.574711235900887,-2.084713382767576,-2.3296464696050303,-2.095267090784461,1.2254289723546414,-0.21953060756950407,-2.0271938044459428,-0.13108940398995492
5,-0.9772060896192337,-0.22957650809926328,0.8822065014080444,0.3139670099488532,0.973234612695681,3.9708577278007495,3.1913834940409123,-2.587787107736148,-3.1227493352914246,-3.0340824066060508,1.201162552079823,-0.6081533143312462,-2.47661395965183,-0.3694780260293624
6,-1.2245437223113023,-0.34885858365752104,0.9270964320004301,-0.021902610282149466,1.0745466223797833,4.468991535874335,3.7207201384239745,-3.0484696651163024,-3.8264341455426676,-3.8752010310718377,1.1858196526911469,-0.9893601597549859,-2.869078488445071,-0.6062213613859718
7,-1.4971685694803736,-0.4795850402628568,0.9176926397179388,-0.37418327457743633,1.1426091444655266,4.881201023945427,4.1525972098470945,-3.461815944161298,-4.429714870050315,-4.607034821620704,1.1777029734632798,-1.363089912356716,-3.201632777694607,-0.8411568834740188
8,-1.8004788654392725,-0.6231506630154754,0.8489984608888141,-0.7451782499758777,1.1724352541164758,5.1999344915873955,4.479794480809272,-3.824773202718745,-4.924843374833683,-5.22132517426431,1.1747674318657202,-1.729314488176608,-3.47366786248763,-1.0741549600236937
9,-2.139319427604882,-0.7805149094981312,0.7179353739038806,-1.136505842856014,1.1599551427889263,5.420451425016083,4.698195446809781,-4.13614917314737,-5.307373731915736,-5.713150001336302,1.174729914928841,-2.0880180302596933,-3.6868511718498214,-1.3051128839615131
10,-2.5178593860623875,-0.9521788127078553,0.5233509137650789,-1.5490563588109898,1.1021607109341973,5.540951015078068,4.806881976182991,-4.396476438636904,-5.576070770110566,-6.080773440282374,1.1752101857178863,-2.4391781862012336,-3.8449369271286984,-1.5339452862555378
11,-2.9394701289091154,-1.1381708106990198,0.2659578959021045,-1.9829699903861238,0.9972351801869496,5.562597850132096,4.808116220828,-4.607795490374611,-5.732689537154663,-6.325366348742733,1.1738939618713686,-2.7827432392592426,-3.9534653360507503,-1.7605611003875736
12,-3.4065968460820377,-1.3380379797737192,-0.05177620716511767,-2.4376311097272887,0.8446600737391725,5.489438696008374,4.707207867324916,-4.773381523678465,-5.781659991118487,-6.450634074932711,1.1687038951282045,-3.118599679945237,-4.019369483369241,-1.9848195958829398
13,-3.9206190692286613,-1.5508410201313485,-0.425771112105251,-2.9116759250445967,0.6452892816428017,5.328209231572349,4.5122715710447405,-4.897439055659156,-5.729712677839056,-6.462391879248169,1.1579618346531069,-3.446526413000775,-4.050517800571361,-2.20646204670942
14,-4.481700358395559,-1.7751542396497553,-0.8504915067469032,-3.4030135708565012,0.401378479119303,5.088035995832701,4.2338860001743885,-4.9847855229348825,-5.585477574674968,-6.368127938237687,1.140525941426833,-3.766134752326822,-4.055226383682777,-2.425020938043962
15,-5.088634290721267,-2.00907468267248,-1.3191111566818607,-3.908863957043108,0.1165589224467341,4.7800454562221955,3.884671089677954,-5.040541683036165,-5.359081790770579,-6.176589479020846,1.115887610286633,-4.076797685669199,-4.0417776675793755,-2.6397149291195228
16,-5.738700848078429,-2.2502458740190217,-1.8236798687799507,-4.425816996279574,-0.2042516192403631,4.416898103104952,3.4788034902439824,-5.0698436565295,-5.061764217742911,-5.897419692630686,1.0842154518635674,-4.3775764185298955,-4.017979659558759,-2.8493438345184208
17,-6.427551517649702,-2.495900705013431,-2.355294451759157,-4.949916118261048,-0.5550016126408772,4.012270367776254,3.0314919320386653,-5.077589228179011,-4.705518106493529,-5.540862616276953,1.046337578978385,-4.667155615468127,-3.990793959582026,-3.0522015712504453
18,-7.149141469504133,-2.742925391808603,-2.904277037348348,-5.4767649119786,-0.9287153877788528,3.5803105967332622,2.5584343804164003,-5.0682297112784065,-4.302767379478679,-5.117541811277341,1.0036598023517584,-4.9438000658891115,-3.966052311536547,-3.246024783717277
19,-7.895723283880318,-2.987943346487382,-3.460364406956809,-6.001651124933227,-1.3177460744964644,3.1350966658272026,2.0752773533611615,-5.045617492450771,-3.866080123940581,-4.638308437826002,0.9580255160796718,-5.205344013876397,-3.948271426172473,-3.4279907555462015
20,-8.65791048375615,-3.227415171073285,-4.012911224072964,-6.519679140921537,-1.714054101236938,2.6901214012513353,1.5970948666269518,-5.012916933585601,-3.407922714597719,-4.11414716679526,0.9115310659783632,-5.4492204268544375,-3.9405656345586935,-3.594771765557137
21,-9.424812747566852,-3.4577492579582496,-4.551108952321919,-7.025901548577267,-2.109492632563648,2.25782786061765,1.1379013102594124,-4.972581882471551,-2.940458324361104,-3.556124952685619,0.8663159406481888,-5.67253265145832,-3.9446482934852587,-3.7426461841741596
22,-10.184239638351606,-3.675416691123871,-5.0642209180065025,-7.515441907663011,-2.4960831306239464,1.849211022024848,0.7102106951001067,-4.926396940354209,-2.4753913957532316,-2.97536662852728,0.8243490779236325,-5.872166710555634,-3.960907102092997,-3.8676606791926056
23,-10.922966312297868,-3.8770643390448845,-5.541832363090645,-7.983602954616115,-2.866267450632145,1.4734972521235923,0.32465475409255545,-4.875572768661358,-2.023853873296225,-2.383040640352143,0.78723127170193,-6.044939165978552,-3.9885362261297357,-3.9658334109446858
24,-11.627052613327153,-4.059621372791458,-5.974112388031803,-8.425956646555191,-3.2131266313912534,1.1379088388354663,-0.010326699204293839,-4.820879578953435,-1.5963219164184361,-1.790338091288924,0.7560299647300273,-6.187772731851247,-4.025709414977662,-4.033385169587449
25,-12.282205794650821,-4.220396569944467,-6.352082481669582,-8.838414754675016,-3.5305604431651445,0.8475175353196729,-0.288709742103217,-4.762799344348391,-1.2025473793360044,-1.2084304523099003,0.7311573510500031,-6.297889848574571,-4.069782237797698,-4.0669842257846005
26,-12.874176486651526,-4.357165520449041,-6.66788401625239,-9.21728102561958,-3.813425357305373,0.605188002903228,-0.5070132939997871,-4.70167723608948,-0.8514889348260565,-0.6483967191264892,0.7122963988374661,-6.373013537240802,-4.117516068162097,-4.063991348263788
27,-13.389177233613735,-4.468247270127454,-6.915034945560981,-9.559287671189486,-4.057631314058717,0.4116091613511165,-0.6643219871644317,-4.637856021390935,-0.5512329404948594,-0.12111819300390679,0.698373008404243,-6.411564924594658,-4.165319288379802,-4.022693430079285
28,-13.81431278280559,-4.5525692166803795,-7.088664388413888,-9.861619811464067,-4.26019924333416,0.26540877859159206,-0.762203771732147,-4.571782542519532,-0.3089018462680229,0.36285386139835946,0.687567022730879,-6.41284731436814,-4.209501345123545,-3.9425160152488323
29,-14.138011006442055,-4.60971807019747,-7.18571296898709,-10.121931494860517,-4.419281906240813,0.16334427139938854,-0.8045273462761028,-4.504081547205614,-0.13055534211139488,0.793447764499017,0.67735143492606,-6.377206927557935,-4.246533009236041,-3.8242053816623196
30,-14.350442508248287,-4.639973872133164,-7.205086610052409,-10.33835603798091,-4.5341505133193,0.10056085616332332,-0.7971900297629815,-4.435597547375242,-0.021093987550628874,1.161227244618447,0.6645492128294753,-6.306160079998419,-4.27330237330527,-3.669969754742819
31,-14.443915566151077,-4.644323450081337,-7.147752020900428,-10.509511753109246,-4.605149048500314,0.07090674673213072,-0.7477709589150882,-4.367408687568078,0.01582462482057587,1.4575450804323349,0.6454010144729047,-6.202475944948273,-4.287352177131335,-3.4835679874660674
32,-14.413231368061771,-4.624449343903339,-7.016763731034829,-10.63450216239075,-4.633617792412369,0.0672933525872762,-0.6651275798817501,-4.3008170527182505,-0.022149315721895945,1.6746905582439409,0.6156431937411091,-6.070204086138184,-4.28708164067758,-3.270333879549788
33,-14.255982821466697,-4.582690240158128,-6.817215187951441,-10.7129082790913,-4.621787618877746,0.08208586144390648,-0.5589553781392911,-4.23731776779278,-0.13601283647690762,1.8060312758831945,0.5706014825931197,-5.914637372852296,-4.2718959068147875,-3.0371257265919374
34,-13.97277888647726,-4.521969235794194,-6.556109615481457,-10.744770015121338,-4.572647339119518,0.10750664868285842,-0.43933150057283527,-4.178546307461033,-0.32538026402169107,1.8461531978848462,0.5053097137613087,-5.742203607805223,-4.242287858923693,-2.7921937777129093
35,-13.567376063868219,-4.445687141427783,-6.24214966793044,-10.73055442191266,-4.489787670197139,0.1360318003003321,-0.3162623268563635,-4.126201943433901,-0.5884605081652523,1.7910043937567586,0.4146637297209683,-5.560282695501476,-4.199839802895281,-2.5449629449068913
36,-13.046700427227803,-4.35758026260261,-5.885448733344525,-10.671110112411846,-4.377227241560568,0.160760518958479,-0.19925350061135072,-4.08194659277444,-0.9220345268161255,1.6380468158317285,0.29361755955755264,-5.376950354532016,-4.147136802216163,-2.305733826598613
37,-12.42074811413682,-4.26154575846858,-5.4971713591769875,-10.567609390693194,-4.239228106981109,0.17573839018332124,-0.09691886005738722,-4.047282119044708,-1.3214312392438945,1.386416172557823,0.13742264644947988,-5.200654387583388,-4.087589978051098,-2.085310827368091
38,-11.702358968184054,-4.161441931153907,-5.089115341918016,-10.421481829685273,-4.080110012329106,0.1762180986924667,-0.016642216151730994,-4.0234139264574,-1.7805081427118505,1.0370831158612213,-0.058096593933976454,-5.039834937677219,-4.025176015441388,-1.894570835483069
39,-10.906865842665297,-4.060875019230184,-4.6732529301863,-10.23434501569184,-3.9040738322753565,0.1588448380065727,0.03569680679719809,-4.0111130708000875,-2.2916500431340063,0.5930020079092118,-0.2962442669070505,-4.902505142948426,-3.9641068897658718,-1.743989313254017
40,-10.051630349536891,-3.9629881396826057,-4.261253066292982,-10.007939856147718,-3.715044875645993,0.12175798949450677,0.05592398092374982,-4.010592083157685,-2.845802460805423,0.05922918825971029,-0.5791499973523504,-4.7958128535527695,-3.908450792206377,-1.643143431826692
41,-9.155484465865802,-3.8702711278037203,-3.864010293276149,-9.744079026000831,-3.516545852573091,0.06460541160120474,0.04169150219153552,-4.021410261206065,-3.432554582147335,-0.5570078189360173,-0.9074834668788394,-4.725607680287733,-3.8617313411127268,-1.600214839399416
42,-8.238105380995059,-3.78441051279312,-3.491207896542946,-9.444617212632885,-3.3116070233290156,-0.011528168182851094,-0.007486451984586714,-4.0424213441507435,-4.040281320338273,-1.246305750691171,-1.2802102369034862,-4.696040133938012,-3.8265365384144103,-1.6215177231474693
43,-7.319356346464582,-3.706195868576781,-3.1509419816134376,-9.111450064956117,-3.1027176889161883,-0.10427171299551236,-0.09028545115773767,-4.07177037494541,-4.6563468399650425,-1.9971561454466418,-1.6944114107676316,-4.70922007922679,-3.8041698873949357,-1.7110799142799535
44,-6.41862799825071,-3.635493038886245,-2.849429491059279,-8.746545026675332,-2.8918194350626782,-0.21018515583331246,-0.20370668030982356,-4.106939180650295,-5.267364430466314,-2.796095695263682,-2.145185199163143,-4.764959882111413,-3.794372752139964,-1.8703047172537188
45,-5.554213328437877,-3.571287769481883,-2.590817624135068,-8.352002473267735,-2.6803381510628435,-0.3250268821779819,-0.34328852063936954,-4.1448339893099435,-5.859501776702264,-3.6279361747194647,-2.625641851610792,-4.860624098692545,-3.795140469148828,-2.097738671640936
46,-4.742746411262989,-3.5117964618665294,-2.377105689219468,-7.930141170271427,-2.4692492147339333,-0.4440524447904064,-0.5033809077228548,-4.1819056712794005,-6.418818152774796,-4.476069818538561,-3.1269967254731057,-4.991103046146888,-3.8026471769969223,-2.3889661566340146
47,-3.998730443273483,-3.454635006973731,-2.2081833771630923,-7.483598816306266,-2.259168346291538,-0.5623252539882149,-0.6774662842838649,-4.214292624146638,-6.931621066391068,-5.322842831893761,-3.6387609992781447,-5.148922087074527,-3.8112874048087075,-2.7366461323579068
48,-3.3341741186762226,-3.3970322149990064,-2.0819816983404484,-7.015436260491285,-2.0504593133440925,-0.6750214337418186,-0.8585089925309491,-4.237977398325153,-7.384832808647052,-6.149987257159134,-4.149025819376188,-5.324491221216164,-3.813836161092226,-3.1306992274195817
49,-2.758346641580078,-3.3360708841926225,-1.9947243947021194,-6.529232597506619,-1.8433488232386757,-0.7777132843609383,-1.0393139743872761,-4.248949819315267,-7.766359777315262,-6.939099645978977,-4.644832104496496,-5.506489988615314,-3.801722828991417,-3.558644193438113
50,-2.27765165301637,-3.268936818281926,-1.9412590469413935,-6.029157825974735,-1.6380386341122481,-0.8666182888875413,-1.2128754806091635,-4.2433706949899594,-8.065457340926669,-7.67215288373646,-5.112613131083063,-5.682371188722327,-3.7654072796492,-4.00607125083639
51,-1.8956107783269556,-3.193154703945329,-1.9154396953044677,-5.520010569933824,-1.43480542923412,-0.9388035583626702,-1.372697453726194,-4.217730546515183,-8.27307998322318,-8.332024170790572,-5.53869039517893,-5.838955311139142,-3.6948396523510456,-4.457227360139157
52,-1.612940319404025,-3.1067906840825374,-1.9105284370723057,-5.007210845198257,-1.2340805968818287,-0.9923391648449154,-1.51306980493802,-4.1689973133759946,-8.382202193863236,-8.903018453690782,-5.909797290928472,-5.963078250032238,-3.5799789143333136,-4.895677782770443
53,-1.4277010650167477,-3.008604773458167,-1.9195833709194416,-4.496741698845161,-1.0365044486067756,-1.0263970717079416,-1.6292886458453126,-4.094746559496987,-8.38809276387525,-9.371364534762806,-6.213602364079604,-6.042249706630362,-3.411340340720641,-5.305002232519755
54,-1.3355012909689175,-2.8981408791043917,-1.9358041969151423,-3.9950379779718577,-0.8429517177540773,-1.0412939969205952,-1.717812476817331,-3.993268098475889,-8.288525508380369,-9.725661717996154,-6.439204965896844,-6.065279552650424,-3.1805393176721855,-5.66948360863923
55,-1.329735982376066,-2.7757473697513797,-1.9528136164617547,-3.5088249609376048,-0.6545268413501203,-1.0384762544773005,-1.7763493968782738,-3.8636441150920695,-8.083912668958831,-9.957257597189054,-6.577579733066875,-6.02283424632566,-2.880799357109399,-5.974751909205603
56,-1.401850155968651,-2.6425272197976692,-1.9648613065922513,-3.044914023248691,-0.47252891410398395,-1.0204437720876873,-1.803872846746204,-3.7057953214764585,-7.777351734056103,-10.06054110970095,-6.6219506915058215,-5.907893898457931,-2.507396246628436,-6.208353375804004
57,-1.5416195018177443,-2.5002236853373487,-1.9669465832800987,-2.6099666146526723,-0.29838802046611496,-0.9906110895669418,-1.8005663682665018,-3.5204931749373394,-7.374580642971462,-10.03313791853392,-6.56807989095573,-5.716090334528617,-2.058016468604676,-6.360222879768195
58,-1.7374453774753233,-2.351053738813441,-1.9548645010073125,-2.210240840941323,-0.13357700619579793,-0.953106400698195,-1.7677020566945751,-3.309337696132963,-6.883839925773861,-9.875996976863167,-6.4144588305263905,-5.445914969914805,-1.533013779710805,-6.423044296323555
59,-1.9766619768414355,-2.197505399812304,-1.9251867293657474,-1.8513363635571878,0.020494872836270415,-0.9125154539278791,-1.7074624213865655,-3.0747019979470256,-6.315643956745211,-9.593358736742074,-6.16239336329957,-5.09879143193238,-0.9355514436749155,-6.392488578824262
60,-2.2458518083137804,-2.0421163553533597,-1.8751925525128736,-1.5379533377169574,0.16259812227113044,-0.8735842202954834,-1.6227203520563507,-2.8196461592214055,-5.6824677394474294,-9.192598759364774,-5.815975028862413,-4.6790124269127755,-0.27161978450969537,-6.267323008421896
61,-2.5311637074650157,-1.8872507503581033,-1.8027671102735754,-1.2736801919482188,0.29179958425818314,-0.840900852707315,-1.51679592525189,-2.5478043237135175,-4.998360158035615,-8.683946643084212,-5.3819356074262545,-4.193545170125879,0.4500781671256818,-6.049388927883038
62,-2.8186273381526528,-1.7348897560780343,-1.7062843519525344,-1.0608235126250518,0.4075696940211543,-0.8185815068469048,-1.393210915744882,-2.263249774182856,-4.27849857434045,-8.080088932236741,-4.86938839443661,-3.6517160856718895,1.218374185333473,-5.743450656697518
63,-3.094459402794354,-1.5864499961342908,-1.5844916008515337,-0.9002910638957149,0.5098712537055132,-0.8099847405212184,-1.2554611174133805,-1.9703433562796837,-3.5387022930921876,-7.395674256311713,-4.28946843440099,-3.0647929295203813,2.020008013639378,-5.35692563040507
64,-3.3453581239336936,-1.4426420242191589,-1.4364109196149577,-0.7915356857023635,0.599222038628504,-0.8174757747443578,-1.1068226708160709,-1.6735711606317536,-2.7949235079447607,-6.646746581198142,-3.654892020383605,-2.4454888236182017,2.840109240227381,-4.899513199707326
65,-3.558783071161589,-1.303378509331194,-1.2612693504534473,-0.7325634051738641,0.6767257993258012,-0.8422564340376579,-0.9502025784503544,-1.377377899303891,-2.0627346859272695,-5.850136230694567,-2.979460808491503,-1.8074161395825745,3.6627630258183532,-4.382744222998952
66,-3.723217642027595,-1.167738648858369,-1.0584659549448279,-0.7200043338787665,0.7440687114902891,-0.8842705706143047,-0.7880371905912767,-1.0860030449193332,-1.3568325055648989,-5.0228391206274425,-2.2775378195279603,-1.164518948585715,4.471629120165899,-3.8194750742843753
67,-3.8284123558080356,-1.0339919307445467,-0.8275790879251917,-0.7492409901607308,0.8034805157818372,-0.9421888283893881,-0.6222369422523469,-0.803327590320321,-0.6905806999765407,-4.1814146726054044,-1.5635227316833396,-0.5305122285295438,5.250579993890727,-3.2233498284585274
68,-3.8656084485774143,-0.89968092064188,-0.5684129780061433,-0.8145862863493094,0.8576614302915979,-1.0134706806431215,-0.45417165087320804,-0.5327400069436078,-0.0756152251307213,-3.3414325973934185,-0.851352589464964,0.081645031133515,5.984322889073139,-2.6082546924312386
69,-3.827742065241357,-0.7617593407058746,-0.2810788168802851,-0.9095024151586956,0.9096776972049508,-1.0944957988592054,-0.2846887340412849,-0.2770299791498552,0.4784679447166793,-2.516996279210818,-0.15405039609547544,0.6602176323572816,6.658972829010717,-1.9877890199804975
70,-3.70962886455836,-0.6167784058880199,0.03389746142415363,-1.0268515018674207,0.9628304806864216,-1.1807514639838137,-0.11415689249658206,-0.03831685685255374,0.9643305580372181,-1.7203639371438224,0.5166622732434899,1.195081447176885,7.262548850340572,-1.3747765486636216
71,-3.5081271722972946,-0.46111122845621993,0.37545058314052476,-1.1591682543228896,1.0205046745073387,-1.2670588437668784,0.05747065633338684,0.18198386576632913,1.3770155144462033,-0.9616783638043428,1.1506797256413244,1.6780147479581193,7.785372884146681,-0.7808382552361345
72,-3.222275501127414,-0.29120214623081686,0.7418456800139585,-1.2989434050004276,1.0860058223578284,-1.3478196085136966,0.23057757767817214,0.38315737955590856,1.7139873562351546,-0.24880456924532646,1.7397501998462224,2.1028856539639125,8.22035880672125,-0.2160443206255751
73,-2.853397474191648,-0.10382515370141833,1.130554585726577,-1.4389045454392413,1.1623945438197592,-1.4172661378741145,0.40579342359465115,0.5651548735378465,1.9751071238575655,0.41273450565791797,2.277636556100942,2.4657354696368095,8.563187346417934,0.3113429768272716
74,-2.405163679122771,0.1036667647040182,1.538152292773245,-1.5722785389773173,1.2523283432560435,-1.4697029249298201,0.5838928593529917,0.7285344075991783,2.1625575677881557,1.0197388291895881,2.760199646257608,2.7647650452827626,8.812369764071596,0.7950310136918107
75,-1.8835963811442726,0.33312130918251265,1.960248654388502,-1.6930180848124463,1.3579203263714177,-1.499731994823815,0.7656884163117033,0.874384430915093,2.280727589978506,1.5712432349504466,3.185405889209938,3.0002378630897724,8.969208281367642,1.2307665327201693
76,-1.297001618490432,0.585415186773597,2.391470330349157,-1.795975569405309,1.480623092042748,-1.5024592712615927,0.9519214131956152,1.0042357185174966,2.336055105483093,2.0683707240325995,3.553262597226134,3.1743177688787343,9.037663004891863,1.6163218577648548
77,-0.6558162824409466,0.8603469415453288,2.825504668624873,-1.8770110568597849,1.621143836778866,-1.4736809201973604,1.1431565370674637,1.1199653795437179,2.3368190131607487,2.514130676473704,3.8656855723516914,3.2908592616392602,9.02413350899886,1.9514070465377558
78,0.02763460971139607,1.1566027484251362,3.2552107035460796,-1.9330279206463825,1.7793935940827486,-1.4100492303475427,1.3396848318969794,1.223694137229929,2.2928670721807514,2.913159752195417,4.126302775879285,3.355164134634218,8.93715996772297,2.2375152912566416
79,0.7394654107837861,1.4717942278947649,3.6727943204811107,-1.961937910525801,1.9544700456616737,-1.3092172594813358,1.5414374324132993,1.3176758075690522,2.215269011663531,3.2714011801317655,4.340196581701913,3.3737124704102204,8.787046451025592,2.4777066487252775
80,1.4646278408152782,1.8025581116048484,4.070036761749815,-1.9625657885611996,2.144670413986959,-1.1699601871130876,1.747909455916193,1.4041765267030126,2.1158926506505424,3.595720731500428,4.51358673345275,3.3538712490845297,8.58540963144388,2.67633441816423
81,2.1873586445741675,2.14470045073251,4.438559637773981,-1.9345105247871457,2.3475293991411332,-0.992268774128897,1.9580917646425726,1.4853418965631158,2.006913152831567,3.8934643302700187,4.653457809684263,3.3035816492679406,8.344660030404237,2.8387193320071895
82,2.891653555952682,2.493364804433909,4.770106965052723,-1.8779838043836994,2.5598771586089484,-0.7774071808673415,2.170409324485893,1.563053846675874,1.9002790734722803,4.171971667448249,4.767139878717097,3.2310272263213946,8.077429675807128,2.97077975698953
83,3.5617464699332873,2.8432057292091524,5.0568264397763425,-1.7936459999683683,2.777913605424828,-0.5279252103132438,2.3826690177116765,1.6387853250164988,1.8071700867514373,4.438070613469915,4.861859236950976,3.1442898449427616,7.7959689489664274,3.0786322941076043
84,4.18257877674796,3.1885553646763096,5.291537461343615,-1.6824550063021535,2.9972972407214966,-0.24761550164513732,2.5920256371022465,1.7134676600245473,1.7374864468547317,4.697586201357007,4.944285591860353,3.051007423997604,7.511544784387893,3.1681858171932467
85,4.740250706956322,3.523579193921255,5.467979709919426,-1.5455364640552716,3.213248559408644,0.05858975581028707,2.7949795414690604,1.7873895297929352,1.6994073892257608,4.954902786551898,5.020109228392267,2.958054316681699,7.233879638459774,3.2447600128198326
86,5.222450935156924,3.8424236364707554,5.581040396666359,-1.3840777174820187,3.4206689332558717,0.3847808355353143,2.987420353664396,1.8601459458982177,1.6990462864130982,5.212617137724389,5.093683637320233,2.871268432517447,6.9706733508238194,3.312763260217543
87,5.618860927227883,4.1393608664094685,5.6269592645934905,-1.1992444561452433,3.6142753596154953,0.7242810452670673,3.164727013359644,1.9306502722458205,1.7402181950980533,5.471313735832387,5.16776468060988,2.7952475164709245,6.727246466128163,3.375462108287032
88,5.921526930420096,4.408934990615252,5.603508376240143,-0.9921190120279437,3.7887497232901763,1.0698886654420734,3.3219263153693284,1.9972132153100866,1.8243240642567842,5.729482325584651,5.243367432638077,2.733230450487699,6.5063331152526125,3.4348654903175158
89,6.125186492833286,4.646109634240636,5.510139783997063,-0.7636617473741563,3.9388987289088684,1.4141296357618052,3.4539021920120336,2.0576821741026183,1.950347531989924,5.983583430800423,5.319748574330903,2.687069325914119,6.308035974136883,3.49173251909062
90,6.227529964185659,4.846411913038002,5.348089876890002,-0.514699697559006,4.059818116007696,1.749501291816145,3.555639442754779,2.1096251544558515,2.1149557061395763,6.228253074634059,5.39450849300658,2.6572868518715858,6.129939481308875,3.545695914826378
91,6.22937312918864,5.0060636806170455,5.120426462255395,-0.24594753203435873,4.147053046303078,2.0686917873889836,3.622480520299788,2.1505379803644886,2.3126940477932285,6.456626463510015,5.463795885175204,2.64320439005937,5.967364478768907,3.5954775941661956
92,6.134717115447576,5.122088966344952,4.832024919658749,0.04193560211821709,4.196746247989621,2.36476585188076,3.650372817291006,2.1780527369827936,2.5362659153060294,6.66075312129758,5.522590671307927,2.6431203873075617,5.813738936473036,3.6391625024717533
93,5.9506765297952855,5.1923868325379665,4.4894632920186694,0.3482528968550491,4.205766516166846,2.6313138104106817,3.6360860002829565,2.190128703290509,2.7768875337749863,6.832072021702649,5.565038742681307,2.6545173548201424,5.661054412948621,3.6744936261956562
94,5.687265393613343,5.21576160143375,4.100832336618049,0.6721439936977576,4.1718120141011354,2.8625663941713646,3.5773833953973857,2.1852126410574515,3.024707214061515,6.961913514493366,5.584813262065538,2.6742771502119087,5.500375452169027,3.6991547380627297
95,5.357041312253444,5.191907776281048,3.6754643701564245,1.012435017299375,4.093485099411669,3.0534817582903195,3.473137256918759,2.1623607552117874,3.2692725189362166,7.041995218564338,5.575480413302855,2.698888339603328,5.322369328099429,3.711014930369464
96,4.974619810280094,5.121354117069524,3.223592879552906,1.3674784211085382,3.9703377210068407,3.1998121900981706,3.323383787082269,2.121318333459234,3.5000219175903187,7.064882116531799,5.530851687948263,2.7246346479884744,5.117826857107984,3.708317152481793
97,4.556081205077053,5.00537785646207,2.7559618615885744,1.7350005896446123,3.8028882493705636,3.29815607309987,3.1293189798146686,2.0625552729272276,3.706771539664109,7.024386713271045,5.445309350556549,2.747758471343342,4.878150900889861,3.689800289397093
98,4.1183003660396045,4.845903721672123,2.283408628515613,2.111976769897637,3.592611565591112,3.3459973422983587,2.8932402768904097,1.987257650482948,3.8801659244370112,6.915891950809316,5.31409568566729,2.764597248169693,4.595795743289338,3.654751268481922
99,3.6782346204220295,4.6454025522257005,1.8164459506161585,2.49455166728176,3.341904503749571,3.341732277879846,2.6184419197242144,1.8972776872064672,4.012064728272859,6.736585656621304,5.133558871914187,2.7716932234761438,4.264645468263561,3.602990896710556
100,3.252207157795816,4.406801437959425,1.3648689866902075,2.8780199977923004,3.054028737417388,3.2846832956097867,2.3090743648744403,1.7950463699620725,4.0958439502630855,6.485599714458684,4.901348581901495,2.7658791876919486,3.880322092122643,3.534804051302394
101,2.855223152890727,4.133412660896506,0.9374099305308824,3.256875139744299,2.733033275824251,3.175101004369785,1.9699805172082332,1.6834543441121803,4.126599319894162,6.164051154077027,4.616554195329146,2.744344506106802,3.440416008048693,3.4508304172801165
102,2.5003539136018604,3.828883792941815,0.5414592955934526,3.6249272712340135,2.3836590893840777,3.014158085032625,1.6065234491041307,1.5657080601227746,4.101250566963218,5.774988332679202,4.279780249099129,2.7046874339418485,2.944634258714138,3.351935519786686
103,2.198220568726775,3.4971671213657536,0.18286763330371442,3.9754862978986107,2.011229001436293,2.8039402696342908,1.2244207928627744,1.445169966486931,4.018556825351633,5.32325399935605,3.893158257902152,2.644961048732382,2.394866443444676,3.2390826396569454
104,1.9566026288622012,3.142503284584531,-0.13416479215393426,4.301599561624046,1.6215266532064154,2.547439605018598,0.8295991322100156,1.3251931831009958,3.879062122873464,4.8152858298428605,3.460299548613727,2.563720034826828,1.795172005293192,3.113223616153961
105,1.7801881728023377,2.7694114415092135,-0.40711001776957567,4.596329387869451,1.2206688119678641,2.248552607339776,0.4280771289869683,1.2089615781503473,3.684992565304184,4.2588800040628065,2.9861977464425786,2.4600729881145464,1.1516947421428774,2.9752210819592038
106,1.670472621602573,2.382676707506796,-0.6350526628315075,4.853051394377249,0.8149751944099332,1.9120814846639929,0.025879681568452356,1.0993451872632194,3.440122901730201,3.6629421020836737,2.477090979785034,2.3337401600767054,0.4725107676664028,2.825808381302361
107,1.6258038676251665,1.9873253878253445,-0.8185602912568524,5.0657522374743404,0.4108389598084833,1.5437317794849097,-0.37102100639729785,0.9987788896545654,3.149622449973735,3.0372427951581904,1.94029323700342,2.1851113979577743,-0.23258409429599106,2.665588050218873
108,1.6415642354387048,1.588579911998356,-0.9594985435393932,5.229305784775256,0.014599311892372246,1.1500957620888335,-0.7567462919824963,0.9091698842943678,2.8198830458485116,2.392186698477351,1.3840024851222734,2.015295414211068,-0.9523415721060817,2.495065497352536
109,1.7104747948135435,1.191788309449221,-1.0608066921528212,5.339709364322502,-0.36758382108873394,0.7386083438293202,-1.125545221756554,0.831837310336915,2.458327714713823,1.7385946731948543,0.817090862453185,1.8261502363071274,-1.6743766750784617,2.3147109494610643
110,1.8230046162947127,0.8023272651627039,-1.126249192857229,5.394266036440012,-0.7298535005461411,0.31746177454895114,-1.4718337042163014,0.7674854217819123,2.0731986419962563,1.087494720526984,0.24888023826534805,1.6202854591279336,-2.3855250197531546,2.1250399385475376
111,1.967865793174694,0.4254823795861272,-1.1601581939102448,5.391704015134098,-1.0667778080858232,-0.10453238472065508,-1.7902490635003483,0.7162098166077407,1.6733252045894134,0.44991460821842943,-0.31109460457521154,1.401029200316058,-3.072233683149091,1.9267011158924185
112,2.1325734447693865,0.06631308287620276,-1.167180903909593,5.332229736987646,-1.3734690431271614,-0.5181405012353004,-2.075727104057476,0.677534142097689,1.2678750127770597,-0.16333042039206533,-0.853332751122223,1.1723558386514021,-3.720975862984868,1.7205600929569023
113,2.3040479019926314,-0.27048800059632316,-1.1520442113678735,5.217515855738712,-1.645697759311038,-0.913963030902928,-2.3236045553583944,0.6504725286923592,0.8660915808833507,-0.7418601309806401,-1.3686205039175647,0.9387738721265232,-4.318678023879615,1.5077690598615123
114,2.4692340233678727,-0.5807306676842374,-1.1193471335797867,5.05062900112771,-1.8799982188622733,-1.2827421826860108,-2.5297454700505453,0.6336111868456954,0.47702179478049345,-1.2759650448649287,-1.848286605959156,0.7051759608551328,-4.85314725777898,1.2898138563523844
115,2.615710852003894,-0.8608476392340434,-1.073389571369662,4.835904625268142,-2.073760705077961,-1.615706934434706,-2.6906862543190773,0.6252019203020108,0.10923664016657172,-1.7568552215258173,-2.2844531471437324,0.47665560635863946,-5.313486357205775,1.0685327456736278
116,2.732264462608668,-1.1079910977904535,-1.0180431259950589,4.578778324578353,-2.2253048420244053,-1.9049352165057436,-2.8037904335425115,0.6232612779411411,-0.2294488313951629,-2.1769173578719876,-2.670273955937593,0.25829769071721925,-5.690483941656657,0.846104203367557
117,2.8093981545590965,-1.3200982316242733,-0.956666172980026,4.285584556914069,-2.3339272186938103,-2.143708675955111,-2.8674013831291045,0.6256711434357596,-0.5322458292781721,-2.5299701718797354,-3.000149713196158,0.05495358389408672,-5.976966193303755,0.6250045236993895
118,2.8397565961238285,-1.4959215950465468,-0.8920615972370155,3.9633336646469295,-2.3999172277187326,-2.3268339859107816,-2.880979977130413,0.6302784699205164,-0.7936372124116734,-2.811502761302842,-3.269906808788864,-0.12898501353005212,-6.1680953742324975,0.4079396017806869
119,2.8184435273168447,-1.6350242073690706,-0.8264726707383875,3.619476414647731,-2.4245374436084344,-2.4509065238406507,-2.845214555233006,0.6349927678395852,-1.0095797884903528,-3.0188766466205634,-3.476926507382326,-0.2897972285441475,-6.261598956427931,0.1977578636813012
120,2.7432165029179294,-1.7377436616866355,-0.7616108567554738,3.2616634851324746,-2.4099682694139415,-2.514496416287601,-2.762091667972171,0.6378799077356897,-1.1776456558404915,-3.151470725947572,-3.620213085823599,-0.4246129362095352,-6.257912602964007,-0.00264792774947354
121,2.6145477521256013,-1.8051322295498409,-0.6987082482787658,2.897507104908631,-2.3592197330495965,-2.5182422941950264,-2.6349168062478174,0.6372501631773833,-1.2970882322991022,-3.2107499010638123,-3.700394014512284,-0.5315472182990872,-6.160221170396925,-0.19044318091840884
122,2.4355474903196512,-1.8388802693929283,-0.638586491776272,2.5343530272646584,-2.276015582946281,-2.4648441885308965,-2.4682754160178093,0.6317372796943237,-1.368824620734108,-3.200242626367317,-3.719651250205222,-0.60977886722122,-5.974385414342249,-0.3629530570364216
123,2.2117536985286885,-1.841229306614741,-0.5817338571640122,2.1790714388238306,-2.1646563766309512,-2.3589536206194865,-2.2679274309732076,0.6203637002753866,-1.3953338290595934,-3.1254199431922522,-3.6815894542561196,-0.6595676774603171,-5.708748833207863,-0.5177593381627047
124,1.950799499272808,-1.8148802741400343,-0.5283830084678233,1.8378743468317424,-2.0298691107346487,-2.206965524764989,-2.0406336648048415,0.6025853600773837,-1.3804792249113462,-2.993477892764289,-3.5910532643875697,-0.6822111748328052,-5.373828162496468,-0.6527898455107232
125,1.661975933394916,-1.7629014682939435,-0.4785835694890752,1.5161651213576128,-1.8766505612089226,-2.0167224677506757,-1.7939183956514908,0.5783087828893726,-1.3292714649053592,-2.8130343740562083,-3.4539099482448683,-0.6799465265459672,-4.981900017925254,-0.7663980550012868
126,1.3557143762107828,-1.6886391775868845,-0.4322650560575476,1.2184240975703817,-1.710109864025409,-1.797146420292648,-1.535777979154581,0.5478747465694398,-1.2475924381011059,-2.5937581138299683,-3.27681438250184,-0.6558065304500961,-4.546503071168184,-0.8574301542076311
127,1.043018182521191,-1.595632146018929,-0.3892871291292255,0.9481325634738413,-1.5353142475794783,-1.5578173163326499,-1.274350106351712,0.512006945314418,-1.1419002703701235,-2.3459508091708856,-3.066970191043823,-0.613439907640009,-4.081880000255077,-0.9252761213491649
