,AF3,F7,F3,FC5,T7,P7,O1,O2,P8,T8,FC6,F4,F8,AF4
0,1.1621328190702156,8.646819114411652,1.1399927627529476,0.8517140413857724,-1.913101706982826,-1.4006407865998993,0.9666449765609832,1.734125084648894,2.500742877146203,0.8458875894508162,1.6846831105256554,5.9912999529469255,-0.5366079811629613,5.017488877705624
1,-1.703115411613788,5.724466937271537,-1.4887019128264696,-1.1530284170722662,-2.356874305028557,-1.538771239156647,-0.5224820914564035,0.8082189364890614,0.695771706597538,-1.6904092211010648,-1.8045207391975964,1.64265583717946,-4.024816076122839,1.3604241984409815
2,-4.5667270657978944,2.814663090976017,-4.105934147825146,-3.175962433193012,-2.827994205471713,-1.7160575068934374,-2.0052777992497286,-0.10541869467855762,-1.1060190197132227,-4.206130232169415,-5.260719117157952,-2.656188636975306,-7.497169211091348,-2.2421032873411275
3,-7.385946658250289,-0.043706987281325674,-6.665016819821295,-5.191142267075701,-3.322316163723303,-1.9349281944903642,-3.4515955003630974,-0.9901956576876285,-2.8737657543521204,-6.654583357659916,-8.622437423003571,-6.823947500807674,-10.897773662830467,-5.728843835191595
4,-10.1191012425541,-2.8132626366783438,-9.1207581933413,-7.172603199565001,-3.8348536227040886,-2.1969244404348935,-4.832767405505354,-1.8305688846991677,-4.5775599779538725,-8.99103284957188,-11.830780608775749,-10.783342881510336,-14.172556312955406,-9.042033853819579
5,-12.726497303967506,-5.458918529081726,-11.430560871754173,-9.094769062246801,-4.359584781903024,-2.502506009946934,-6.122389893004047,-2.612447594048676,-6.189158482420648,-11.173807675772295,-14.83089594544502,-14.463270264260357,-17.270523227201412,-12.128809226091745
6,-15.171245453432245,-7.94859312953238,-13.555422984607814,-10.93285077230466,-4.889313457339811,-2.8508752722786643,-7.297020007200301,-3.3235630550700312,-7.682666600202439,-13.165318691121866,-17.573325448619908,-17.80073691340001,-20.144929912584676,-14.942480510445002
7,-17.419989953313365,-10.253817483656215,-15.460811935483989,-12.663228943672669,-5.415601753326973,-3.2398285496647286,-8.336757884262067,-3.9537917105719824,-9.035173774949197,-14.93295698854002,-20.015206905807588,-20.742505119470927,-22.75433019081795,-17.443628129873204
8,-19.44352511913587,-12.350232513823986,-17.117388102457202,-14.26381517882893,-5.928788348485219,-3.665645959370424,-9.225695706293271,-4.495417861292866,-10.227319916727735,-16.449850528773045,-22.121285557126203,-23.246385122970118,-25.063472092623055,-19.60098009746104
9,-21.21728691027234,-14.217968274840828,-18.501563923560187,-15.714388851682179,-6.418101662759673,-4.123031969294459,-9.952220947062987,-4.943323684414301,-11.243772482532487,-17.695461987258856,-23.86470474942293,-25.282138990750635,-27.044013326069688,-21.39204257709857
10,-22.721714443780858,-15.8419031748495,-19.59589181826792,-16.996907860161897,-6.871871055253733,-4.605118202111294,-10.509168731301857,-5.295097555111626,-12.073597270898986,-18.656016390701865,-25.22755222016725,-26.831974803111123,-28.67503551775447,-22.80346308170738
11,-23.942481405324486,-17.211804591874806,-20.389281294490356,-18.09579214997523,-7.277831330150581,-5.1035365811775675,-10.893824310737996,-5.551055149336127,-12.710509467220522,-19.324751109238154,-26.20114733457553,-27.890628473912553,-29.94334451003436,-23.831116051388452
12,-24.870600888999796,-18.3223543824816,-20.87705085416477,-18.998177761451075,-7.6235065044456585,-5.608564628673752,-11.10778173453694,-5.714170438201173,-13.152994480199682,-19.701982598676373,-26.786062390393248,-28.465047178362067,-30.84355228999775,-24.479910563379924
13,-25.502409899689674,-19.173064337932015,-21.06082422329876,-19.69413754106544,-7.896649583274529,-6.10933692636906,-11.156668971418675,-5.78991530684965,-13.404290195298943,-19.794984743938,-26.991878032577958,-28.573703334737797,-31.37794363391962,-24.763330303854453
14,-25.83944268341544,-19.768089152094323,-20.948283598292004,-20.176863406732906,-8.0857084805269,-6.594109868057735,-11.049753427161276,-5.786008151633841,-13.472224408,-19.61767446670842,-26.83667976996981,-28.245581413145754,-31.556137102388565,-24.702726706908187
15,-25.88820521921742,-20.115948283887043,-20.55279540198646,-20.442804503890656,-8.180285961167945,-7.050563083347184,-10.799445244179488,-5.712074776187349,-13.368905179913458,-19.190103369484078,-26.346310647548698,-27.51889129539034,-31.394556501592117,-24.326396318397865
16,-25.659865474966985,-20.229171752310506,-19.892926246269052,-20.491755614165697,-8.171563500817342,-7.466120919377269,-10.420718951705894,-5.579229821665539,-13.11026864404118,-18.5377608262935,-25.55340475353525,-26.439570470063796,-30.915736081449165,-23.6684813235447
17,-25.169874264885937,-20.12388638830442,-18.991867670863925,-20.326890531262247,-8.052663998754332,-7.828280229762782,-9.930476860612165,-5.399593240696011,-12.715497534227337,-17.69070387611906,-24.49623648239071,-25.05964162145872,-30.147489778518462,-22.767736945319978
18,-24.43752970863028,-19.8193577528257,-17.876787506847112,-19.954735628598534,-7.818935054667367,-8.124935160627706,-9.346880103686178,-5.185762708060231,-12.20633264046171,-16.682541098036978,-23.217429535181154,-23.435491769172152,-29.12198006877682,-21.666211688482285
19,-23.485495423987537,-19.33749996323505,-16.578124231713858,-19.38507961944024,-7.468142024258727,-8.344694349235025,-8.6886753520132,-4.950268097353044,-11.606306992016217,-15.549309458617373,-21.762576247071333,-21.626135188749956,-27.874724640348322,-20.407887293532976
20,-22.339279867573072,-18.70236259926421,-15.128839432620422,-18.63081681455963,-7.000567252363257,-8.477189240292404,-7.974546291566407,-4.705037156283921,-10.93993764885283,-14.328292663645355,-20.178821301578793,-19.691516212112873,-26.443579088131976,-19.03732513568949
21,-21.026682268741713,-17.939601390966455,-13.563642514316122,-17.707723008171417,-6.419017679946923,-8.51337254614821,-7.222517687072834,-4.460901574765416,-10.231911405420352,-13.056834325157716,-18.51346338404998,-17.690899937144152,-24.86773089394832,-17.598363959044153
22,-19.577209629691318,-17.075937780393897,-11.918200798887442,-16.634165274450947,-5.728747011509071,-8.445803301573184,-6.44943567567873,-4.227169816421501,-9.506298239470242,-11.7711979041875,-16.812623572266588,-15.681388951781082,-23.18673407807762,-16.13290944839985
23,-18.021469707601533,-16.138612313575965,-10.228347697221086,-15.430749497532235,-4.9373013933629135,-8.268911246342277,-5.670541761592241,-4.011288156078799,-8.785821367907241,-10.505518863965705,-15.120021691123215,-13.71659368270341,-21.439606444213048,-14.679849576047335
24,-16.390547108976165,-15.154838564588248,-8.529302401283807,-14.119912536156326,-4.054299982070387,-7.9792303532455415,-4.8991516734981175,-3.8186052987546657,-8.091207330619605,-9.290885203262478,-13.475893634650967,-11.84547496388518,-19.66400431015037,-13.274122525304804
25,-14.715373189992668,-14.15126713944895,-6.85491620905683,-12.725469166249505,-3.091164113199431,-7.575590155905422,-4.146444954698385,-3.6522494510018793,-7.440634579909423,-8.154572612174936,-11.91607478183889,-10.111371083567999,-17.89548413077128,-11.945957716832602
26,-13.026104134506156,-13.153471882744629,-5.236962194969808,-11.272126508512073,-2.0608105274194295,-7.059254157242135,-3.4213667190980503,-3.513120221964497,-6.849294382276606,-7.119450930374186,-10.471266856957051,-8.551217624332212,-16.16685648329521,-10.720305400122948
27,-11.351524154697575,-12.185472009768668,-3.704485995797383,-9.784979956240287,-0.9773246151898969,-6.4339966916495115,-2.7306387961205885,-3.3999917323024262,-6.329073304806788,-6.203569869399758,-9.1664977051114,-7.194965872974476,-14.507635259020992,-9.61646599536298
28,-9.718491777440981,-11.26930439876808,-2.2832358334881904,-8.289004844818466,0.14437146462729178,-5.706112747016057,-2.078873387639578,-3.309718326917064,-5.888362738350241,-5.41992448148225,-8.02077590098844,-6.065203613671303,-12.94358345460543,-8.647925879157789
29,-8.151446975331575,-10.424659538971365,-0.9951893243108648,-6.8085580424809855,1.2888433198657359,-4.884359007417005,-1.4687788442538374,-3.2375305309360676,-5.531998415953516,-4.776395052254113,-7.046935797852991,-5.176980250692391,-11.496356496563303,-7.822400343744458
30,-6.671995938193123,-9.66859272753374,0.1418068095318256,-5.366904125676503,2.440451625092456,-3.9798284038613088,-0.9014446979124484,-3.1774061557382334,-5.261331579116581,-4.275852403011154,-6.251664759200609,-4.53783619654655,-10.183244385735506,-7.142076785475403
31,-5.298588400067323,-9.015319524654412,1.1142702066404109,-3.985781855242813,3.583634117513448,-3.0057642369003896,-0.3766914484715232,-3.1224994322019626,-5.074432250818638,-3.9164179162068256,-5.6357035221116805,-4.14803404995606,-9.017014930106159,-6.604043093583844
32,-4.046298899532523,-8.47610118186142,1.9131792326581116,-2.685027083602862,4.703155377247926,-1.9773225627050455,0.10653113260607022,-3.065609429283333,-4.966422264929768,-3.6918665878393866,-5.1942115604709205,-4.000985653118601,-8.00586147849394,-6.200878977880994
33,-2.926717794642545,-8.059221076522563,2.5339280340246244,-1.482266366509523,5.784318961055943,-0.9112922359792616,0.5497160760190862,-2.9996674603219744,-4.929929842002002,-3.5921589964531453,-4.917288944053743,-4.083863794330704,-7.153459063779061,-5.921381498702344
34,-1.9479510093357968,-7.770047161824149,2.976144318794311,-0.392690824458885,6.813139039140521,0.17421914037668026,0.9543640681162362,-2.9182214136677986,-4.955648782692151,-3.6040833458697086,-4.790642467165823,-4.378379776462227,-6.459131846771671,-5.751389869402302
35,-1.1147208939011664,-7.61116949276102,3.243382490035675,0.5710867165772139,7.77647218809592,1.2601271558071783,1.3215668173014719,-2.8158932131969627,-5.032975863409807,-3.7119827530193716,-4.796377294731309,-4.861699214064889,-5.918131723534478,-5.674669373078946
36,-0.42855572931731045,-7.582597660829397,3.3427115682842623,1.3990945030124569,8.662113599111013,2.3267360431560316,1.651636351336988,-2.688784876282713,-5.150692306203762,-3.898537532563095,-4.913887994930375,-5.507460209350892,-5.522023198970616,-5.67381155140424
37,0.11194707728996231,-7.682001094771984,3.2842214976632444,2.0839921006833193,9.458865069198009,3.3541242212824396,1.9438066334665423,-2.53480993344285,-5.297650623038686,-4.145568569997371,-5.120816110779396,-6.286852283817333,-5.259164100059499,-5.731108622069449
38,0.5107996335080889,-7.904975242611505,3.080473379972187,2.6209980733389684,10.156584694774136,4.322546641185292,2.196030205806099,-2.3539304859728203,-5.463426823150145,-4.434826394993207,-5.394036183062711,-7.169711721050008,-5.115266400157398,-5.829363971847806
39,0.7742590823816051,-8.245317916155413,2.7459195653538564,3.007766514880324,10.746230156160816,5.212850244159089,2.4048870975702115,-2.1482851874830593,-5.638899768421008,-4.748731196383212,-5.710629049317305,-8.125589203322841,-5.074017078966189,-5.952606703430061
40,0.9104339469392387,-8.695302162903852,2.296318444018845,3.2442250618453863,11.219908388010625,6.006898017188637,2.565616540313812,-1.9221992330449233,-5.816724287537917,-5.07103137367969,-6.04880097873745,-9.124748987609513,-5.1177362307363685,-6.086686189658299
41,0.9288736870763838,-9.245934928093813,1.7481662580498438,3.332387772499937,11.570943536649422,6.68799585097415,2.672274151449701,-1.6820738289574473,-5.991672043532641,-5.387352053418318,-6.388710168097856,-10.13906556302352,-5.228049076219438,-6.219732077332138
42,0.8401522439408222,-9.887194448921653,1.1181648765658072,3.276156005738914,11.793972001353179,7.2413146062554175,2.7180084302062895,-1.4361594444540111,-6.1608231249386805,-5.685610553317539,-6.713168102141101,-11.14279292898333,-5.386549956447106,-6.34247503276576
43,0.6554553487881846,-10.608243320063536,0.4227410969011488,3.0811188860825474,11.885068268416317,7.654297323423365,2.6954415156892306,-1.1942239031040929,-6.323601026190678,-5.95628337094552,-7.008191186094695,-12.113191399808718,-5.575438695050217,-6.448431899701464
44,0.3861816649896236,-11.397617580001867,-0.3223699017310286,2.754362334029297,11.841898937804666,7.917038320818761,2.5971313187015914,-0.967132478975749,-6.4816536221218195,-6.19251867932699,-7.263386250648762,-13.031005039813028,-5.77811135369138,-6.533964308384218
45,0.043569800835229655,-12.243394109268474,-1.1024667491141367,2.3042925883229377,11.663895966356666,8.02261759256892,2.416086370312332,-0.766362129153325,-6.63859235811312,-6.390098634052519,-7.472160724309436,-13.88078805096322,-5.979687309332093,-6.598221499694701
46,-0.36163347634195,-13.13333882663849,-1.9041413675406238,1.7404774353905794,11.352434996590516,7.967371807082141,2.1463017785158938,-0.6034751334844572,-6.799610158761873,-6.547265704531404,-7.631754266970387,-14.651080619948242,-6.167453054920737,-6.642976692107746
47,-0.8194453628562648,-14.055037214710742,-2.715448779536089,1.0735065769381251,10.91100147095765,7.75108376256059,1.783284831710065,-0.4895781248241968,-6.971004611613255,-6.6644353355489745,-7.7430941685992245,-15.334435211627593,-6.331201856787644,-6.672363519223867
48,-1.3208402819616196,-14.996007965003402,-3.5259820018384866,0.31487139990058816,10.345325854175508,7.377075703062052,1.3245414969251479,-0.43479104946093966,-7.159636732061677,-6.7438225825717595,-7.810482546296463,-15.92729503362876,-6.463449521540889,-6.692517442018086
49,-1.8578484891276168,-15.943801441051406,-4.326850274689233,-0.5231374284067892,9.66346913090568,6.852197343428801,0.7699989784206703,-0.4477480630238324,-7.372357632586696,-6.789012939032021,-7.841129593630204,-16.4297291114404,-6.559511427889275,-6.711128402531659
50,-2.4235518898397928,-16.88608741815181,-5.110565012937296,-1.4275195179253775,8.875840810141037,6.18670532888418,0.12234320202185017,-0.5351496601744633,-7.615436301463677,-6.804508188298601,-7.844553994977688,-16.845033979590752,-6.617434676551105,-6.736915648634211
51,-3.0119794317579993,-17.810739565605562,-5.870846023343041,-2.3846504877651045,7.995134551038886,5.394036368609357,-0.6127469309261693,-0.7013828051845031,-7.8940216396692,-6.795277430480583,-7.831878954314919,-17.17921988103813,-6.637790286137681,-6.779042853435255
52,-3.617915515771344,-18.70592534456542,-6.602368778296345,-3.3803755189598648,7.036171531094785,4.490481209166935,-1.4264837474940626,-0.948223633432883,-8.21167045704504,-6.7663411578138275,-7.815058985227788,-17.44040757793417,-6.623341414464675,-6.846499850217537
53,-4.2366443500007795,-19.56020870050103,-7.300479806372672,-4.4001222806332585,6.015648120953422,3.4947708276412217,-2.3069848375936615,-1.274635578559583,-8.569969417524263,-6.722411627899104,-7.806077102609014,-17.638168162120206,-6.578612307773959,-6.947484374194222
54,-4.863659497960988,-20.36266977471501,-7.960910338067114,-5.429042147931736,4.9517910644633165,2.427589658487004,-3.2394232831425542,-1.6766742738722207,-8.96827255671569,-6.667605819213485,-7.816153640225129,-17.782841611783656,-6.509388022776621,-7.088821153585627
55,-5.494370458764877,-21.103041658764038,-8.579517943535018,-6.452184281039014,3.863929516800711,1.3110333174271958,-4.206314822260776,-2.147508326705118,-9.403567564334425,-6.605239009923329,-7.855006858746938,-17.88487047173778,-6.42217707483028,-7.275455370311361
56,-6.12383705854214,-21.771859569121183,-9.152082115463962,-7.454701828755637,2.7719992429993203,0.16803006764490275,-5.18793688776747,-2.6775609064255397,-9.870474491902085,-6.537698821222437,-7.930202093948221,-17.95418304795533,-6.323668363703563,-7.510052562107972
57,-6.74655794420188,-22.36061347789569,-9.674172785830855,-8.422084101820563,1.6960002733850341,-0.9782538498926067,-6.162868293766047,-3.2547705055513383,-10.361370702130197,-6.466392262711081,-8.046620346516676,-17.99965551002347,-6.2202103705638825,-7.792727840360083
58,-7.356331949158809,-22.86189209436247,-10.141101335922091,-9.34040404496888,0.6554345523098475,-2.105004776994184,-7.108631469271902,-3.864960993657145,-10.866626841478405,-6.3917524386388145,-8.206069024992878,-18.02867441668405,-6.1173357547542695,-8.120915296924277
59,-7.946201791207805,-23.269504807003965,-10.547953363202918,-10.196567431262084,-0.33124697652296553,-3.1903284338698032,-8.002411973966405,-4.492303130063347,-11.37493223644539,-6.3132880605702555,-8.407047918431267,-18.046811794271342,-6.019349460332313,-8.489376152114524
60,-8.508480571562712,-23.578568983185033,-10.88969329138611,-10.978549074479131,-1.2471589937211869,-4.213774906179808,-8.821823948404479,-5.119844046210698,-11.873685833886432,-6.229658990801023,-8.644674012906881,-18.057615923846956,-5.928993815603453,-8.890334173079207
61,-9.034854663067044,-23.785552692883343,-11.161324303992762,-11.67560199022656,-2.0774333201040216,-5.156806628061515,-9.545686472594628,-5.73007860022576,-12.349430089945898,-6.138764689261482,-8.91076093096845,-18.062513747673034,-5.84719969704797,-9.31372073941538
62,-9.51655227912723,-23.888267029886304,-11.358083643658109,-12.278427860888941,-2.8095889669103555,-6.003197736927466,-10.154774794541956,-6.305536352900236,-12.78830784758831,-6.037837661869688,-9.194043055689482,-18.060815713424414,-5.772928783581834,-9.747509561524076
63,-9.944564892756397,-23.885807327485217,-11.475653081585756,-12.77930126375832,-3.433809928086662,-6.7393563960141725,-10.632511483145308,-6.829359400618076,-13.176524502226304,-5.9235386034364765,-9.480530421098273,-18.049810938688417,-5.703109097593136,-10.178121132131436
64,-10.309908510300081,-23.77844853799424,-11.510367041792987,-13.172145631528373,-3.9431273872933654,-7.354563909870315,-10.965565441317068,-7.285849094059103,-13.500799720058204,-5.79205342053411,-9.753977761654685,-18.024939826183243,-5.632665240592017,-10.59087824781719
65,-10.60391361410926,-23.567506721328947,-11.45940585734349,-13.452565410984871,-4.333509311151365,-7.841126216161718,-11.144331733536411,-7.660963610127622,-13.748795554728432,-5.639195426562596,-9.996449711493549,-17.98003267037339,-5.554645633373131,-10.97049613629475
66,-10.818535475678631,-23.2551849559738,-11.320967706861657,-13.61784519853862,-4.603864659513012,-8.194435775700942,-11.16327253022976,-7.94275292266736,-13.909510987735311,-5.460518731682958,-10.188963928066189,-17.90760564969487,-5.46044963643463,-11.301593909050503
67,-10.946678222301927,-22.844425614351376,-11.094417792071722,-13.666930400141824,-4.755971232527485,-8.412945542879658,-11.021108294022723,-8.12172195914542,-13.973635284370477,-5.251449991421235,-10.312193938022856,-17.79920802424041,-5.340155085788718,-11.569217172325784
68,-10.982524497465226,-22.33878931499597,-10.7804150963206,-13.600402999454774,-4.794335815276587,-8.498061014862396,-10.720857165311191,-8.19111553845677,-13.933852609373533,-5.0074440125583894,-10.347212396362044,-17.64581426231613,-5.182940528481641,-11.759362852962187
69,-10.921858123551768,-21.742373757895606,-10.381015176501352,-13.42046042823425,-4.725993793339443,-8.453960265467112,-10.26972836836878,-8.147119662911068,-13.785088307696467,-4.724164191642317,-10.27625248118214,-17.438251631045784,-4.9775877209202575,-11.859495656285157
70,-10.762362217326793,-21.059775612653446,-9.899743571883787,-13.130897730481676,-4.560253926727067,-8.287354592461977,-9.67888198359736,-7.988973819216222,-13.524685378765536,-4.397682627042068,-10.083460730076999,-17.167648852767687,-4.713041315974535,-11.859041530047273
71,-10.503871931922099,-20.296089021935313,-9.3416308216018,-12.737085986040158,-4.308393187783078,-8.007203729413689,-8.963072315875847,-7.718989858635253,-13.152500581182723,-4.024689208740333,-9.755610393474182,-16.825886691997596,-4.378996008718502,-11.749838532417291
72,-10.148560326987589,-19.456927513186162,-8.713198384917233,-12.245935233776052,-3.9833068110211207,-7.624399677298645,-8.140195057957103,-7.342475945333849,-12.670914436539936,-3.602696557050265,-9.282742684410929,-16.406028176707313,-3.966477826786882,-11.52652174334059
73,-9.701037814971247,-18.548453188665878,-8.022385822706049,-11.665828809769359,-3.599120152671868,-7.151432366030035,-7.230759360423973,-6.867568730885916,-12.084757193915237,-3.13022958690676,-8.658705670037087,-15.90270522028692,-3.4683867363491716,-11.186818284366112
74,-9.168349694272358,-17.577397543186937,-7.278413296197891,-11.006517750403459,-3.1707715222272137,-6.6020486113369214,-6.257304653804022,-6.304981797893022,-11.401160910800238,-2.606993200701131,-7.881566362960344,-15.31243966393504,-2.879972564999052,-10.731731522261953
75,-8.559861714664892,-16.551060601237335,-6.491578463464327,-10.27896734693127,-2.713578120567177,-5.990912912490886,-5.24377880989565,-5.66768163726199,-10.62935295753694,-2.0340156741030806,-6.953878544927755,-14.633879573460113,-2.199223593431108,-10.1655988389577
76,-7.887029946692906,-15.477277794383992,-5.672991662043224,-9.49515188715108,-2.2427993849915047,-5.333274419297333,-4.214889990875921,-4.970503074778279,-9.780406391856761,-1.4137660050850065,-5.8827948079407015,-13.867935274730876,-1.4271537154213805,-9.496013423139631
77,-7.163058282960363,-14.364346648496833,-4.83425726474135,-8.667797752711772,-1.7732124349449119,-4.644639785037092,-3.1954409838096467,-4.229714864746716,-8.86695820605143,-0.7502407043029115,-4.6800155574321085,-13.017803834281885,-0.5679775727650881,-8.733606795720178
78,-6.402454281604803,-13.220908284751582,-3.9871126267069266,-7.810079252667296,-1.3187129604586734,-3.9404485745519158,-2.2096534912059553,-3.4625447734888914,-7.902900037457122,-0.04901101488534603,-3.3615711784833255,-12.088875688066697,0.3708360158059154,-7.8916953548037965
79,-5.620501024753085,-12.055782452447659,-3.1430395739850643,-6.935275470306853,-0.891952678490118,-3.2357480401263246,-1.2804914552505742,-2.68667328597669,-6.903040808538559,0.6827821952043631,-1.9474377636218871,-11.088523265059818,1.378641266358654,-6.985801062302709
80,-4.832668767275166,-10.877759530343305,-2.3128670328878944,-6.056399824280413,-0.5040223142578775,-2.5448672899170535,-0.42899658832205884,-1.9197066145349309,-5.882739142167715,1.4364994167344347,-0.4609930425983341,-10.02577908381252,2.4418289492790586,-6.033063264944041
81,-4.05399539213406,-9.695358447680292,-1.5063867792230086,-5.185817265895427,-0.16418740169232895,-1.8810954037981258,0.32634562262035477,-1.1786425227341277,-4.857505385129489,2.202149791946543,1.0716722557163285,-8.910919774642537,3.5441748560328845,-5.051565808957982
82,-3.2984686073966736,-8.516564902266007,-0.7320063950027959,-4.334866863133171,0.12031697302915266,-1.2563719681065229,0.9701869528795253,-0.47934549704368046,-3.842577085343611,2.96861904542214,2.6225627231784507,-7.754981529036578,4.667312327529959,-4.059611121728162
83,-2.5784441402162366,-7.348568161483226,0.003536932550825095,-3.5135090201201087,0.3444274781220942,-0.6810010429405572,1.4908200021043811,0.1639499372660789,-2.8524764167779706,3.723975121167161,4.162672983447206,-6.569239450287156,5.791308914981337,-3.0749791504767123
84,-1.9041320709766494,-6.197516074806476,0.6953817794248481,-2.7300161998541146,0.5053264318830427,-0.16340118505714094,1.8805801302670206,0.739087666045945,-1.900563196095584,4.455841422980268,5.662929978049504,-5.364686529677121,6.8953209499983075,-2.1142114462917454
85,-1.2831787485590247,-5.0683068921638705,1.3406530844537035,-1.9907243191066972,0.6024466775687782,0.29009474337451946,2.1361239407542265,1.2363697796849824,-0.99860271170187,5.151820838588473,7.09514133089447,-4.151547504210488,7.958296280140428,-1.1919584641838024
86,-0.7203662919178505,-3.9644341667502627,1.9384707122939817,-1.2998596857232374,0.6374074774637855,0.6753762161219202,2.25856648189562,1.6488484305571092,-0.15637224727391055,5.799947670197021,8.43290771350484,-2.938859975476427,8.959693449039156,-0.3204228879853576
87,-0.21744668842042694,-2.8878983160089478,2.4898545223952673,-0.6594532989262335,0.6138830018483717,0.9906166550996448,2.2534649220892984,1.9725137909634258,0.6186680205925352,6.389139953712506,9.652458483744201,-1.7341511488848265,9.88018451153162,0.49107423318956384
88,0.22687726008615175,-1.8391953476115892,2.9975292015563717,-0.06935004175342613,0.5374072038805671,1.236253882982533,2.130643231516064,2.206367655108739,1.3216162968227034,6.909622840900344,10.733373489241522,-0.5432337153195513,10.702308771434547,1.2363829696296036
89,0.6168174089059065,-0.817389201059063,3.4656364384788407,0.47268504238343795,0.41512221296736973,1.4148909185088465,1.9038595970847543,2.3523792671725925,1.950265358735341,7.353295983978799,11.659159977873925,0.6298617696273545,11.41104660529016,1.9126524617789025
90,0.9592127146076741,0.17973145787463707,3.8993668433611814,0.9707668817340057,0.2554811977408947,1.5311261619007372,1.5903252507141963,2.4153276695506944,2.50512538248623,7.714024117613863,12.417661971061284,1.7828090625763282,11.994286850952944,2.520285849865263
91,1.2630988519222488,1.15541815969937,4.304529953355563,1.4306061109576387,0.06791965597928637,1.5913268941879222,1.2100900911470638,2.40254221542726,2.989334694233937,7.987838623593873,13.001289950754682,2.9147653699395337,12.443168496265157,3.062720298774061
92,1.5391567392399077,2.1136627871474407,4.687087438258455,1.8591552954157213,-0.13748963726177732,1.6033612352215203,0.7853174207385074,2.323558755840539,3.408467686587315,8.173046448287332,13.407070467620725,4.026023623774518,12.752287029174488,3.5460440233354387
93,1.7990730070583607,3.0588525786490433,5.052680512420851,2.2642055352433603,-0.35038339317278033,1.5763020645106547,0.33947728979424185,2.1897126277336216,3.770254228193528,8.2702494309706,13.636526769738856,5.117567873922197,12.919765749763375,3.9784770287326943
94,2.054853341566135,3.995402860220449,5.406185076885669,2.653956080363119,-0.5604439077502259,1.5201130506341083,-0.10350609598810954,2.0136905156393374,4.084226512750382,8.282280942930702,13.695410687910321,6.190572049030694,12.947200097087705,4.3697537970136535
95,2.3181320003368087,4.927389954124746,5.751325814485294,3.0365789194926514,-0.7577157307971055,1.4453225984616838,-0.5201149517054153,1.8090612927268017,4.3613072187429385,8.214067696363287,13.59331090531874,7.2458863642511355,12.839487270463982,4.730451626429877
96,2.5995179738777594,5.858203123320645,6.090374041326281,3.4197969498759098,-0.9328983688536745,1.3626872765928633,-0.8880706667961271,1.5898015937654604,4.613348559968972,8.072423642557327,13.343163194912393,8.28355338894464,12.604554699650125,5.071307768138035
97,2.9080122002601296,6.7902294679986985,6.423945767617858,3.8104904237761597,-1.077613918706229,1.2828438794789816,-1.1871086338478414,1.3698269523250644,4.852628776508994,7.865781788301198,12.960686111277598,9.302389706526736,12.253001032409331,5.402564165472046
98,3.2505226827705798,7.724581343185802,6.750908386927237,4.214343526573316,-1.1846498459004973,1.21595011784421,-1.399671682182115,1.1625361816415893,5.091313555658382,7.603869824046933,12.463763226231043,10.299661883965648,11.797663918296866,5.733373003433412
99,3.6314964368493716,8.66087319992428,7.068397981871648,4.635541266338339,-1.2481761162567588,1.1713181317250052,-1.5115038087348538,0.9803766064655967,5.340894463506385,7.297336892300378,11.87179151139475,11.270878140487566,11.253130720790354,6.071290304645711
100,4.052679818119244,9.597053647834075,7.371944337672207,5.076525574589577,-1.2639334953009307,1.157051396811951,-1.5121288273509221,0.8344401150181818,5.611622704890594,6.957341546497464,11.205015222987457,12.209709347331142,10.63521095084097,6.4218779501588
101,4.51301230189985,10.529297847816752,7.655696304718201,5.537817883513959,-1.2293872998560857,1.179701930247137,-1.3952003384475489,0.734102626329321,5.911962797101077,6.59511492439418,10.48386518318548,13.108044355445355,9.960391063348828,6.788426402438097
102,5.0086525342480845,11.451963809729802,7.91273504675998,6.017913034483794,-1.1438391260478011,1.2439685137336876,-1.15871182952891,0.6867203114821211,6.248095629410766,6.221517610455369,9.728323457524082,13.956175108923983,9.245291626136316,7.171801545117595
103,5.5331287054695,12.357613713064989,8.135456737194813,6.513246378179112,-1.008488460483068,1.3524568153398924,-0.8050596507942588,0.6973939249268486,6.623501926135153,5.846612019483357,8.957332164340016,14.743097165857872,8.506143887340953,7.570410418633541
104,6.0775985039977245,13.237099304804639,8.316000284125579,7.018233356652066,-0.8264363809578166,1.505519723070997,-0.3409567850725739,0.7688084399450157,7.038653692674434,5.479273085380543,8.188262861333298,15.456902578540536,7.758299588749993,7.980273496822346
105,6.631198828387399,14.079710131794872,8.44669137186784,7.525379865703875,-0.6026242389197025,1.7011923228135695,0.22279893338500123,0.9011502956102416,7.490833120327256,5.126858293666257,7.4364608245040245,16.085236625208925,7.015786765035727,8.39518707549306
106,7.181463716905039,14.873384890794023,8.52047339962713,8.0254624932494,-0.34370122166300415,1.9352310201349994,0.8716929591722434,1.092100844379102,7.974088394377917,4.794954554907357,6.714877518489575,16.615789270231996,6.290925740196242,8.806959608128022
107,7.714790786351075,15.604988239247396,8.531299584465081,8.507779403396349,-0.05781674876091932,2.2012598329659734,1.587984878918193,1.3369034865624438,8.47932758743039,4.4872157824717895,6.0338046118507815,17.03679641534092,5.594022150098592,9.205710142654782
108,8.216940323146053,16.260656355964514,8.474467291262387,8.960473778789494,0.24566244754589472,2.4910191853090966,2.3513054049201574,1.6285034585994562,8.994547675173772,4.2053024471124365,5.400722782534945,17.337532646919428,4.933155194234912,9.580222838378193
109,8.673554777639293,16.8262131535677,8.346882903394821,9.370930794084856,0.5565049516499418,2.7947052198542512,3.1393413817718616,1.957761760605749,9.505195369596803,3.9489319517244934,4.820276347702935,17.50878268666753,4.31407728562844,9.918355344009523
110,9.07068802405642,17.287654697386593,8.147251124742422,9.72624468953148,0.8640244591697728,3.1013824595129216,3.928589741690004,2.31374616374733,9.994657350190689,3.7160438794532142,4.294378795881003,17.543280586947038,3.7402348695661574,10.207498576413117
111,9.395332784962434,17.631692176136145,7.876186028288216,10.01374457686288,1.1575271671817406,3.3994500302385218,4.69516031559517,2.6841008957158117,10.44487623686445,3.5030751829414086,3.8224444482261473,17.43610396530129,3.212910118646574,10.435081760813935
112,9.635931744731076,17.846334866759584,7.536243291346969,10.221558266586236,1.4267715863245363,3.6771407397485483,5.415605506579202,3.0554918013147394,10.837082899499999,3.305328175159807,3.401729804762781,17.18500748073948,2.731471556694476,10.589111351542703
113,9.782854512522468,17.921486030880224,7.131875044605868,10.339185803211699,1.662412877740082,3.9230320349841827,6.067751815673094,3.414116497505207,11.152625345605761,3.1174023445168393,3.0277581411510477,16.79067803008681,2.293711120575423,10.65872694178878
114,9.828820151705884,17.849518619286645,6.669311197424354,10.358050490878949,1.856404561434505,4.126547754622584,6.631504801783872,3.74626149025597,11.373861869454075,2.9336535239230264,2.694795466354676,16.25689542310424,1.8962381398324826,10.634752112731427
115,9.769244430764868,17.62579510267647,6.156373786653371,10.27199501864021,2.0023343306535613,4.27842969501436,7.0895964476389395,4.038882248681242,11.485074906471867,2.7486429350569215,2.3963457432808677,15.590586439096251,1.5348984278210065,10.510214194734601
116,9.602492578969784,17.24909659043678,5.602233287025636,10.077692767949188,2.095676948007139,4.371158538524265,7.42824282029078,4.280178269574236,11.473354654599213,2.557543526104313,2.1256368408143542,14.801765651542615,1.2051886875462567,10.28080483118066
117,9.330021651952865,16.72192984833538,5.017117519111476,9.774948270422957,2.1339544539260515,4.399304744054186,7.637680394294965,4.460132760927425,11.329398671202782,2.3564790918075342,1.8760734210191963,13.903361554467157,0.9026408284941485,9.9452528143911
118,8.956400921486487,16.050686218174885,4.411984816849628,9.366865545844274,2.116800507382417,4.359791692332011,7.712551513868913,4.570985683774676,11.048175203365084,2.142779949023125,1.6416369699517188,12.910930790398025,0.6231555320536936,9.505581588661792
119,8.489204060101688,15.245633935930679,3.798173944308078,8.859869201503223,2.0459307426531224,4.252056268655846,7.652113996055566,4.607610353662306,10.629404039120429,1.9151462001672612,1.4172165213240888,11.84226749957259,0.3632690483940094,8.967227077404116
120,7.938773775860962,14.320735455719602,3.1870442954452134,8.263571375212113,1.9250249547659892,4.078096698216809,7.460257718300406,4.567768429808839,10.077818731905207,1.6737161114910986,1.1988573196329064,10.716919930718577,0.12034267938293643,8.338998435718779
121,7.317867540062282,13.293293505971493,2.589620863434462,7.590487470234519,1.759530169310003,3.8424033978907515,7.145321804541225,4.452225530977352,9.403186412074145,1.420042891322726,0.9839189407257262,9.555632127812611,-0.10732925414641162,7.632874579029744
122,6.641200699550841,12.183441520366486,2.016258523533644,6.8556137216168676,1.5563959659006454,3.5517747027724034,6.7197179457798,4.264718464430949,8.620074143436263,1.1569876538273298,0.7711389081234864,8.379733358628958,-0.3204915122597828,6.863640817308152
123,5.924909332227303,11.013503537087297,1.476338935498975,6.075888273626444,1.3237547657366722,3.2150248985708503,6.19937670750093,4.011773893367639,7.747363386698625,0.8885396208149724,0.5606028607997268,7.2105009478167785,-0.5189747349679645,6.048380581605317
124,5.185959229815093,9.807254849135942,0.978011125852324,5.269563391541638,1.0705608386028869,2.8425972063371834,5.603043488346292,3.7023868373537905,6.8075272305000185,0.6195772226515994,0.3536280149349502,6.068523150246013,-0.7018084980551873,5.205845857112956
125,4.441529170235538,8.58911788626933,0.5279840041456365,4.455519262372837,0.8062028757678246,2.4460993161401086,4.951458521616644,3.3475755826935067,5.825698922501604,0.3555857849437861,0.1525719338585777,4.973087833087059,-0.8673888599557713,4.3557358843155995
126,3.708396029856787,7.383328505764903,0.13137598340144868,3.652550185364091,0.5401056333064312,2.0377833216909798,4.26646038892434,2.959836804585561,4.828574137109306,0.10234847649582363,-0.039417986228338815,3.9416203329665773,-1.0136856126725475,3.5179170529365846
127,3.002346907448657,6.213107101715846,-0.20837606251577326,2.8786533330688564,0.2813363263338932,1.629995180948661,3.570055117306771,2.552530368850923,3.8432023447129895,-0.13437289245384101,-0.21869732327462996,2.989190618961095,-1.1384730357974442,2.7116190874988986
