,AF3,F7,F3,FC5,T7,P7,O1,O2,P8,T8,FC6,F4,F8,AF4
0,0.4945212525677919,0.03759689729114188,0.31055094363068003,0.36244443614852717,0.2494428817303199,-0.1594869643294897,0.33656791122935664,-0.0007104749596865378,0.2162735983435254,0.49863649255864273,0.4402273821721477,0.4731934131844089,0.6354526629999062,0.976125888949075
1,0.7885537628511056,0.45741796152205344,1.4296401941478674,0.7298483585035289,-0.3077404251655537,0.270662388648267,0.6885654838603311,0.1302769095645341,-0.24673527007033025,0.4844712760353537,0.7724689489864409,1.605066943579291,1.0135919457253806,2.689216196269963
2,1.0646838875716982,0.8336738490981842,2.4531019085736756,1.038302990026076,-0.8504975174623869,0.6810548201315813,1.0144308460980533,0.24712585517610192,-0.666580029351104,0.4767528491406729,1.076029576788067,2.637822381199126,1.3864533761755136,4.222791103843222
3,1.2955853299005926,1.1352555322639557,3.279609359406276,1.2514089516489273,-1.3434721382338735,1.0397264844888883,1.2942091808033385,0.33807788631797125,-1.0123598949077615,0.4725317252341413,1.3242652144099172,3.477801815475721,1.7470215974836998,5.412001835839114
4,1.4538314525653504,1.3391796348592657,3.8237674316458716,1.3431235189193194,-1.7521008157543454,1.3179898274824295,1.5086046932489,0.3941666889738972,-1.2616699499786412,0.46446429971929265,1.489856269911893,4.045431950013964,2.0789323490419815,6.121145708479725
5,1.5149962681267608,1.432790247317269,4.025293165903732,1.3013461934191763,-2.0447208401851245,1.4929752819009015,1.6402575945630966,0.41024180823785694,-1.4026134365473981,0.4407126334709177,1.546380431870248,4.282477370299239,2.3556857614211455,6.257966178596999
6,1.4608316070406973,1.414670429902981,3.855865020652637,1.1297609186488817,-2.195084027999176,1.5499793422490835,1.6754148987490485,0.38553773056905616,-1.434540316568498,0.38596663554072314,1.470932299291463,4.157591168508453,2.5423280758847113,5.783806610505143
7,1.2821316247666465,1.2941839629844154,3.322835401770886,0.8476389033887453,-2.185086062397813,1.4843259056830298,1.6057850609290851,0.32372065617389134,-1.367430495523005,0.28357512515267824,1.247555896536366,3.6696450484424274,2.599546761575752,4.718564459774461
8,0.9808998437452826,1.0897598859093887,2.469326881191637,0.48758099430787155,-2.007394078049213,1.3024286687683095,1.430249951447292,0.2324131153648984,-1.2200228458126232,0.11853719302861343,0.8709798102568915,2.8485063886719373,2.489671840002959,3.1399206062302656
9,0.5714783617081912,0.8261953303694808,1.3706164193987163,0.09145946370559813,-1.667572116048027,1.0217837544248105,1.1560556941087639,0.12226290752430949,-1.0169618357771266,-0.11909430840082556,0.34995560795791025,1.7531512422273623,2.1836947033418523,1.176897841106967
10,0.08038483817647223,0.5313662021047629,0.12711145155495418,-0.2949317198320139,-1.18528497551812,0.669726485232051,0.7991357170281396,0.005678814942947022,-0.7853654286829083,-0.4309724238272938,-0.2905568796727567,0.4672393116120548,1.6681703217332606,-1.001628155668103
11,-0.45527119732702487,0.23279289097090428,-1.1454059704723898,-0.6278235853206077,-0.5942131984185443,0.28094407723540554,0.38333755360294935,-0.10460576535856578,-0.5512894451311213,-0.8079845627376289,-1.0090219991105356,-0.9074946803999061,0.950802378150219,-3.2023444954586973
12,-0.9907626083323721,-0.045491328303630896,-2.327284954034712,-0.8712235522093773,0.059567179773187935,-0.10607607910578074,-0.06148950871740018,-0.19696352949053525,-0.3365645899390828,-1.2290815553133183,-1.7492127588952877,-2.259483608892649,0.06363829098211639,-5.225347830469974
13,-1.4779016563679601,-0.2853760094560937,-3.3070725061913033,-1.0016839453451267,0.7208076351469255,-0.45329755594314075,-0.502374360790138,-0.2621280861039524,-0.1564158430844127,-1.661770630895851,-2.444446712965892,-3.4765126076875967,-0.9368929963897137,-6.882707393808554
14,-1.8699944173542864,-0.4761231739945392,-3.99286725744182,-1.0114104761719,1.3297632762691354,-0.7275732135961411,-0.9067032353461463,-0.2941323999952601,-0.01815328685843204,-2.064397873070153,-3.023886423685595,-4.455075431167274,-1.9734265774273085,-8.015980482875149
15,-2.1270548896091723,-0.6146798022398298,-4.321734538106761,-0.9092397561795091,1.8279457384615116,-0.9046799678155603,-1.2457921279153008,-0.29083672850420655,0.07893185020956796,-2.3900763235344957,-3.420246191800586,-5.109120559679801,-2.9544057455823807,-8.511036193222088
16,-2.220641898978975,-0.7048598956593138,-4.266137891494475,-0.7192936001777135,2.1643747598157783,-0.9723689554723525,-1.4979968422283316,-0.2540072851858684,0.14250004039841654,-2.5918590703427844,-3.5779556193743156,-5.377457767808697,-3.783436293277124,-8.3088158440776
17,-2.137661824637264,-0.7555593559909334,-3.83664201217145,-0.47743480976062114,2.3016076107376997,-0.9319532429481266,-1.650856992593179,-0.18896320896325472,0.18511781438959724,-2.628553331702765,-3.460673760079117,-5.229206512111373,-4.370142887070928,-7.411055586180694
18,-1.882555228090779,-0.7783019886913283,-3.080535871198281,-0.22596300288058868,2.220769545012934,-0.7981420459972163,-1.7019195801566618,-0.10385887103058962,0.22155563819303153,-2.4704504346033254,-3.0570585128781627,-4.66682509975404,-4.641148668011864,-5.880477466843009
19,-1.477455728526157,-0.7845102106870045,-2.0764744152259027,-0.007256085638674627,1.9248562589755354,-0.5970761795070059,-1.6581094677267356,-0.00870444822792313,0.26583592757700647,-2.1042203675608744,-2.3838796388533954,-3.7264485772646165,-4.549719203556934,-3.8354695894075643
20,-0.9601579002427719,-0.7829356095840092,-0.9256939238720268,0.1427571296287855,1.4397345158045598,-0.36278655386228986,-1.5337660841470175,0.08575319926281323,0.3284680056874597,-1.536287328457491,-1.4858945800947594,-2.4754670711939157,-4.082736326281401,-1.4397730932865813
21,-0.38002691369393826,-0.7776656345412111,0.2592335723168401,0.2003451008342181,0.812517704847444,-0.13254116613677805,-1.3476993161354551,0.1691639773189098,0.41427984017790753,-0.7941550267643052,-0.4323339992910221,-1.0074825041511262,-3.263981489822972,1.1118682069508041
22,0.2077136718706245,-0.7670453004216976,1.3668284933232349,0.15806435576346364,0.10731146203951995,0.058276663937389866,-1.119789720236427,0.23260660645118558,0.5211756853824794,0.0746272005232397,0.6896947336423574,0.5650165600657966,-2.153171377577099,3.6107912546100907
23,0.7486130672360229,-0.7437262811019719,2.2988637709097226,0.026514102105673946,-0.6013299146478389,0.1810368326549447,-0.8677391854200885,0.26942378777948117,0.6400233334932027,1.0058951808758538,1.7841490858112596,2.1197298894177705,-0.8407375458442601,5.852691269287338
24,1.1956561765647244,-0.6958947842485457,2.9808031593924027,-0.16661700032975899,-1.2365694067010484,0.21778916386678976,-0.604554477561191,0.2757931051445421,0.7557194201138235,1.924444572590142,2.756264641804965,3.534665031019259,0.5611005970468191,7.655451629930973
25,1.5150064951208915,-0.6095526632178887,3.3692395258269814,-0.3802069147819919,-1.7281487936080815,0.1636998147850476,-0.3372210645421547,0.25099819489442676,0.849315295871418,2.751220679316272,3.522770704305981,4.698457896862869,1.929932021604646,8.87492156826446
26,1.6899547190213886,-0.47155504806141424,3.4553951724958476,-0.5656583548271226,-2.0208671749020373,0.027669952947777965,-0.06681784926296307,0.1973965017204565,0.9009294341398747,3.411367358931673,4.020814109447672,5.519969844736558,3.1460283915391427,9.417210193084507
27,1.7224211029614225,-0.27296531276211994,3.264220844916297,-0.6743986211094681,-2.081584648260651,-0.16892790238261202,0.20993241920594416,0.12010877027791013,0.8930445934631072,3.842229606916376,4.214454180972168,5.936235205611464,4.104932887345661,9.246364427340419
28,1.6317060760795608,-0.012195927564075752,2.8491921208606574,-0.6658902263364818,-1.9037948683780153,-0.3951977139267519,0.4979467564676535,0.02647876235425698,0.8137080794550522,4.0003590746257185,4.097913739884404,5.917931972830038,4.728234636531302,8.386710940007983
29,1.4506083195396493,0.302620269141833,2.2834856125914946,-0.5149827029253006,-1.5090815874341053,-0.6149269018806568,0.8003995915609942,-0.0746328381598434,0.6591381712203094,3.866647560841564,3.695212450411793,5.471756388556958,4.971241332229839,6.91964483466442
30,1.219465438937108,0.6525275006171743,1.6487417636456634,-0.21745684118784891,-0.9451487522036676,-0.7914634187833228,1.1153312434002272,-0.1736497793558538,0.43529812627967035,3.4489098565040854,3.0563026143195997,4.639388789106013,4.826679590676353,4.975197496176483
31,0.9790438868055055,1.0082735055201932,1.0230033468374422,0.20719871410499768,-0.2805448519137818,-0.8925919331650247,1.432957324899992,-0.2611078413849934,0.15812819996809835,2.781533890358105,2.250299172055828,3.493110661076562,4.324084270143966,2.719251924875629
32,0.7634422502797679,1.3326148003829847,0.46959045442442016,0.7163959520703405,0.40336471787234685,-0.8947498439310704,1.7343235289017358,-0.3284473858231206,-0.14768965370216572,1.9221760666338292,1.35677540435797,2.128522151825367,3.5251030003328463,0.33772898495236087
33,0.594224212821174,1.5842911629729577,0.02859069326720972,1.2485993628893637,1.0222454742430425,-0.7860292913469314,1.9917673490190804,-0.3687205160791081,-0.4513456897158417,0.9458537962993916,0.4563287249255314,0.6551586595583965,2.51545406347529,-1.9806193203895088
34,0.47684184025067644,1.7232845011887574,-0.2877009199371389,1.7306633264662008,1.4992596487335592,-0.5675949364793141,2.1713682767513123,-0.3771733702179412,-0.7195934671614219,-0.0628787578065751,-0.37832467057022806,-0.8139390155808534,1.394661495517124,-4.061046986294196
35,0.4000592728273628,1.7167265804778917,-0.4946303131381977,2.0874987849792253,1.774826088978533,-0.2533801677817558,2.2372287953818657,-0.35167269270310747,-0.921037968307907,-1.0187405725404401,-1.0895950968193855,-2.1725254955733915,0.2649047407898463,-5.7575953608310355
36,0.3385905751709454,1.5446361867470417,-0.6302828274060946,2.2528099612827726,1.8143999562912863,0.13182765910392402,2.1570813824692086,-0.29295216050676337,-1.0304264297542516,-1.8444676676658538,-1.6397597390320815,-3.330183729182057,-0.7796546273914502,-6.964400152694966
37,0.2586021883418875,1.2045853721593482,-0.7465601982665817,2.179400985758258,1.6132179699850158,0.5555727618852403,1.9084192761302547,-0.20465902431643865,-1.0323223084234188,-2.47846247474251,-2.0127541173651147,-4.219144408453104,-1.6618591627660402,-7.622530467436438
38,0.1251971923831114,0.7144428273964928,-0.8976505943310693,1.8475193224687876,1.1973209602148085,0.9816678892955797,1.4841570430243556,-0.09318663559740256,-0.9236173302905638,-2.880484074224939,-2.213024380456882,-4.798268244446951,-2.327942359556192,-7.721896635752872
39,-0.08940441087274398,0.11253561741433858,-1.1277930868097967,1.2698965199769976,0.620632914578566,1.3742651855656227,0.8967868310495423,0.032715097782585696,-0.7145010092742166,-3.0347916547755087,-2.261881057318834,-5.053964146277167,-2.7507956008384054,-7.298332372925297
40,-0.39846536908002933,-0.545096442551014,-1.4604298582724555,0.4925530093014562,-0.04161416510502287,1.7014496795619465,0.18013208559106342,0.1625490830982974,-0.4277297131151141,-2.9504950622704564,-2.1921272567326247,-4.998219754522914,-2.930019293184884,-6.426489197404879
41,-0.7955205903184273,-1.1902468602360254,-1.8906864575237279,-0.4089972344173413,-0.7023332410285932,1.9378607884802732,-0.6118936154967947,0.2848817440140082,-0.0962744133751463,-2.6592156801375846,-2.041913252970154,-4.6642656403110925,-2.8890548157851796,-5.209607738748852
42,-1.2524488405367564,-1.7503242026589696,-2.382634565146292,-1.3378541117924734,-1.2737376443606412,2.06605687846245,-1.4096779045533918,0.38831345988849175,0.24036297430752274,-2.210465904903664,-1.8487750090322703,-4.1006332872694715,-2.6699997999897978,-3.7675002361151906
43,-1.7213999661606623,-2.157406970150776,-2.8720474993576475,-2.187223930700983,-1.6787687407898535,2.0766007718621236,-2.1351050651153702,0.4625395674889355,0.5407163705361339,-1.6653784791710426,-1.6446624342491105,-3.3644782436874774,-2.32689615600261,-2.224166046702536
44,-2.140510995287601,-2.3573436441768663,-3.274477354975963,-2.8538423334468073,-1.8612960353626828,1.9671048671844522,-2.710728693164715,0.49940627253107506,0.7662610767284656,-1.0895420209915665,-1.4525004126406507,-2.5150286328148637,-1.9183457058738191,-0.6963718052507869
45,-2.4426867816740625,-2.317585008526495,-3.497608978418753,-3.2515403002803436,-1.7937229766989586,1.740674502700688,-3.0697210482801083,0.49384739478692435,0.8860800970084167,-0.5457317947992544,-1.2845179483712772,-1.6079096280504055,-1.5002750340022728,0.7157102762223256
46,-2.5661553208728494,-2.032551791836581,-3.4561216527413383,-3.3230834760928687,-1.48095496484234,1.4042818953180172,-3.165199879375924,0.44458354059137056,0.8807406165392188,-0.08728136482724358,-1.1422940498759655,-0.6909163482439802,-1.1195721434183386,1.935054204784828
47,-2.465133733699288,-1.525646128017132,-3.086827717637878,-3.048598666136518,-0.9601561465760308,0.967572257722317,-2.977544095051855,0.35447871060296904,0.7449181250183204,0.2472637422383084,-1.0182484410111476,0.19841443173225284,-0.809179749281578,2.911165527135506
48,-2.1188294761152116,-0.8474678130700575,-2.3617273660950424,-2.4493276413077734,-0.29627329191896085,0.4424594929070849,-2.5185285493772698,0.23048063636436275,0.4884494061377634,0.4377225858271743,-0.8981697143682384,1.0333299560070204,-0.5850684444657316,3.620340011948197
49,-1.5371834144543706,-0.07033134853023752,-1.2968419519853407,-1.5860626196900338,0.4261352292189378,-0.1563570922498561,-1.8315066854833555,0.08311663259552615,0.13567786142858,0.48378423760819295,-0.7643232976848784,1.7966305611087092,-0.4453354170170161,4.063181860779724
50,-0.7622202302898367,0.7202787174119475,0.044760943554754754,-0.5523410369552412,1.1137312535794885,-0.8100867135741359,-0.9873982331402815,-0.07442964716328936,-0.2768503512965525,0.40434037298056913,-0.598704873241617,2.4780550185545844,-0.37148845562729066,4.260021593730538
51,0.1354583555794371,1.436209908587597,1.5565317910452483,0.5367889822070018,1.6764876094304253,-1.4941308778377884,-0.07682952764521048,-0.2275803493536678,-0.7040962529341361,0.23473967768881307,-0.3860799921186484,3.0708326960298256,-0.33178763578701725,4.245013374682797
52,1.064727127767185,1.9976827174260552,3.098429689458851,1.5589848421407322,2.0394499246992615,-2.1765159961665086,0.8006570071435706,-0.36183542871445384,-1.097242380958029,0.022243752657948923,-0.11654894133461738,3.56806078067816,-0.2863312241659481,4.059721108523668
53,1.925475836983306,2.3433456402694026,4.512234473070036,2.3999197564676047,2.1526087633849875,-2.817107042441434,1.5489474739250282,-0.46429016194821526,-1.4088912315784123,-0.17986713214818165,0.21253144224145382,3.959588954152129,-0.19338873751523192,3.746946934696294
54,2.6219699591345065,2.437942079629804,5.640276167337233,2.9676247552791812,1.9975630754505638,-3.3681832028712924,2.087601255622792,-0.5250188599192659,-1.5981659497292031,-0.31894829998778057,0.5953703814265452,4.230028380481883,-0.016310507828990604,3.345444614687466
55,3.0760261612869684,2.276519084095485,6.345137174691087,3.2039190307057037,1.5900803748586259,-3.7767827960006137,2.362294830108723,-0.5381553984413533,-1.6351431342540157,-0.349717501030486,1.017373263453395,4.358348860156733,0.2697969908712434,2.886014641694841
56,3.237970520213866,1.8845989906238672,6.527679361508033,3.0913819105442313,0.9782072371446019,-3.988947271288281,2.351961341057469,-0.5025361182212436,-1.5041375324839972,-0.24033274405670027,1.4556188958546594,4.319299832081423,0.6725101610653389,2.3893068760050276
57,3.0936542412265973,1.3143092184805887,6.140913111137042,2.6549364319685225,0.23617797607672616,-3.955647505558144,2.0715475023725096,-0.4218257800364668,-1.2055130912626768,0.022859321706042306,1.8801958727879424,4.086611625650755,1.1784842081236397,1.8654657168545554
58,2.666393113864584,0.6370359621806225,5.1977393606631255,1.957861664987931,-0.5450739896369923,-3.6398102988241456,1.5699112977555325,-0.3041139202410753,-0.7558854731729777,0.4324680608096213,2.2563653712985405,3.637638436248336,1.752486353311435,1.315553212182014
59,2.0134810283522637,-0.06634660736400763,3.7713927389514854,1.0928224580606367,-1.2695534180328143,-3.0235408507272363,0.9230820247653962,-0.16103638805274734,-0.18677406688703682,0.9594788060906578,2.5474529987479704,2.9588370310412393,2.339467752993269,0.7344949757999734
60,1.217781908309279,-0.7162840273791946,1.9883883791004715,0.16919283690125322,-1.8484644315537022,-2.1144225675796426,0.22379453192023913,-0.006534291793598538,0.45807164327950406,1.5551041067031592,2.718291705581591,2.0512786422848857,2.8697086389266424,0.11513112581757202
61,0.37569085296427157,-1.2448584676358498,0.01479246976828057,-0.7015445557580037,-2.2114951434397994,-0.9497229898808491,-0.43122012272058863,0.1445984773434647,1.1263259093844311,2.1549754324168546,2.73895206834095,0.9353006315685819,3.266658187328277,-0.5471682884955121
62,-0.4166587170065132,-1.6041652106090392,-1.9624488846692967,-1.4202891649513043,-2.3156577298275223,0.40252539968574963,-0.9543552624993026,0.27821189429497256,1.7613160060449187,2.6853442023089005,2.5884219537762028,-0.34656206552443897,3.4566816765451387,-1.2499430530686253
63,-1.0767834993910237,-1.771587270563696,-3.7567127875122863,-1.9127105764648757,-2.1505398746195823,1.8462694487984244,-1.2787654216857292,0.38217973628887997,2.3064337465400406,3.0707528380798172,2.25785145511184,-1.7290682541457292,3.3795787197887783,-1.9797910800169256
64,-1.5467514151756117,-1.751266995372324,-5.202692350757583,-2.1378692782499753,-1.7392987000201847,3.264216769935888,-1.3668646149203059,0.4475264378587443,2.709413956168367,3.242478626802026,1.7529727477530244,-3.1266217938599485,2.9985057727558257,-2.7098591373388228
65,-1.799933684035604,-1.5716408837779379,-6.174495589050978,-2.091970625500633,-1.1352937299266237,4.528286252333163,-1.2145315609860878,0.4692009749883942,2.9262820462372763,3.146953758083923,1.0953448837418325,-4.438573855099575,2.3078750347602535,-3.3992237513821966
66,-1.8426395581617512,-1.2794947908523513,-6.598601247925277,-1.8068670884608575,-0.41483542400345735,5.512771462088703,-0.8505377983559838,0.44644036915855384,2.9248831008921603,2.7533250393438227,0.32216252827332115,-5.557176258396414,1.3379420083207159,-3.9945439631071893
67,-1.710511219548656,-0.9315211449321987,-6.460159126037738,-1.3436799896624636,0.33295878733946127,6.108754553040368,-0.33144049970013156,0.38270918395397757,2.6879579830458646,2.0593344327022365,-0.5155018158738952,-6.377499326304667,0.15513586300737395,-4.434118851836299
68,-1.4604113854250218,-0.584735382421959,-5.802047570473965,-0.7825997078441462,1.017828400339549,6.237965863801335,0.26715387107670086,0.28524257472643183,2.2156968055110324,1.0947749353172889,-1.3559982164131914,-6.808302401375818,-1.142303575614929,-4.654166967034753
69,-1.1592572032649209,-0.2872734216711549,-4.71707883115685,-0.2104447619499575,1.5599870221227943,5.864171347704813,0.861547935783396,0.16425526613134322,1.5275824227037849,-0.07809244881041043,-2.1317619607297513,-6.782634625012659,-2.4332040128564407,-4.596798434236703
70,-0.8717224768818737,-0.07101551211613932,-3.3346353959555137,0.29215837557944563,1.9001457218758289,5.000329302661115,1.3714617957027408,0.031904104612157126,0.6631822962901042,-1.3675774559941811,-2.7750163179267764,-6.266883703311169,-3.58604039557133,-4.218824907658053
71,-0.648874531705154,0.05282427304052056,-1.8037055982101449,0.6621086598324901,2.006626424588524,3.710199041746453,1.7304239712892555,-0.09889365745292213,-0.3185714629404629,-2.659196244063866,-3.2240761784004652,-5.267094605853073,-4.473839435400825,-3.5003038491778495
72,-0.5196185042642487,0.0944855887062691,-0.2746770790089279,0.8620781999110929,1.8786592859126352,2.103770525497365,1.893640361011477,-0.2156792712609049,-1.3420822195625028,-3.8256851964533776,-3.429725245565707,-3.8316401553163404,-4.989629384290779,-2.4515911592773585
73,-0.4863321423954646,0.08274426612823921,1.1177008963397708,0.8845679345997387,1.5454884015229364,0.32672697885667773,1.842403392224642,-0.3076038809016335,-2.3200840095758295,-4.739741557097237,-3.3610814621860166,-2.049712764270263,-5.060477390202304,-1.1177121941986434
74,-0.5253734370570158,0.05878492339111474,2.268055574012046,0.7513050322092288,1.0614850685309314,-1.4549783089576052,1.5846844134018399,-0.3664156217706763,-3.160925357400723,-5.288375806965462,-3.0103387959305468,-0.04557411580847807,-4.658233905410625,0.4209336047018229
75,-0.5923439303686078,0.06785632029485399,3.1092608348997284,0.5082078916740116,0.498006560423007,-3.0736001263451644,1.1521418893388986,-0.3871987819531678,-3.7776940024851307,-5.387338995410987,-2.39578423162896,2.031013218625474,-3.805432140456373,2.052154163454761
76,-0.6312139931304199,0.15005326481380024,3.615627150664753,0.21678919454110585,-0.06683164151028559,-4.378801762577223,0.5942790705636861,-0.368800000678951,-4.098266671178308,-4.993802724272394,-1.5625487510830645,4.017306399587849,-2.5753353876322453,3.6399565972328016
77,-0.5857775702946842,0.33172643892104126,3.8004375307992353,-0.05662510785566869,-0.5590363374266974,-5.255077018208428,-0.029171994991440995,-0.31390074757912395,-4.07498657967859,-4.115409431783206,-0.5806762605836256,5.751850958255721,-1.0858230552266968,5.036500547234028
78,-0.4114990336360453,0.6189586526025914,3.7086535353128065,-0.2521816165780004,-0.9187671911529295,-5.635088219117625,-0.6564123165737117,-0.22872469494869482,-3.6924830423817765,-2.8140345479254165,0.459699851812246,7.089097903585582,0.512426290920693,6.09698522270148
79,-0.08571203129733539,0.9942618381932355,3.4062554684738506,-0.3265558193466406,-1.1081511179990935,-5.507141564087381,-1.231097988595807,-0.12240146960043773,-2.9722259861818254,-1.2031229378243793,1.4559898884403262,7.912931335188338,2.0522524597115126,6.695937061366348
80,0.3856415360768949,1.4171739739394082,2.968068123998767,-0.2602428238121118,-1.115836943468604,-4.915794964013401,-1.7082451571008028,-0.006041871010981106,-1.9727712227041025,0.5617585893049694,2.303139540771434,8.147777043513575,3.369000719914694,6.7430089131512485
81,0.9660084000493265,1.8288330017305394,2.466003096424512,-0.06096996568232566,-0.9577106954323398,-3.955495806649073,-2.057869328109595,0.10838957772617142,-0.7852501768183224,2.298565096631801,2.905122937437278,7.766193818766926,4.319918674970478,6.196258915945396
82,1.5914697893308587,2.1599680733219726,1.9594190659774513,0.23729290049868332,-0.6737308243759452,-2.7580502260701665,-2.2661019596996588,0.20929439967070954,0.4756178964033718,3.8190540947692635,3.1867030552477136,6.792175272846397,4.801541687657006,5.070992614082343
83,2.178885835329936,2.3411831044835565,1.4888179076073984,0.5795831729931221,-0.3213806592531115,-1.4755168799823362,-2.3339215677054392,0.28662687773692597,1.6840003428806296,4.951313047971521,3.10396318387411,5.299783264191498,4.762791334948312,3.4426414412573254
84,2.6377706033148027,2.314011198776862,1.0734581269692658,0.8986679973356593,0.0333010350297739,-0.26070492668805084,-2.2739777275475115,0.3329200373325118,2.717352556785033,5.561616021335209,2.652048225501847,3.407166008286154,4.2119680050376935,1.4427926911096685
85,2.8840977288558016,2.0410592055715937,0.7127997683598252,1.1259246203578956,0.32582266417687344,0.7522272124819616,-2.1062296247382517,0.3440365803192523,3.4708606665955983,5.572582789347951,1.8687425000013047,1.2664531079775052,3.216548327277325,-0.7516824210919915
86,2.8538971667181627,1.5136654312564117,0.3911102761881047,1.2027320121990233,0.5030369402809436,1.4645647316905834,-1.8532395725286237,0.3195598030805301,3.8700044510291742,4.974970032831761,0.8329592236860317,-0.9495690149846516,1.8956192675271502,-2.9355348696114496
87,2.5145117905822367,0.7558410570253802,0.08414344566398088,1.0906397895050166,0.5312412028668163,1.8250147629759663,-1.535950467390199,0.26278110329442556,3.8795691981260325,3.8312087230702394,-0.34212314023994106,-3.0627531004855455,0.405772102621928,-4.896327982409568
88,1.8717294038932761,-0.17620165169284419,-0.23340135912057708,0.7787487013620392,0.40142795705213075,1.835253461377297,-1.1706455758054581,0.18028792926336623,3.5079164657507422,2.269897994026989,-1.5207722977775082,-4.905375016885215,-1.077807386614932,-6.437462357043299
89,0.9716222201083146,-1.1990001522655347,-0.5809211434024899,0.28713366067856755,0.13093031681877146,1.5482447259784446,-0.7675613950590581,0.08120212717459144,2.805952117210005,0.4717007315600097,-2.5600095116737362,-6.33484008186061,-2.382631351749707,-7.400205954239705
90,-0.10329508932799296,-2.2107058817580216,-0.9665364194571531,-0.3342937219563465,-0.2387901897933352,1.0594895449926955,-0.3313298730993094,-0.023842271387176952,1.8609125299968379,-1.3517314693218794,-3.3266734792942625,-7.245847856535151,-3.3598249543328556,-7.681928834702463
91,-1.2431556501045413,-3.102756790046812,-1.3840561047132145,-1.0114314291096846,-0.6479265167910624,0.49233579537155053,0.13689757381146703,-0.12386517099753415,0.7857423869714801,-2.9832166964657145,-3.7140762820206477,-7.578838209910764,-3.9019669111021686,-7.248194216095827
92,-2.3238952972021685,-3.772874607362369,-1.8126276135375414,-1.655437224402939,-1.0268893320208952,-0.020671115301994405,0.6361009467343481,-0.20872009632733873,-0.29461037844297705,-4.22668486084993,-3.65607619932722,-7.3239755801811866,-3.9556034812966043,-6.137161425340095
93,-3.222708996184297,-4.13772586894707,-2.2190013765474896,-2.174715903846687,-1.306461939176034,-0.35781654054569223,1.1615187872732202,-0.2701576961003118,-1.2582654731416545,-4.93161012407332,-3.1366888115158384,-6.520441033232548,-3.5269258951979707,-4.455772969190665
94,-3.8337129615809293,-4.143621713131256,-2.5619633564085724,-2.4877863023186557,-1.428122840687864,-0.4268003841618828,1.701084354377881,-0.3026575385361734,-2.000950168904644,-5.0120837182190705,-2.193906294229291,-5.251311768154471,-2.6800148679142186,-2.368257881875729
95,-4.081674586526391,-3.7738706483617506,-2.798201651523074,-2.5352109757120047,-1.3530759653152624,-0.17922356760570787,2.2329887898372016,-0.30393934936949346,-2.4481757902816166,-4.458026656083894,-0.9171089648627242,-3.6347436032305094,-1.5280066980876401,-0.07842618674091481
96,-3.931927012894369,-3.051810038074012,-2.8887048261632344,-2.288870318911047,-1.0686993293401765,0.38110425811478194,2.725023368592061,-0.2751019313682521,-2.5635274755371746,-3.3370171785767364,0.5617643049595743,-1.8124858263927601,-0.21840235620114348,2.1920693931245516
97,-3.395104411435873,-2.039077522228323,-2.80475389947904,-1.7572111990367087,-0.591476267289584,1.1972337038653746,3.1360634880786304,-0.22038179902059515,-2.352060083015134,-1.7863899141760902,2.0823624961199325,0.06307169349650264,1.0855721604188353,4.2269417677545436
98,-2.5260497806498843,-0.8292807339446574,-2.532663952303932,-0.985651703645409,0.03404158276508653,2.165669946196608,3.419695872789596,-0.1465686037468592,-1.8584451747059643,0.0034906392122907894,3.4738096934932,1.8420894841099635,2.2252051655764453,5.837331829758428
99,-1.4170602605147133,0.4621907559540837,-2.0766363297605097,-0.05199917981949312,0.7401434422719836,3.14959443641965,3.5296200533566138,-0.062154410499612706,-1.160210536935643,1.8127242696230546,4.574279685934017,3.3895666680059517,3.065631429057443,6.880360695852183
100,-0.18642506979338655,1.7109717651019043,-1.459365316164697,0.9425626271477635,1.4441140472303855,3.9969266571100843,3.426135209823275,0.023676516187692044,-0.35705589156421313,3.4191663485464288,5.249956671661282,4.59575913643999,3.5118871727527363,7.272306797901184
101,1.0361445120730646,2.7975716939584463,-0.7203600826551877,1.8857442637726434,2.0585680000129982,4.560821364062488,3.082803070354891,0.10209460657012347,0.44227711488588095,4.626010649880662,5.411101299542885,5.383985779506202,3.5197375546192857,6.99521436659951
102,2.12519410821286,3.62056749125802,0.08775350152420137,2.6680587199596086,2.502610779007338,4.719918030359948,2.492290961763572,0.16558421373840415,1.13382776744972,5.286090994309797,5.023240761243031,5.7153335438573425,3.0999871789195472,6.096499731658563
103,2.9742145936492825,4.107534880165987,0.9044369109535735,3.19652878098601,2.7123732590690826,4.39573431744872,1.6704600364632878,0.2087041008963685,1.6311573922712952,5.319753876307131,4.1120542093403545,5.590035073446739,2.315811734334675,4.681883292753281
104,3.507441945555752,4.222415525804594,1.6672675255100629,3.4063906784603666,2.649558056652869,3.5649915717832514,0.657961358547942,0.22856532599180543,1.8754528632515421,4.724017821883136,2.7612680837207546,5.045550957514692,1.2735406341945723,2.902658128188618
105,3.687332701771951,3.9684820482794225,2.318041956035762,3.269267922694897,2.3068969080299806,2.2653076575845246,-0.48109465371130766,0.2249812188994454,1.8418452072284508,3.5719151088334935,1.1037218702135565,4.151630142192074,0.1081610215588439,0.938846994134897
106,3.5169257396667164,3.38662905503929,2.8082394540332585,2.796765180322361,1.7098099735121397,0.5935013390222998,-1.6634648512325232,0.2002891178376229,1.5413229610779522,2.0022380766891734,-0.693388071797062,3.0028415175507064,-1.034508246754383,-1.0198449266251255
107,3.0370345749093626,2.549316939045165,3.103260995356869,2.039041859489115,0.9140322399567108,-1.3033716955483892,-2.79378430909134,0.15888754257963345,1.0181881282789145,0.20119550938211117,-2.447337690687797,1.7092639464354207,-2.0165997863245955,-2.7932260857035085
108,2.3189268381488803,1.5510497242629746,3.1850606582277727,1.0785872964999856,-0.0005260178842611935,-3.2432810183495215,-3.7735973770272033,0.1065674583878545,0.34353940030595803,-1.6214596788796005,-3.9804967006319174,0.38617988316085666,-2.725456634849973,-4.227973603052342
109,1.4537344974245625,0.49670154576171105,3.053019767423439,0.020045776946858294,-0.9389468366198551,-5.029074259360486,-4.511460151692339,0.04973666668525834,-0.39428661384032626,-3.2585922373234286,-5.140222329723582,-0.8562827097883623,-3.0871143748981322,-5.211427444407947
110,0.540215283919548,-0.5107469432097657,2.7231394000474607,-1.0225532034507918,-1.8023782126215733,-6.470663155491463,-4.932981014000481,-0.005359233493217668,-1.1010698515803299,-4.530686036887939,-5.815600855484416,-1.9225985449931389,-3.074293881126111,-5.680548848197216
111,-0.3273950356326765,-1.3814789836121477,2.2258096483824126,-1.9394824067770626,-2.499642380371893,-7.406981015870972,-4.989605065592833,-0.05332547968529498,-1.6884455111963825,-5.306506322905245,-5.949032345181692,-2.7395035768162717,-2.707969239315347,-5.625336106589328
112,-1.0698407774582641,-2.047739524840321,1.6025346645690146,-2.638150313609528,-2.957927295385894,-7.725126520752957,-4.665027331909768,-0.09014239431094163,-2.084606370288859,-5.516937972483744,-5.541337759540889,-3.2611667859061506,-2.0524779797220924,-5.086614209759261
113,-1.6303786538344467,-2.4693748575373253,0.9020437439718431,-3.053453521122614,-3.1312153826673637,-7.374378005348753,-3.978342051628161,-0.11347716375786884,-2.2426926774702536,-5.160517144772108,-4.649916552034046,-3.471446798773262,-1.2050382708730978,-4.148721922442334
114,-1.9786647931195251,-2.6355477876708204,0.17620391739178604,-3.15438661204184,-3.005388245260234,-6.373307850476811,-2.9833869059142026,-0.12276366951000295,-2.1458837118873957,-4.300332940574652,-3.3803772893678024,-3.3831291232462117,-0.2813006359392832,-2.9281448563466697
115,-2.1108612753398774,-2.5627243591535964,-0.5239167236870163,-2.946184021623073,-2.599378997939101,-4.8090015504947194,-1.7641866868669411,-0.11905991798480797,-1.808619782941689,-3.0531263002973468,-1.8728802864871836,-3.0343757333316974,0.6009201417951249,-1.5595326253307897
116,-2.0463838684170588,-2.289544859652659,-1.1515793932515472,-2.4678960285179112,-1.962269923317662,-2.8283121878890705,-0.426887049558827,-0.10471986288019408,-1.273880708887086,-1.57239770296367,-0.28506048286129854,-2.482919602030616,1.3373887264487634,-0.18075506081165169
117,-1.8221549885843564,-1.8695830532186255,-1.6673382005810509,-1.7859253401418713,-1.166777581849128,-0.622053401233521,0.9109698144767466,-0.08293893480992186,-0.6069630532267544,-0.028026030093344482,1.2262387549145592,-1.7987635994564355,1.85047170794684,1.0813214678269258
118,-1.4854917154770662,-1.3632067958600855,-2.0413530844761807,-0.9845778958392243,-0.300047990018388,1.5960685526135,2.1326069154617704,-0.05724677947246201,0.11334207387773519,1.4147822849102192,2.5221343739048967,-1.0562705934060368,2.097708893847393,2.12281996673646
119,-1.0868203829878733,-0.8297573184727914,-2.2550149501897883,-0.15503384493757652,0.5469736765960844,3.613283158221629,3.1341732888540466,-0.031023336476888683,0.804938599766351,2.6144785617704835,3.4957368121493713,-0.32654743141098647,2.0749172119035593,2.8714163205469494
120,-0.6732749690993324,-0.32107663705511147,-2.301860912550187,0.6157261321930118,1.290182870776111,5.241448378523946,3.835438597374553,-0.007104324129122443,1.392602435187758,3.4678116147201608,4.0815192224006545,0.3290697768334494,1.8136633447386532,3.2907599858745633
121,-0.2839467818192058,0.12292163609034917,-2.187750022430407,1.2546068414826863,1.8616053504231789,6.337690205789354,4.187730653431832,0.012478480154642146,1.816819940266394,3.9185853448750207,4.259185801341587,0.8638134147622489,1.3738000695985604,3.3805694359691234
122,0.052827752647954564,0.4763545875199526,-1.9302575978279068,1.7095677248108363,2.216223250482493,6.819439611618903,4.178178875480178,0.02660333879376752,2.040201205033132,3.959903435617767,4.051969886622194,1.2482092537333362,0.8324891636015253,3.1727594929920597
123,0.3201503635657898,0.7272719111840268,-1.5572489901850801,1.9535862762166327,2.3356130219923514,6.672031945192598,3.82980883518334,0.0350191640876907,2.0507589176214025,3.630193518404197,3.5200223400615016,1.4706614402224847,0.27161247820115947,2.7244233699858613
124,0.511561818008723,0.8758168413558869,-1.1046267891523838,1.985224576175478,2.2281371378265935,5.94800067590462,3.1975721419422776,0.038191329240988996,1.861796787054401,3.0041064306763485,2.7501389202561866,1.536104237607812,-0.23437455295450296,2.1088188424265444
125,0.6289271233491188,0.9313061484773689,-0.613316920597715,1.8260806161922944,1.9259023178594428,4.758287560943353,2.360912771313499,0.0370779487009944,1.5086140129925552,2.1799628444028163,1.8434431352698881,1.463143186566749,-0.6282881124671019,1.4056526454141165
126,0.6798446928017303,0.9089347650513862,-0.12566541959161814,1.5157838731842221,1.4791039714022767,3.256657607508923,1.4138925824473463,0.03288637845115313,1.042642819740801,1.2657076023115728,0.9027488630302233,1.2802349470954018,-0.876404423529965,0.6919077660785697
127,0.6751502314813782,0.8267129098096719,0.31845834497708886,1.1054324255914714,0.9486672064073068,1.619501369885263,0.454169924383529,0.026853942760248883,0.5239438849095734,0.3653196930877707,0.02118343519597497,1.0214802449615725,-0.9703475483631923,0.03423664651728408
