,AF3,F7,F3,FC5,T7,P7,O1,O2,P8,T8,FC6,F4,F8,AF4
0,-0.14529902773214498,-0.10118270183769738,-1.4796665149525317,0.4174039529227698,0.3872714456393002,0.5467189960683234,0.6504200788491813,0.1709478493654558,-0.14841099776681949,-0.45651516792238644,-0.4797319872936444,-0.3705569357532288,-0.32785552452625144,-0.8645809356530684
1,-2.593177699252105,-1.340962485396084,-3.4701677501217825,0.8047985317486657,1.540307766806064,1.658488124110317,1.165462890692152,0.8132184982706562,0.8549761780222854,-0.9885442018952907,-1.5006531011811635,-2.206506803178273,-2.066333300105158,-3.6511048822936787
2,-4.778026495261889,-2.457341483001647,-5.248427466483603,1.1479422627942595,2.568681228689971,2.5916368712580486,1.5817278507926715,1.4279124219113162,1.7726195667380586,-1.4356085356826804,-2.3947833564904233,-3.8413914919354752,-3.5869491769274804,-6.098519915799853
3,-6.52086509779656,-3.379103442801046,-6.724048574480291,1.4127534520462206,3.368860543126074,3.2393486589098237,1.8508002751378645,1.978111362569063,2.5073981853104246,-1.7693285083479178,-3.0951681786282146,-5.163526048111114,-4.760072402768259,-7.992354865525925
4,-7.686088031462918,-4.054898189889894,-7.827477105132365,1.570284629903509,3.859049648608741,3.5306274929104453,1.9410262050677936,2.4279209460710858,2.9839122349929834,-1.9708164338006329,-3.55392354300694,-6.08878772871221,-5.495689624712613,-9.173117371831154
5,-8.191175753430937,-4.455182381620921,-8.509799011903079,1.6004880139849775,3.988975570367672,3.439774039145705,1.8424013514694115,2.7454297346954366,3.1581524070328166,-2.0302368610925887,-3.7444884180337743,-6.564600966697517,-5.750690302106364,-9.549512258973829
6,-8.011364024450842,-4.571901899628412,-8.741501551232155,1.49515210992178,3.7462109476762686,2.9895111193520387,1.5683668561690505,2.905675840699667,3.0228445265166695,-1.9460005674806073,-3.661743402525668,-6.571549291917857,-5.530552953228676,-9.1048037150609
7,-7.179191818861935,-4.416242968908311,-8.510943636481478,1.259584026820486,3.158189257293106,2.2473159011536703,1.1541880562685145,2.8933073926507062,2.607781128872952,-1.7238656925724398,-3.3202675840965745,-6.122792018187275,-4.885474051175713,-7.895933847574696
8,-5.77929026785973,-4.014966910192015,-7.82314610395466,0.912761125209227,2.2895879501936207,1.3155339484142248,0.652139178720213,2.7046394468849635,1.9751980966636502,-1.3761102372606926,-2.7511798924464053,-5.261522994028068,-3.9016692782567013,-6.045720750718907
9,-3.9391562023711884,-3.405961228364351,-6.699288241392687,0.48585961345017115,1.2353145025047387,0.3167658430262409,0.12421795241216767,2.348844828092708,1.2109586402716672,-0.9208304884858362,-1.9981201277482978,-4.0567516928712,-2.689165612053306,-3.7291355066734
10,-1.8169447668169916,-2.6336729501762797,-5.177023179550853,0.01926741285860738,0.10986772530772246,-0.6233048445856602,-0.36650867914690916,1.8480705727915765,0.41286999919385303,-0.3813308204508647,-1.112951754887065,-2.597730940432582,-1.3678113342609164,-1.1552284349095665
11,0.41250305284687816,-1.745035382686239,-3.3114448448990945,-0.44161830804873586,-0.9657011295252141,-1.3931294794640827,-0.7646295547738036,1.2363480809177245,-0.32219459275219414,0.21448299924888342,-0.15171080723327388,-0.9874091655116437,-0.05340233398525616,1.453324329672077
12,2.572119290252783,-0.786364843714149,-1.1762921159220998,-0.8513461146786874,-1.8776909519723342,-1.9100810098538374,-1.029896457124903,0.5572664049333691,-0.910606110223991,0.8348069438785569,0.8288029688090675,0.6646554161889968,1.1542676588244627,3.8808998117312936
13,4.49633206330506,0.19849589879856455,1.1352083506493675,-1.1695438714224187,-2.532849162339938,-2.1307336715342413,-1.1424313670549606,-0.1394954531811262,-1.2921238704072124,1.4448184938534452,1.7735718239405318,2.249434040291487,2.179968924035496,5.937736141680274
14,6.04299779435875,1.16875426987967,3.510559259312709,-1.3656107910305733,-2.869068214740169,-2.0552576205011146,-1.1049121444770444,-0.8025354972005458,-1.436649279403816,2.0077812280602867,2.6310184247299997,3.6651272565039816,2.977298343885985,7.475065079188943
15,7.102743233148517,2.0861858534210693,5.81996813562573,-1.4223741136880195,-2.862353558682641,-1.7254326375020894,-0.9414664661898483,-1.38360258471728,-1.3468762984341671,2.4863960393152795,3.353943808965671,4.822984104464766,3.5284142599176014,8.395257170618104
16,7.605228511805714,2.9140369557664356,7.920666023186336,-1.3382177683242837,-2.529183377796032,-1.2167197173051687,-0.693477877795809,-1.8424537084950932,-1.0566922586706131,2.844407405928648,3.900065793403099,5.6519129445459475,3.8397231607219116,8.656300573174711
17,7.522169992722767,3.6159004944999067,9.663922721591879,-1.1273614036939583,-1.9239520632306761,-0.6256821886474409,-0.4129394971573705,-2.1510903140436044,-0.6257244254943872,3.048469081793155,4.232564684776276,6.101716119184342,3.9346180762194187,8.27062824126638
18,6.867268894183637,4.155189986729943,10.90477128857493,-0.8181920360412029,-1.1318115029206628,-0.05469892616403835,-0.1543248833960775,-2.2967678830185565,-0.13087694872800484,3.0702679134996713,4.32103824002374,6.14495748210815,3.8448010838990925,7.298971863032191
19,5.693442966044179,4.495748565886035,11.51403260183498,-0.44979875872315056,-0.2578115983667709,0.4037298146751229,0.03385907939862752,-2.2832698553866906,0.34398814138067496,2.888883799613312,4.14316504758458,5.777628640052157,3.6018962769226177,5.840466466125456
20,4.087922955383371,4.603923027688618,11.391773468621679,-0.06709966935514527,0.5862867868928865,0.6807665054200298,0.1166378974126331,-2.1301327849452063,0.7189256109776249,2.49331692332769,3.6871853925071836,5.01887910299434,3.2309439614318967,4.020583512929909
21,2.165833794844903,4.4521304310094925,10.480899446606172,0.28485186744870394,1.295859881622707,0.7411138531550513,0.07818114548857688,-1.8697846970655927,0.928050311290322,1.8850369551772248,2.955058037986435,3.9100904090599524,2.7469762441592196,1.9785821710256521
22,0.06283072365382096,4.023589836855224,8.779245233744916,0.5666615302421367,1.7861856049896203,0.5875945126913834,-0.07534552865944218,-1.542874501482326,0.927814711749289,1.0803111736893871,1.9658813085965967,2.513496568699771,2.155268621127103,-0.14398000244796874
23,-2.0727767659170806,3.3175456555207856,6.34835205800042,0.7497190530860014,2.002526603754148,0.2598385619670635,-0.31612460335746484,-1.192375585054254,0.7025480563187243,0.11196879998624376,0.7589293114933409,0.9103971897647217,1.4551401836263465,-2.212520136778348
24,-4.088163214326586,2.3540421280089507,3.317175158729491,0.8199313259298967,1.9262854168727948,-0.17264538841374777,-0.5982403144208589,-0.857286345561833,0.2667187560280123,-0.9698164075406863,-0.6044959954333888,-0.8011875662435017,0.6464589611544552,-4.105881186123703
25,-5.834310283259837,1.177184610787072,-0.12071484462489947,0.7794913555656933,1.5764974893209365,-0.6219216233911855,-0.8640285179366908,-0.5668767180870562,-0.33625219133450207,-2.098166442199098,-2.04121294649542,-2.5097524564011304,-0.2625738174630987,-5.719969997786605
26,-7.174541725319752,-0.14411417296300202,-3.717279690295282,0.646355971661583,1.0065326597800768,-0.9958578300360893,-1.05242995797372,-0.33641144213375723,-1.0384410272747888,-3.191951066560175,-3.4489829171333604,-4.094864018060644,-1.2481249197446247,-6.969150714707756
27,-7.993288402776701,-1.5186427804419926,-7.187525953580792,0.45141825818817977,0.29649405832856063,-1.2129994840916447,-1.1082665982405668,-0.16510915936386386,-1.7546333381881385,-4.1602992999642145,-4.712385040064941,-5.433428920122146,-2.265702160130331,-7.7863555107979066
28,-8.204958983124824,-2.838955370464709,-10.233422814874235,0.2336992784769764,-0.45764438020289705,-1.2158705844599735,-0.9912013078407463,-0.0367880831273149,-2.391549195836609,-4.9091893904425845,-5.711698944029299,-6.407857614321735,-3.2488765138471183,-8.123021723198171
29,-7.762530531904324,-3.990734267091449,-12.572269468909951,0.03419723398047692,-1.156704915775069,-0.9807180325139717,-0.6831323965712787,0.07675496154858016,-2.858161988003701,-5.349837034681612,-6.334259121365049,-6.915949845141307,-4.112632082860684,-7.949830594494536
30,-6.6651449745071405,-4.864602965478357,-13.966686334126491,-0.11072931906836975,-1.7110970575596718,-0.5222340395230248,-0.1929239637905744,0.2100245649166001,-3.0761007825617934,-5.408265825073862,-6.487250257584491,-6.881872444992724,-4.761423983131711,-7.258827830942094
31,-4.963684473665961,-5.369021430777861,-14.252805975785684,-0.17544690541546112,-2.0520541903495695,0.10748081440897185,0.4423265535818444,0.396562683043196,-2.989114127208365,-5.035122772422422,-6.1104972652961065,-6.267127262039958,-5.101150320658426,-6.066926354114227
32,-2.7630976054364935,-5.44254320784205,-13.363038309325463,-0.14962883488920298,-2.1398680234157177,0.8256125228229872,1.1598576810800019,0.6612406592130433,-2.5706412566039196,-4.2145567608498835,-5.187546957510458,-5.080019600276791,-5.0534420536289995,-4.42015146594464
33,-0.2202484135926216,-5.063604005137972,-11.34006304431218,-0.040536476047881013,-1.9681003349091346,1.5300583934566159,1.8775260695678964,1.013359992060887,-1.8286810877425148,-2.9708659872593204,-3.7533028401718553,-3.381937665347757,-4.570088390619479,-2.397436845296368
34,2.4636758672255343,-4.256182907889107,-8.339481709089092,0.1274886990821146,-1.563312039838451,2.113964065434077,2.50317400393549,1.441787702390041,-0.8073588654739775,-1.3716825185048198,-1.8966943820683824,-1.2888233408008418,-3.645162399883313,-0.11245703905487503
35,5.0566181923142315,-3.0901287250003984,-4.619789153907762,0.31640779195383373,-0.9804631936387217,2.4813051826762282,2.9460148564093465,1.9131365577114465,0.4151469666283668,0.4732816124396584,0.24266125733116461,1.0334028375175304,-2.3225600556110018,2.2880101388553618
36,7.314603028122205,-1.675630114964835,-0.5198690814246145,0.4803795031196083,-0.29472037670039464,2.561293902487707,3.1286511841521953,2.373608435126917,1.7323477811614905,2.4184573164586474,2.484151464666828,3.3800168599066955,-0.6972182414813041,4.630324860730072
37,9.004907695544789,-0.15213892915542418,3.574120886774537,0.5733771101409139,0.4091187220885443,2.3195500262039457,2.9981886273514733,2.754592854705747,3.018548596505247,4.293548459605802,4.621729428210801,5.524915655234101,1.0908407152758657,6.725272754171485
38,9.93128468728534,1.327094823837843,7.2690733319330505,0.5574015552733307,1.0480752435420255,1.764422197998056,2.534951009074896,2.9815250901330037,4.14065576502511,5.918844345736877,6.444012033620455,7.242946530653145,2.869418149853136,8.38395114751724
39,9.958368101928956,2.612991023505204,10.207890451284584,0.40998815364592595,1.5517228942074468,0.9475134394682823,1.7575413530082284,2.9849500490773724,4.971704534035833,7.123351842771227,7.7568488459149405,8.334878883246017,4.452692745340621,9.436875948057596
40,9.032041528791893,3.5787464470250203,12.109888401267902,0.12972953044351967,1.870756529818735,-0.04173777608980457,0.7234046100929118,2.7122989673914994,5.404847379258535,7.7638628996065995,8.405791791119663,8.65207092223992,5.663176092454822,9.754125807548167
41,7.192634732162062,4.135576459325227,12.803515817777988,-0.2612260786152063,1.9822877003950896,-1.0867577348661188,-0.47541881467433744,2.1386400064168005,5.3663560700775275,7.742749865168259,8.295701214278958,8.11756693773678,6.3541973514683585,9.26381389375525
42,4.578394777036725,4.243823705708976,12.247019928444624,-0.718320825584069,1.891248074614108,-2.0584405196318403,-1.7210684677291748,1.2746608678521052,4.826130176973844,7.022220533415451,7.404884913702298,6.740499649918904,6.429822194408247,7.966048651122011
43,1.4177119603865356,3.917757541764624,10.5340902717639,-1.1794520191875923,1.62784824519999,-2.8317508128172717,-2.8823098967414422,0.17039931870716013,3.8043081161551755,5.633001772021537,5.791682011089248,4.621293097523974,5.8593404998818714,5.939870213243554
44,-1.990037813449754,3.22325365290422,7.883372201960064,-1.5730453272115223,1.2416036315089451,-3.302154963907386,-3.8292990659944506,-1.0862638124710493,2.3728617044862004,3.6759457449053015,3.5922248995542136,1.9462141484663056,4.684112038546938,3.34140837308606
45,-5.303622525483259,2.268557066984386,4.612828763173882,-1.8282937812616968,0.7929206544443453,-3.399726391474604,-4.448965084175817,-2.376651591577555,0.6515147680449128,1.3158124097315607,1.0091475699109242,-1.0288213943426647,3.015549650506607,0.39260970298352865
46,-8.176147711995853,1.189341350307843,1.101953535535736,-1.8861248312932586,0.3435668602643208,-3.099066192433864,-4.659154547134576,-3.563398868211845,-1.2020712195042074,-1.2326105731167347,-1.7078698921291036,-4.00380790887257,1.024204986371327,-2.638821669578194
47,-10.294199944472185,0.13012810987682744,-2.253494884224242,-1.709264949507244,-0.05251682392371961,-2.4237078263550873,-4.419739056428486,-4.506367629014719,-3.007212625659988,-3.72494039110633,-4.287769717322668,-6.666826574889134,-1.0788670589539209,-5.466320811249265
48,-11.41511887719039,-0.7753090192233728,-5.088507786768547,-1.2898177505423019,-0.3566826118467216,-1.4443659999030427,-3.739164638973294,-5.080462240152831,-4.578892806776785,-5.9121992863396935,-6.467191101935044,-8.729048893259739,-3.0662262115495107,-7.8151429376152555
49,-11.39751863782097,-1.4217570652486822,-7.111582692520167,-0.6530608592956217,-0.5502258846491992,-0.2711599084352783,-2.675403173162158,-5.193009664621972,-5.74829139600253,-7.567713293458413,-8.019615512070224,-9.958232818525156,-4.7206450159452515,-9.453062338504326
50,-10.220825650743334,-1.746044425627861,-8.137768126201744,0.143332501245584,-0.6355759451721861,0.9593001738504697,-1.330913990231343,-4.798250914826465,-6.382802380581477,-8.512848382828121,-8.781126376941238,-10.206434100349979,-5.860829897986548,-10.2171377591252
51,-7.990892014553079,-1.7342866709591638,-8.107859492520669,1.0147949918840715,-0.6339404428036647,2.1004153810953903,0.15802777495339523,-3.9067202822674263,-6.403041914845905,-8.638492674835973,-8.669643189831476,-9.428321181833736,-6.363006167227915,-10.032985431555693
52,-4.930512167559536,-1.4219361730761013,-7.091494002308348,1.8595405266199474,-0.5798863288291344,3.013664533098497,1.636524123477438,-2.5878583628747407,-5.794518382222142,-7.919547462627023,-7.695211688088755,-7.687666870430565,-6.1756406015516925,-8.923926260276545
53,-1.3556650311986425,-0.8867596465235276,-5.274071739416085,2.571224407794199,-0.5138298324577915,3.58597407538891,2.9490009838573874,-0.9650532039395039,-4.612136413496506,-6.420400693766301,-5.9599709947820285,-5.151122189411475,-5.325463426707364,-7.008700114078099
54,2.3597659575574874,-0.23592239451724767,-2.929589024845098,3.0529161628367603,-0.47373824923457014,3.744174539942802,3.9576876811879904,0.7966739011098721,-2.9764984877716514,-4.29035295354567,-3.6476468971053593,-2.0700354644472183,-3.9140734684811576,-4.48797218819336
55,5.826462322680769,0.41078422325981856,-0.3833026405796824,3.230462896845294,-0.4874658954494876,3.464651321499752,4.559236465126411,2.509065464477532,-1.061973073595569,-1.7491393084482492,-1.0036854785576463,1.24737494862553,-2.1056151772419565,-1.6213626156677534
56,8.684005741354333,0.939007216639257,2.0306084895999237,3.0633458523940633,-0.5670356174698482,2.776875331644652,4.697246107067792,3.982904154637889,0.9224051966903852,0.9360978997561562,1.6917181837806743,4.469974839383752,-0.10714038638902892,1.3020198757338186
57,10.641504979869158,1.2565012823761144,4.010723193363426,2.551435442226851,-0.7058509018933822,1.7602653582889334,4.368937845907478,5.051310547298741,2.7571045086062838,3.47993396105632,4.154575549590236,7.27957149785494,1.8558418127059404,3.9957539669544997
58,11.509468134137384,1.3060085849516039,5.324048431532163,1.736591613967364,-0.8793338853596597,0.5346935624552039,3.6249918488910624,5.590943161618801,4.238427288414474,5.610599318204952,6.128445107650525,9.404344117307232,3.565581773948215,6.206953353359624
59,11.219094917572004,1.0726029708767173,5.8313677788517815,0.6987618372538905,-1.0489125892142286,-0.7542143890638963,2.5624885351524544,5.538171804595296,5.203652543857265,7.1009919114083475,7.412525261185213,10.646002983207929,4.836892597388051,7.742068167534627
60,9.826891432506336,0.5846441885067153,5.499541612173892,-0.4530023786770066,-1.1687201303802284,-1.953127203232394,1.3118775312226778,4.89792366933999,5.551642781046619,7.795029104566375,7.883277838922946,10.897815312015782,5.537631118676305,8.484746025080867
61,7.504485327866317,-0.09152415546252467,4.399915047193831,-1.5934697797132353,-1.1939093065610056,-2.920076856777092,0.019767734204666383,3.7438831995263016,5.2560470322960295,7.626079891774272,7.507158508882866,10.151946480343245,5.602569213928835,8.4040425630409
62,4.515450872584959,-0.8620729333353447,2.6938877849120386,-2.5963908659166886,-1.0892018984980225,-3.5420623195549426,-1.1700466342063023,2.2099169537221526,4.369136323562539,6.625121442255257,6.343109059860398,8.495993020592401,5.039242498246375,7.552621611167983
63,1.1825614198929617,-1.6196041770688419,0.6083408932127142,-3.3498740297340075,-0.8362309465437648,-3.7488842891622935,-2.134644287918831,0.4738133550455716,3.015527774512584,4.917486529503207,4.534683167544205,6.099908255265101,3.925366567164159,6.055890953378468
64,-2.1500514927439904,-2.258307430001622,-1.5952275394519773,-3.7699294152920717,-0.4384087884761917,-3.521410083811138,-2.7865835039331386,-1.264512027142624,1.3764224232876003,2.7084546105599974,2.292875872928081,3.195555723867176,2.3984097499868096,4.094091365605171
65,-5.154966394014413,-2.6881426164182276,-3.653476305160588,-3.8104067917028663,0.07756174015580346,-2.8932212063222806,-3.0830583769129567,-2.80745245271233,-0.33369736045231074,0.25931082976801945,-0.128236777360261,0.051748001336409104,0.6387830147592433,1.8800541798996304
66,-7.555205964855399,-2.846145928869166,-5.331655049854194,-3.4680782040725897,0.6638816434856665,-1.9454932975645172,-3.028454166672609,-3.983574630496721,-1.8948884079217974,-2.1433206325838876,-2.460180861371457,-3.0522012314624405,-1.1512433410458052,-0.3644048213453401
67,-9.14997741339428,-2.7035248760532364,-6.44816579173358,-2.782306228669932,1.2573081337691445,-0.7958732512967902,-2.6701734005355022,-4.667835872557093,-3.1103907994345126,-4.221215997613143,-4.449810570857674,-5.851627752822357,-2.7704161136968857,-2.430671435422154
68,-9.83007941197886,-2.2679190115102146,-6.890856543929576,-1.8294872980728785,1.7874570271926666,0.4170767243252769,-2.0886338615276263,-4.7956322339293385,-3.8322332806571016,-5.737303328138862,-5.886762077214102,-8.118144576278068,-4.0406115796088935,-4.141856388765416
69,-9.582147066838859,-1.5809307434256172,-6.6239955707911875,-0.7131574574603029,2.186513895877368,1.5517158436034413,-1.3832102486000641,-4.369035278096757,-3.980303670767631,-6.523450556094889,-6.6256535129477045,-9.676260640586298,-4.825825673892801,-5.366185422787171
70,-8.48237588064989,-0.7116693660244738,-5.686203888567219,0.44880168426574946,2.3988765004721193,2.481012077082176,-0.6564646885970836,-3.4546481902087516,-3.552247402920728,-6.4998960027509876,-6.600704004380734,-10.414280496763286,-5.046118238701448,-6.02464072816332
71,-6.681586747580079,0.25248211705080126,-4.180740149466906,1.538089820052291,2.3892499686634925,3.107716932514306,0.0008034985905268288,-2.1736277867509664,-2.6228058465192112,-5.683946173170093,-5.831339416940706,-10.28946111485118,-4.685197845786799,-6.09302759941068
72,-4.384313556950493,1.2164292257327507,-2.260289342812424,2.4492145506791427,2.147952190822104,3.375068023075605,0.5213898285263471,-0.6854236226463734,-1.3326804473728389,-4.186899482106554,-4.418379296126644,-9.327905514739733,-3.791045202700848,-5.599237923503091
73,-1.8249364885964936,2.087816094279451,-0.10873136646132524,3.1003842263805415,1.6926251104521506,3.2717391220891523,0.8687052957352974,0.8324572474800502,0.13149778537091086,-2.1996310153322316,-2.531439080819931,-7.619950861020881,-2.469706672019583,-4.616816101074457
74,0.7562406302136425,2.786146548775346,2.077731986315333,3.440858504931323,1.0661183255830116,2.8306073945021817,1.0381649945595621,2.2059393993182113,1.5632272593584098,0.03130326067484584,-0.389119385051975,-5.3118713140482505,-0.8730724077971008,-3.256000118619005
75,3.134570225055412,3.2497339436820347,4.1081465184801385,3.4541214669508697,0.3309181305684183,2.1217972751144485,1.0531114996570174,3.2843811571359125,2.7644880947257042,2.234005066448426,1.7657088130729204,-2.5946215005003506,0.8179740034066129,-1.6532669154697024
76,5.1186299483318844,3.4400752997299726,5.811757834127044,3.156865204936964,-0.4389685876580474,1.2412565694226236,0.9563723657972388,3.9567063633393684,3.572353379265505,4.144200115513755,3.69275194156688,0.309814212118173,2.4132317096106544,0.03985115796904311
77,6.562909228381887,3.343657566761223,7.049701444856988,2.5943430056112406,-1.1673941838031836,0.29670646577058146,0.7992671415385195,4.161944740601869,3.880147376786871,5.536741353027693,5.180354546088323,3.1640263742253842,3.7336511714640164,1.6681876032308083
78,7.37545225996726,2.9715165779220025,7.723343004629928,1.8330837549884313,-1.7852862834672205,-0.606899695179246,0.6302525807239109,3.893305454486398,3.650317883825647,6.251809399540561,6.068014272292318,5.732299651830197,4.630523226303458,3.084301019730835
79,7.520811209312872,2.3570385010056807,7.77952287737026,0.9521959772847262,-2.2383702387426685,-1.3803109793949824,0.4853610132895126,3.1957954330085983,2.917465455289784,6.212701540808789,6.263026216812933,7.798636483034211,5.0014593253693,4.159516049344617
80,7.018938103550688,1.552514983364155,7.213054878660117,0.0345124388174545,-2.492383051176137,-1.959561975872848,0.3821582197718647,2.158191377565612,1.7814314087058452,5.433206496690931,5.7495824902176285,9.184748544884993,4.801538550206467,4.794275643902021
81,5.940698625332775,0.6248687324805556,6.066720160754357,-0.8413463776999137,-2.5352314077019313,-2.311067348709465,0.31820891647054844,0.9007840224833954,0.39176728803795635,4.01389671698635,4.589458673712463,9.766678776727739,4.0484445405398475,4.927210189434215
82,4.400594811742852,-0.3491882474336005,4.42877868525595,-1.6072295725889916,-2.3760779460074852,-2.431851841187054,0.2741320809928715,-0.4393231077943777,-1.0739107303970323,2.1280632303403935,2.914309797780356,9.48836807325272,2.8209821667801505,4.54208378583521
83,2.547132437347418,-1.2884506607056982,2.4278124650265887,-2.2096644287300675,-2.041836878420253,-2.345327528354571,0.22042823305297393,-1.7234786765877506,-2.4343988293710344,-0.0007055433321617504,0.9104917853151551,8.370320227578567,1.2510147694752949,3.671617330708153
84,0.5511625368897413,-2.112939928974105,0.22463211767732325,-2.6120278100428926,-1.5719326678614622,-2.0937131557673463,0.1265378300584655,-2.8255768050150407,-3.5286540728432305,-2.1263026487245096,-1.201872033898911,6.511659568378102,-0.49045330320325414,2.397208128067136
85,-1.4074575192090522,-2.749994236932615,-1.9988989932028898,-2.794988985624112,-1.0123610465808055,-1.7286585112443602,-0.02982213742911966,-3.643586983008846,-4.235514651588863,-4.009651614853322,-3.1932360506730326,4.084377714931034,-2.211674170273236,0.8438261389048054
86,-3.154369734709447,-3.1405378868583136,-4.05392251010215,-2.7556995200407712,-0.41006965573203125,-1.301820742139051,-0.25502717331911645,-4.10760065614096,-4.4868400301348945,-5.446329524634842,-4.849677880760574,1.3194098903121205,-3.721118570747205,-0.8301308546929458
87,-4.535582656711098,-3.245121613968206,-5.7608072416158675,-2.506231545363386,0.1915304776730015,-0.8570193041025274,-0.5352560515367081,-4.183993923763624,-4.272626626487172,-6.2889433680538,-5.995869355704631,-1.514738250296012,-4.848729336010781,-2.4475603358170663
88,-5.431559551442995,-3.0490920520854137,-6.966242098039884,-2.071670194525977,0.7554441132775258,-0.4252003637451446,-0.836524332046782,-3.8757946755554946,-3.6379321219370877,-6.461734274246732,-6.51345114892476,-4.138950020143056,-5.465077301528182,-3.8307499773123026
89,-5.769117171161657,-2.566082019282095,-7.559413076488009,-1.488092733839585,1.2522674366146025,-0.022842436401563616,-1.1091841241371265,-3.2197369859166973,-2.672675082178744,-5.9659811568537835,-6.35283237006509,-6.293182576971861,-5.49619254941672,-4.820972125773083
90,-5.529627874014679,-1.8389918174108655,-7.4852058808376265,-0.8004729066554261,1.659924274237953,0.34625832237755555,-1.2961694717733416,-2.280744935224964,-1.4963683501402782,-4.876016504185111,-5.537208039523047,-7.765357736998375,-4.93228242914328,-5.297253247795961
91,-4.752172167031065,-0.9378038857226955,-6.752427145919372,-0.060392069667436495,1.962490810900038,0.6865411383315787,-1.3435350573572977,-1.1446990000677169,-0.2404456449953208,-3.3268759901001146,-4.158496600953224,-8.415762045491624,-3.829223126640141,-5.1918593591140505
92,-3.530720915591598,0.04606003348484467,-5.435452190896819,0.6766352177953698,2.148757596270773,1.0047806156713384,-1.211372193177281,0.08968460492086118,0.9690256658917996,-1.4956120025444815,-2.3658360477270293,-8.193630282527833,-2.3025482272358975,-4.500274057459301
93,-2.0051033797836455,1.0086182969962407,-3.668453640087803,1.3543812494668774,2.2111368447385242,1.3041729589913051,-0.8830765526073764,1.319149910392827,2.0257789189923194,0.42102202998127597,-0.34812495737545035,-7.143481769064322,-0.5145554502871448,-3.2840395156723705
94,-0.3463482326319213,1.844657045110114,-1.6323422300818289,1.9196993043334654,2.145337773341252,1.5797823502010524,-0.37120383279003244,2.443824899644448,2.8531611826216365,2.22953860368395,1.687250577693456,-5.400083759434953,1.3440004606474123,-1.665708934435686
95,1.2621652146583162,2.460205168433257,0.4643931079418416,2.326725606293468,1.9509539142441876,1.8163884297118027,0.281273900474791,3.3743853350203517,3.408478455307182,3.760501202795875,3.5369803314530923,-3.172441233139266,3.0754758680280867,0.18380089500731658
96,2.6455922868933492,2.784507092969591,2.408799641658467,2.541120176244785,1.6328051399207737,1.9892537650724131,1.0047202399777404,4.038189766976985,3.681993681011011,4.884803780597218,5.0230928665117345,-0.7187254932712329,4.497589221734023,2.0641182856603844
97,3.6579478272342265,2.779745331553395,4.007689152650351,2.5438231053192015,1.202624247614308,2.067724953732119,1.7111646955354407,4.384177699212941,3.6915386304066833,5.523895375338014,6.0105785702428385,1.6846788312965777,5.4636795228554265,3.768347957384614
98,4.199199606111893,2.446957218363075,5.109841579443833,2.3337397746501183,0.6805271756688467,2.0210048951093023,2.30602140609654,4.386335234213709,3.4742841619983316,5.653311047967058,6.419562091272967,3.7760054633720923,5.878551677401709,5.107179467510275
99,4.226792423369586,1.8270605846402763,5.623213230391794,1.9288211885604851,0.09568748009524851,1.824989764347929,2.701447063591889,4.045527468060243,3.077472661302318,5.299782224602659,6.230940921009218,5.338564794994809,5.708065130048633,5.931115612148392
100,3.7599743880578553,0.9965860172549165,5.524804283902984,1.3651755201543636,-0.5142464068430062,1.4688313565620683,2.8293146426197384,3.389512217071342,2.5498477976400657,4.532990759987564,5.485230008497259,6.22494069202561,4.981440663859563,6.147985802133964
101,2.8762803990348025,0.05850103531725744,4.861834810976631,0.6941103903870512,-1.1052227203536427,0.959903871575282,2.6518271236434265,2.471011200876019,1.9351661444292954,3.453603398050565,4.275159813405296,6.371952080226668,3.786201054579695,5.733530290407223
102,1.7006289286486735,-0.870729151405884,3.7440875085331404,-0.022685613756285597,-1.6302857125851065,0.326115891378636,2.168147036847387,1.363828315848862,1.268622769358675,2.179511565350814,2.7332630048965783,5.804718921920925,2.256587001979058,4.733761354332101
103,0.3885285228262661,-1.6761004551576855,2.3285084963202296,-0.7193197516669968,-2.0441482776004345,-0.3850395508478807,1.416009636162816,0.15716093355203595,0.5763719373844427,0.8321844815604346,1.0161707822612878,4.629676410775304,0.5570707421942281,3.258888570076699
104,-0.8942918777916006,-2.2589670460619744,0.798226319416649,-1.3325044830471684,-2.308246791587295,-1.1107445730110008,0.46802707194069487,-1.051566563009183,-0.12230866202837587,-0.4752475587486202,-0.712424450554118,3.0178532112212113,-1.1368731982398943,1.4696849932062812
105,-1.9930391347409853,-2.5497753085568418,-0.6611031603940674,-1.8081589500352355,-2.395550607764527,-1.7799040758160596,-0.5768306050253067,-2.164828721462618,-0.8111629006208533,-1.6470507767138074,-2.2982051469401044,1.1809648350219868,-2.658344920278809,-0.44187780547691174
106,-2.782942163460514,-2.5168362303319856,-1.8843992921288022,-2.1069747032025283,-2.2943859369581805,-2.321977659579066,-1.605391081937832,-3.09340104955692,-1.472645957115793,-2.6105389534698062,-3.6103786021733164,-0.6562907897323281,-3.8666281053599203,-2.275211164427168
107,-3.1837609623366885,-2.169920565109851,-2.7466337744130707,-2.2082556324244798,-2.010647271272816,-2.6762800920225676,-2.5043724540987493,-3.7642492948651585,-2.0844165864721704,-3.3183403192369574,-4.552278076007567,-2.2840119798014955,-4.660881955475082,-3.844056523121915
108,-3.1679180208092266,-1.558230510678669,-3.1762062537801943,-2.1115806878488805,-1.5679886159583154,-2.8003427410416,-3.1744654535282644,-4.127101343199687,-2.6176576999254326,-3.747769807417097,-5.067673164716759,-3.53140660587868,-4.988554985798848,-4.996994237145177
109,-2.7613986545473197,-0.7631292649122957,-3.1606787332548514,-1.8361337591812112,-1.005872184143214,-2.6760626709703152,-3.54250092743219,-4.158983549297365,-3.037815266080957,-3.898096154362441,-5.14258809551321,-4.284747119289749,-4.8478774695149704,-5.6331138158913445
110,-2.0376019616842127,0.11324032273766399,-2.744451999225162,-1.4178490048893233,-0.375656282825688,-2.3126948429834693,-3.570108727120672,-3.8661856152633414,-3.3077946846924284,-3.7865994772866847,-4.80291623223518,-4.497066830962941,-4.2845374291162965,-5.711136882352878
111,-1.1052924574752396,0.9617596436071439,-2.0191039801871957,-0.904790521067098,0.26481769053132637,-1.7462124624700868,-3.2577957351069657,-3.283377938935224,-3.3931035107818115,-3.4442440146293594,-4.108510089546284,-4.188884380951567,-3.383330197498801,-5.251165592972407
112,-0.09256836411772595,1.6805843479975295,-1.1080956365833254,-0.35139104060722626,0.8574641403140723,-1.0351031795074106,-2.6440264887376115,-2.4699169604285363,-3.2679959000402863,-2.911593566305284,-3.1446962072596243,-3.440459266085356,-2.256116137050518,-4.32918552668917
113,0.8707758276416374,2.18787584103223,-0.14824846806053535,0.18770828073143314,1.350221797971346,-0.25320244291306343,-1.7995853574363752,-1.5037021116177236,-2.921440322932003,-2.235337634147685,-2.012306966848249,-2.3771610824202147,-1.0277672481696078,-3.0653578528550685
114,1.6700129821291292,2.431345229215442,0.7292799179328752,0.6634594367942943,1.702549639440127,0.5193984265060158,-0.8181317606678603,-0.47324650241688226,-2.361728054895421,-1.4655328808934265,-0.8173388632902095,-1.150338316317967,0.17810218503422687,-1.6078696914380646
115,2.2191520187185088,2.3934625931002604,1.4158796225639176,1.0371780611185215,1.8894611221632382,1.2060667097964184,0.19566263361916622,0.5311562471910697,-1.6187471732603806,-0.653444838331622,0.33875063221938595,0.08349601959541099,1.2519461389417281,-0.11457732397726576
116,2.4698558936592,2.0918453169712663,1.8380493781958347,1.283780226518273,1.9036212418925023,1.742608912933268,1.1387474900805634,1.4261821168062272,-0.743315417030862,0.15026520757922934,1.3672865463019857,1.1823236975692328,2.1082897362872,1.2651795814586224
117,2.414727135711994,1.5750365830666107,1.964204743118681,1.3932112849135359,1.7553080208535043,2.0843196683058363,1.9214387654499914,2.1431838973843234,0.19656993504916032,0.8973033153899345,2.198591976856409,2.034657975042602,2.6920494836296744,2.4063955766851306
118,2.0849350278117527,0.9145157797791554,1.8052212191834247,1.3700465642727522,1.4703354337805994,2.2102360000820003,2.476837141100694,2.6340466867422707,1.1222173821994659,1.543691827247769,2.7858826273303094,2.5701783624993784,2.980840647808782,3.2201115380462153
119,1.542960358080684,0.19425668027719709,1.409132974296615,1.2314858036581846,1.0863028938114685,2.124180895844209,2.7668887066732153,2.874631416976477,1.9526713364802804,2.0520019357476342,3.106805217062607,2.764069923461099,2.983473119422423,3.659940366699296
120,0.871859691211837,-0.5005958091951774,0.8512116749626905,1.0041539647603601,0.6477372284940958,1.85265817660646,2.784573702185394,2.865552667468548,2.613966517909465,2.3937861941856577,3.1627958018486653,2.6351107347169846,2.7352782498002397,3.7230724767326944
121,0.16281597507378637,-1.094349132473291,0.22120997101198028,0.7202296677067147,0.20079859647166923,1.4400908075763337,2.5522505043965706,2.6303554139072354,3.047918827054526,2.5519469514004443,2.976583070907374,2.2383956904935665,2.2912043504440662,3.4461515963140026
122,-0.49718676233269954,-1.5293244082397184,-0.3901956596895621,0.4134386789355191,-0.21177728033181106,0.9422163767592514,2.116668863356052,2.211443879177963,3.219190609563555,2.522645044086217,2.588248644941088,1.654221476733308,1.717745865236151,2.8970140078685143
123,-1.0359280527969297,-1.7713899503752173,-0.9037971226881948,0.11538715705984823,-0.5549202497496065,0.41863248837506156,1.5415405142602623,1.6643453727904167,3.1195919495546005,2.3163101209166697,2.050293311842002,0.9750162000142971,1.0847440486615745,2.163698877375451
124,-1.4035285071593964,-1.8120011043856905,-1.2614624487877673,-0.14740438898026714,-0.8042276623656069,-0.0744869898118303,0.8987823955268797,1.0510449072345343,2.768974590995818,1.9573790371763955,1.4221626593309653,0.29225782253388793,0.45795264302163824,1.3423341000318845
125,-1.5763482029062208,-1.666800466566385,-1.4318841912458933,-0.35554152031593267,-0.9474956873100283,-0.4905940934871396,0.259614301387098,0.4331885965044692,2.2125782329799213,1.4825527660097482,0.7646729395525038,-0.3148869779133917,-0.1069555009269045,0.5254803804678942
126,-1.5570835898622513,-1.3712954880021875,-1.4120404293437212,-0.4977818017681692,-0.9847448448919317,-0.7971970316826509,-0.31339494457057293,-0.13408259124273217,1.5152114574829925,0.9375910290625571,0.13475541532221513,-0.7878987441923369,-0.56851711522678,-0.20770336328117547
127,-1.3714623526200507,-0.9744741704319477,-1.2245882198902442,-0.5710778062387104,-0.9268834855339984,-0.9781191191067243,-0.7724547404299555,-0.6070350814812113,0.7531020663722968,0.3729108006600704,-0.4190958167684074,-1.0934700263111992,-0.9015743621553535,-0.7984856389793525
