,AF3,F7,F3,FC5,T7,P7,O1,O2,P8,T8,FC6,F4,F8,AF4
0,0.6458057358580717,0.42003949682766967,0.38128955443364126,0.4272660640108651,0.4936067686493399,0.1681883031205804,0.10828941770683041,-0.10171812670187236,-0.02076165278203209,-0.28461516206822063,-0.28179727989155007,-0.08027091209529562,-0.40813642556619295,-0.20607862930089893
1,-0.3113471988533717,-0.7609273592245315,1.9061764110665045,-0.587447314932476,-0.3577728871497334,-1.735677312417955,-0.8030068338365011,-0.5833769572727286,-1.0679471462053163,-1.192850468195462,-1.808441720800775,-1.739418901318871,-3.1252522704757433,-1.9455978733067245
2,-1.163566400933508,-1.7718672660257175,3.3023200014568492,-1.4961635347301292,-1.1743113350063699,-3.5003809272633837,-1.682716034080744,-1.05312259195807,-1.9994801381366714,-1.9328324736556206,-3.1029191065175135,-3.2127629351707485,-5.467845461371849,-3.507383958287425
3,-1.7781762479080543,-2.436587396591947,4.512952850694319,-2.175578903783903,-1.889593083551899,-4.982349573283783,-2.479774776475999,-1.4933341781991623,-2.739223641320804,-2.4127876285415053,-4.006725561829525,-4.304705702271751,-7.1536328286120785,-4.734199879637627
4,-2.055972902574764,-2.631147300605911,5.499528037179031,-2.533317953751542,-2.4466518995212234,-6.062785838326202,-3.145429583836407,-1.8846719511870789,-3.2337694054218438,-2.578453956748856,-4.414279734051818,-4.861835189205153,-7.98693262971492,-5.502961928719749
5,-1.9450554142200778,-2.3018514509515025,6.241360923176335,-2.51993161373927,-2.8030011183392793,-6.658060135146524,-3.6359488847210257,-2.2063045044100056,-3.4572991046249184,-2.420160572817424,-4.28645314037349,-4.7924761199894785,-7.88354357903226,-5.738516053747842
6,-1.4485411135963595,-1.4732767206174024,6.732598716717758,-2.1353004346736655,-2.9343181925610398,-6.72694550108979,-3.9155850360998836,-2.4368872836051483,-3.412966701799173,-1.9736276876948144,-3.6550291521390874,-4.079132294317209,-6.880395576829352,-5.422209267462647
7,-0.6250868518701167,-0.24527867615877486,6.9772061066141005,-1.4286402351965173,-2.8364373931813454,-6.274027220142976,-3.9595961800338384,-2.5562603869507283,-3.1306619215152285,-1.314311053107151,-2.6174522234802033,-2.7822273625100395,-5.128705860737587,-4.594150536425641
8,0.41794142747867485,1.220526576603995,6.983056874132546,-0.49214294459129865,-2.525457775000386,-5.34894805152734,-3.7570325587976545,-2.547671676784624,-2.6614855652244076,-0.5460134675308874,-1.3225684012061147,-1.034588011989289,-2.8716852383416804,-3.3487723688861686
9,1.5378491945448214,2.7228374032891645,6.7564325258474565,0.5508880527440301,-2.0359505456860147,-4.041518633403243,-3.3129238078419676,-2.400208440585665,-2.0697280237414164,0.21467149051123713,0.05066291096357758,0.9727626740590453,-0.4100228476678531,-1.8241132024057323
10,2.5748789084639094,4.048159361436868,6.2982053371804305,1.56184518038867,-1.4174321539747938,-2.473105723747606,-2.6494870754672646,-2.1110562149590506,-1.4235219243846966,0.8558622725084215,1.3184788998134331,3.0118716889320454,1.939892134594365,-0.18603064590213747
11,3.373049576557346,4.999874223453622,5.602719939756161,2.404517389061583,-0.7294366492388252,-0.7850750167638034,-1.8060169786332665,-1.687204266767623,-0.7855633047902154,1.28726319062313,2.3180303541450376,4.843696474144317,3.889044736484847,1.3907910918068371
12,3.8009166721545196,5.424902842491879,4.659917207101735,2.962425212099591,-0.03565620327468006,0.8746280340923889,-0.8372187105051745,-1.1462805172802482,-0.2053052079225768,1.4538562356241276,2.9298116873720152,6.245496614424073,5.214067165544119,2.7427576393694713
13,3.7695985086306867,5.234400732791821,3.460633611059086,3.1536151979690374,0.6022885342169276,2.3654631085002396,0.19009878552467863,-0.516310644968403,0.28619765371622113,1.3442749965675973,3.09358307435676,7.0365981948831005,5.785380703084227,3.735798912779812
14,3.245748666490732,4.4158262304359726,2.0043536528127084,2.941095343040366,1.130841956281565,3.5674591152945907,1.2018542822825002,0.16566496729328822,0.6780488527997981,0.9924892603667946,2.8155221593481583,7.099578938660756,5.581421170424497,4.28010151790946
15,2.2577734413549084,3.034955590091082,0.30810354859043,2.3376673276455895,1.5096719957963225,4.392221651901508,2.122716963630509,0.8560400893320642,0.9777049571542756,0.47243164344789196,2.165640148990341,6.394483208473395,4.687245655177927,4.339386825122958
16,0.8944203770066412,1.2278036201437814,-1.5852392305451193,1.4046250919888152,1.715457462690317,4.790644365593683,2.8827806149984845,1.5079530584930563,1.206049133248843,-0.11371500257333704,1.2659352455422117,4.964489974672755,3.278121074042025,3.9336688410600544
17,-0.7042009646441179,-0.8162525455362578,-3.6010936840446877,0.24455161479018855,1.7438876102580367,4.756513955984411,3.424190840510079,2.0751528234322647,1.3903277230223623,-0.6518510631907349,0.2711174624813415,2.932426483983017,1.590868093051707,3.1352410369623573
18,-2.3621732579768318,-2.877735835570813,-5.6314807213175575,-1.0108377391647023,1.609629508300207,4.325628952577768,3.7069495554282765,2.516045106258992,1.5562977033707248,-1.0344461333165478,-0.6551814450123957,0.48853881141072936,-0.11254866690226385,2.0584807726250127
19,-3.8880915616846923,-4.733562189430013,-7.53868786656838,-2.2162735439373766,1.3442304899758355,3.57053843089375,3.7131494156244296,2.79750899361137,1.7210536255200508,-1.1783318326720384,-1.3651610594521466,-2.1291128932529806,-1.5836809266318697,0.8448193335449815
20,-5.097738293320204,-6.183316867721584,-9.164721879162599,-3.2300188100700598,0.992151920213387,2.5914959061423803,3.4490333233614168,2.898078331878655,1.8878620365619339,-1.0390150057960523,-1.7489112088101681,-4.659474567816036,-2.6228332192700887,-0.35518923029422456
21,-5.836388802625758,-7.072046395029099,-10.346040093923609,-3.9304107807731725,0.605349552325781,1.5046605192765095,2.944520032657089,2.8101277992658757,2.0439623487088316,-0.6192152844656365,-1.7505551791313183,-6.8458277871776785,-3.1058752889017773,-1.400429591678259
22,-5.998038862373448,-7.306900043113285,-10.93209791005494,-4.2299172980793465,0.23699669611867422,0.42890701713835416,2.2501555727745832,2.5407925808508747,2.161769701206641,0.029820014573547198,-1.3761581412973174,-8.462675136507102,-2.99902299691009,-2.176096489897985
23,-5.539190598645409,-6.865873761655668,-10.805444119127538,-4.085109318220804,-0.06493632472146622,-0.527222199059968,1.431794108012701,2.1114801654474533,2.203332776227619,0.8145914949800818,-0.6923105382990348,-9.33930081450247,-2.3598585423594622,-2.606796476802817
24,-4.485469429228011,-5.798003043235454,-9.900585886993083,-3.5014752627655255,-0.2634980412812295,-1.276909969981962,0.5636253595971966,1.5559908720384084,2.127351978418388,1.6124344882002755,0.18433091807468321,-9.377509707252257,-1.3249273876209955,-2.664301306671457
25,-2.9301962491392586,-4.215460409122088,-8.21873811336436,-2.5326388992396662,-0.33727325241977363,-1.7635080177272533,-0.27960286600721806,0.9174290228585755,1.8976289084876907,2.2895912535820537,1.104943209443676,-8.561700904663718,-0.08619451230588333,-2.369075718337406
26,-1.0250037358031676,-2.278986468363366,-5.835912666221149,-1.2742079793367118,-0.28304710582829684,-1.9651268132210244,-1.030207478787183,0.2442328546719077,1.4915529396015679,2.721647700955235,1.9111990614209553,-6.960281108692369,1.1398104082967138,-1.7855195007505904
27,1.036454651715388,-0.17879847373314597,-2.9025633200833214,0.1469072697908681,-0.11626846073531757,-1.8949700872105106,-1.6341062949422196,-0.414245517566934,0.9071706488246978,2.81328856781923,2.4593284427167883,-4.718373359452699,2.1453907395604865,-1.011689815357995
28,3.039820115744993,1.8865009516184181,0.36591913719097563,1.5863819313579413,0.13078331533722246,-1.5975519977583839,-2.0554957698778873,-1.0121319779118405,0.16754482597678735,2.5143455656399225,2.6420266224800577,-2.0427163629583416,2.76264452549475,-0.1649901126422811
29,4.7738840395970525,3.73047465657949,3.7073276797829005,2.8979431951334766,0.41295870109506194,-1.1414316438686043,-2.2791624764122496,-1.5109272901121678,-0.6785196197687152,1.8295972585155569,2.404991341387335,0.8195304544901476,2.8875393725439413,0.6341757538485132
30,6.054205705807697,5.196633178950318,6.837624144617111,3.9486927896808712,0.6779071754237126,-0.6094882383867383,-2.310247143843568,-1.8825068869180885,-1.5597743749700181,0.8206701508403041,1.7556844689332025,3.6057518615741326,2.4938161255447944,1.2785516314915566
31,6.743758876526608,6.1717801814005195,9.480017912227922,4.632666317003354,0.872829416163203,-0.08800043512121164,-2.171624046124763,-2.1109325433260326,-2.3896324820487784,-0.4004435674064485,0.7630774214288917,6.063947885989595,1.635043598584907,1.6878188706669095
32,6.768241700145639,6.59394925956748,11.394695090626477,4.881283204459904,0.9515419433474315,0.3441315746644715,-1.8993737354051587,-2.192929810870338,-3.0762640032644515,-1.6854739973819797,-0.4515254347026104,7.977202791284521,0.4349383483257275,1.818232100710564
33,6.124323338019793,6.454677413277631,12.405533179970833,4.669733416459472,0.8810191304503048,0.6247695708576873,-1.5370690390795256,-2.137044802406769,-3.5343703265546016,-2.8696252238547735,-1.73118656038472,9.184087473990564,-0.9322302571165609,1.6669121859843985
34,4.879928911572862,5.7959998072716585,12.420407016837604,4.018806126159028,0.6466044879045678,0.7155021269015309,-1.129727751170328,-1.9616481140343736,-3.697002286130019,-3.794165314847944,-2.905079600359969,9.593023862603525,-2.2679561848810184,1.2703713666148275
35,3.1665802958356957,4.703041852292855,11.442427323816808,2.9921389183081093,0.2552020051620123,0.605495725032291,-0.7182927894706477,-1.6920852415730876,-3.5256984237818556,-4.32857361521327,-3.812105494523521,9.1893175060006,-3.378491469139527,0.6976559451126981
36,1.1647076329622381,3.293392673886767,9.570558958713006,1.6893083861608393,-0.26404043314029724,0.31192178044054747,-0.3353825571952521,-1.3573670737091676,-3.01739337118535,-4.389017031630585,-4.3229981927637615,8.03434866323502,-4.1022576932171155,0.03923271417455347
37,-0.9163709751432862,1.7045693038851417,6.989395793797266,0.23555965213788735,-0.861776808593327,-0.12295568258495054,-0.0028268980723075454,-0.9868374618228676,-2.2069667641312884,-3.950480340564101,-4.357832419240343,6.257223495999242,-4.331827214850005,-0.6066853911607427
38,-2.861514723484032,0.08085314287160958,3.949244788654252,-1.2307407216589648,-1.4731504645233082,-0.6375803070476649,0.26880223197399006,-0.6072382087786657,-1.1649082452476869,-3.0508332281614874,-3.8965823692599226,4.039949666390138,-4.027580977975051,-1.1483564333754746
39,-4.473248090168602,-1.4393570477176654,0.7389051392592695,-2.5716641466583776,-2.024716133368674,-1.1590360509527047,0.4787947676784557,-0.24051517756405993,0.009730854982422567,-1.7863167777510334,-2.981432460803948,1.5978419610654553,-3.221472008527947,-1.5132184737288248
40,-5.593010730347071,-2.734735479444727,-2.345552697362014,-3.6629676646657328,-2.442895302252691,-1.6121443380204914,0.6334815407810853,0.09741488236065397,1.2002498517990559,-0.29918239958598924,-1.7107449217833628,-0.8426847173994186,-2.0108036482683973,-1.6573031770957112
41,-6.117780642194234,-3.710057278760886,-5.032226420154047,-4.405771224904681,-2.6630335148073323,-1.928658756656203,0.7426527027054194,0.39686669721404866,2.285664242580382,1.2406721646687233,-0.2257652142850751,-3.066567594155344,-0.5433505809805197,-1.5700933710549798
42,-6.010236932862123,-4.302592455650672,-7.101283813332063,-4.735588467082866,-2.6379946169187587,-2.055512166343708,0.815976260776312,0.6536393398995988,3.1547556500140095,2.6574141775221567,1.307877023948176,-4.89047735733433,1.0036932621765098,-1.2742756509235469
43,-5.301396397295133,-4.485606892475206,-8.406086496223546,-4.627912092075988,-2.345212713331337,-1.9612060160362186,0.8601328144683152,0.867535362694797,3.7189432888002965,3.7912844101411483,2.7211776373016017,-6.179107508315249,2.447721817411289,-0.8206228957237849
44,-4.08554374121821,-4.268896239244006,-8.885220600446816,-4.0998962026242785,-1.7912383908967011,-1.639660470124265,0.8772097721513498,1.0404642838499327,3.9223019997555912,4.517924275134299,3.862371738432487,-6.8558465576096985,3.6242365523843336,-0.2789721765568336
45,-2.5081755553770333,-3.696443939271194,-8.564324446617633,-3.208050887094234,-1.013059243234409,-1.1111400472249995,0.8646296714966264,1.174504856536868,3.7474882894334307,4.7625522787984975,4.6144646226693995,-6.906949631348865,4.406722120306717,0.2731710713645501
46,-0.7484894248754844,-2.8414525491703255,-7.547919431619675,-2.0422363802484655,-0.07582796778430156,-0.42019950785397076,0.8165701754373642,1.2702999853311048,3.216942495002827,4.5073649886546745,4.9075813012616605,-6.37904890005439,4.720438378854983,0.7625545899705524
47,1.0014277696211524,-1.7991529361126846,-6.002695840978728,-0.7165834551623075,0.9329415522421438,0.3690792379692977,0.7265249063835585,1.3260969906319005,2.3894072917962483,3.791564623220352,4.724878375171507,-5.370569380300119,4.54870020951928,1.13075499151797
48,2.558206188321015,-0.6779434563746121,-4.134712972930354,0.6417558362878668,1.9122001065592764,1.180000927512515,0.5904113183858724,1.3376298278543195,1.352428774150322,2.7044532937908103,4.101713484767521,-4.018265180960716,3.9313529047673965,1.3418072057045551
49,3.7670520212190355,0.41046025077334947,-2.163615563785988,1.904930671017812,2.7582884085724584,1.9315407137656795,0.4095000770172964,1.298884371441271,0.2119891534140755,1.3729242092991896,3.11867798776556,-2.4805861145256416,2.9562376475095316,1.3858074595848968
50,4.51759755950306,1.3610878477980426,-0.2971748207237242,2.956599934442262,3.3767234463849842,2.547080782326938,0.19244750269321648,1.2036179311322102,-0.9193037220690066,-0.05469743461683847,1.8898376035003681,-0.9198695544761557,1.7453249102179251,1.2780926785389068
51,4.75403496763926,2.085162940598619,1.2907759077863141,3.7028586925246976,3.6934388077610825,2.962647220330948,-0.04413672887107531,1.047350464588293,-1.9339961644160504,-1.4262219619718106,0.5480062177573441,0.5146051587814484,0.4377640782174585,1.054333231955442
52,4.47857895650567,2.5181241782798836,2.4765702238631047,4.080843969435892,3.6640804860215956,3.133761456582018,-0.27688209548851955,0.8294366717431597,-2.7402237009284045,-2.602378006507746,-0.7709352451742377,1.7008676190391687,-0.8276962336555235,0.7625418839321174
53,3.748156361745396,2.6254909522673695,3.1955769166945975,4.064210066057187,3.280150160436081,3.0401761854993192,-0.4785587772327291,0.5547868891469679,-3.2698037374258173,-3.4709527543619596,-1.9427570086532666,2.5544059161572954,-1.9286131348860573,0.45349366048729384
54,2.665062447952281,2.406007406397249,3.4432412548621065,3.6649726045262363,2.571139794829602,2.6879896047876017,-0.6222803006082994,0.23484191249134082,-3.4833875093197544,-3.9569610533739947,-2.867041939927071,3.033393808896503,-2.771224335057686,0.17129230577099028
55,1.3630410413253653,1.891726919448107,3.2688815757597083,2.9315819058038586,1.6022743462070765,2.1089047975968684,-0.6863006674838749,-0.11247842810451607,-3.372478482133904,-4.028130733615059,-3.47567634476446,3.138833002892459,-3.2980913937756093,-0.05423027835701475
56,-0.00926181934509958,1.1449727376444965,2.7637123253408435,1.9434645610344892,0.46801713558645264,1.3567038958315918,-0.6585192608199606,-0.46395777099577573,-2.9584760263311924,-3.695598096584791,-3.7371085891957425,2.9100791769310215,-3.490559305045895,-0.21193312871611647
57,-1.3053189968407253,0.25239893210225206,2.04517632534285,0.8026258753155582,-0.7179727845796439,0.5013152805214001,-0.5397869690748484,-0.793297520646118,-2.289166297690154,-3.010232300216055,-3.6563610337762102,2.4167311666766524,-3.3663151739946144,-0.30983519486715133
58,-2.396170320087012,-0.6833511233903539,1.2399360713931074,-0.3768040894287979,-1.8352810170645648,-0.3788634137914485,-0.34526048509087914,-1.0740696513100387,-1.4332436949710632,-2.0554005945614673,-3.2712557647826923,1.748187997837541,-2.9729484217164868,-0.3715935019773448
59,-3.182623228135405,-1.5536597143317998,0.4677899717126906,-1.4800021137591268,-2.770102501285591,-1.2054972086649247,-0.10335838334341997,-1.2829665431524944,-0.47350924202091904,-0.9372208420122689,-2.6456686930641364,1.0022920382063973,-2.378840676334346,-0.4296959381211957
60,-3.6030987732095845,-2.2547234333872703,-0.17160603583285455,-2.402699430195378,-3.427919134330892,-1.908677626580153,0.14771809057508317,-1.4028302865970306,0.500625265464928,0.22657612321858797,-1.8608340383054087,0.2743902099887314,-1.6629011713646038,-0.5166993135744429
61,-3.6366785441849454,-2.698121131798401,-0.6079304791322744,-3.0611222284350976,-3.7439503309539233,-2.4340856624740965,0.3654952377056608,-1.4249548271715444,1.400766019066053,1.318104577772707,-1.0057827887022666,-0.3520991930896654,-0.9046116311567022,-0.6562316135014883
62,-3.301562832089857,-2.820159314749794,-0.8047266918626563,-3.3996579817116457,-3.6901128530153526,-2.748054623614199,0.5099679701472394,-1.35025547668896,2.1468197325715024,2.230166502861158,-0.16793747929746655,-0.8128681019174808,-0.17559103741025708,-0.8555579843811155
63,-2.649702266014943,-2.5890788587660993,-0.7593939425295834,-3.3955361894519855,-3.2776733185507196,-2.83990769595436,0.5504932385612077,-1.1890809521485153,2.673519074755847,2.8757095550998724,0.5752646509998234,-1.067273175727392,0.4665009255200989,-1.1012659259556161
64,-1.7587396015639793,-2.009381295559172,-0.49934370067961414,-3.060135499789884,-2.5553316591474973,-2.7213260659362204,0.47165413415264695,-0.9596746953219628,2.9358232164457365,3.1952994157461316,1.1630546133663255,-1.1002229887277621,0.9813587009386641,-1.3590922250448667
65,-0.7225518548378443,-1.1227769870739552,-0.07540926059858068,-2.4368795996942807,-1.6030540381996257,-2.42293084308233,0.27701725628205986,-0.6855302920414386,2.9128526746175285,3.1621630830876484,1.555889764951221,-0.9216106372595816,1.3468076836720009,-1.5781763722125637
66,0.3583852420982785,-0.005545164536445391,0.4462541416972188,-1.596022944702043,-0.5224964111547257,-1.9886672122867586,-0.009989054819474437,-0.39208246900711824,2.6100475971941797,2.7845049996928832,1.7376909653297063,-0.5636572600072024,1.5574166685915445,-1.699207207229295
67,1.3858332293265905,1.2375946886416596,0.9926121961688112,-0.6269249442114755,0.5747414457186791,-1.4689017553209867,-0.34839353590177513,-0.10329320174007582,2.0592873204054833,2.104931403684573,1.7157708040213608,-0.07659764812998465,1.6216366608970074,-1.6651795906864892
68,2.271194638725554,2.482684937673982,1.491604681188113,0.37135460828449723,1.5795617486443194,-0.9133339234176205,-0.6849937723646137,0.16128971349994814,1.316787701282559,1.1969467965824356,1.518628480836431,0.4768509723077124,1.5582310303747142,-1.432936834082178
69,2.941211387424203,3.5980860764975433,1.878796214875472,1.3001555833368497,2.3970078540834043,-0.36484063670890116,-0.961956944350592,0.3885126057193801,0.45871470954436877,0.15862905033457958,1.1919053911287443,1.0278082655681053,1.3926802681434207,-0.9834434852506311
70,3.3419840039176765,4.457399654078426,2.102537196942924,2.07097917842097,2.9557480011060524,0.1447991421992246,-1.1256094923455517,0.5723267235806186,-0.4253706008200828,-0.896230918692029,0.7928813759712127,1.50791648542109,1.1540461309421826,-0.32885686321030816
71,3.4415215714353935,4.952566481157606,2.1276081416716823,2.6139323392646956,3.2143823666156623,0.5966968395949603,-1.1350881414283844,0.7131627327086728,-1.2408924818053617,-1.8490132314814904,0.3839603501990735,1.8559559192266197,0.8725217813316007,0.48506847546796567
72,3.2310798583978837,5.005839735977968,1.9374734721755413,2.884031091808813,3.164000670417428,0.9840197210474702,-0.9695032961418878,0.8161546319562603,-1.8978639410499922,-2.5884032668768513,0.02565852027538581,2.023919595927608,0.5776413650801393,1.3819723679073765
73,2.7254769139117636,4.579347801727548,1.5353098492587163,2.864779812320402,2.8269232490295373,1.3088773006148253,-0.6324532539266471,0.8886167329198291,-2.3208530189219854,-3.022732216961571,-0.23032376310615246,1.9820475427070525,0.29693816609468127,2.2631214846957324
74,1.9624394178849272,3.681119481816843,0.943923605408452,2.568745900538316,2.2520496909104444,1.577708820035904,-0.15309520154424694,0.9373202817389196,-2.4582380876073833,-3.0912491234428385,-0.3473002874084737,1.722326022632398,0.05476994585647078,3.019847555493376
75,1.0008840722162027,2.3667412116706767,0.20457213762065768,2.0351771580929365,1.507644063465361,1.7962378263581675,0.4165251492073361,0.9661542367650413,-2.289565655395195,-2.772923967439137,-0.3083852842219719,1.2600164448066853,-0.1289196888332313,3.548428419554875
76,-0.08207102985327913,0.7362269398666482,-0.6253964807930987,1.3250210663444668,0.6726464895000911,1.9651385543021425,1.0076278668384921,0.9746739756196248,-1.8298699585087352,-2.0914304254166973,-0.11921879779187901,0.6329002454051645,-0.23999516154773273,3.7651922817189156
77,-1.1955924987474498,-1.0738326667164153,-1.4762209722137434,0.5139649539768983,-0.1723121529979063,2.0774107728337325,1.5435445749782502,0.9578547220145607,-1.1300525764320637,-1.1152272320069352,0.19188246419304023,-0.10188754065561537,-0.2715917203116701,3.6195190036062463
78,-2.2412477636555677,-2.9022630733168175,-2.2708126580550645,-0.3157023806808588,-0.9530991528400742,2.1181115066131295,1.950030774221094,0.9071136225934971,-0.2728464868202756,0.04784498911851082,0.5766145307949457,-0.8733174162242561,-0.22540002120113128,3.1026790333262038
79,-3.1206707856541374,-4.578380682429614,-2.9311866103220288,-1.0835195000261102,-1.6086037526418355,2.066609874011726,2.1655622002854464,0.8124018576647773,0.635546178232024,1.261350950664074,0.9721403273207506,-1.6038131834387437,-0.11242562014842299,2.251048989382598
80,-3.7443950313096095,-5.938696108372321,-3.3859273599704838,-1.718694750476175,-2.095045056060821,1.901008713658974,2.150100594843744,0.6649505955123697,1.4774322955408465,2.375552760987658,1.308845284468026,-2.2177946359120364,0.047137174603881477,1.143076405806514
81,-4.041133772189885,-6.8435381277078475,-3.5780833091747417,-2.166588550564521,-2.3878680015108977,1.6039161149987047,1.8910243447371489,0.46012311731930855,2.13793459366354,3.2455801083604694,1.5195614786814273,-2.6504744362083184,0.22520117238274268,-0.10969477470164582
82,-3.966487625276239,-7.1918150506351415,-3.472610080631072,-2.3932409491524984,-2.4813670867069018,1.1684399379098909,1.4053449178827584,0.19980180675738524,2.519904731514332,3.750269607276357,1.5491418632319198,-2.8558154220367364,0.38837983732032416,-1.3763248969948048
83,-3.5098798176690855,-6.932257960641043,-3.0623083297978835,-2.3875838174364947,-2.386449418735443,0.6031749701338308,0.7379007627407378,-0.10617752705759675,2.5575009267034616,3.809158735397673,1.3631161626678467,-2.812542353031753,0.5017897810566482,-2.5229688922451126
84,-2.6985319494011453,-6.069822794590963,-2.371194557426102,-2.1612410445439854,-2.127126797836407,-0.06492715266244516,-0.04416338342825479,-0.43986185944657735,2.2265266282239033,3.395161787352148,0.954176504951955,-2.5272603531918407,0.5337258585452883,-3.429791648926954
85,-1.5975301613464779,-4.666437931344035,-1.4544425982081928,-1.7460853972326418,-1.736396420051468,-0.7905895322185736,-0.8597694057413322,-0.7763855829052999,1.5499309549618445,2.540867872079963,0.3454346430041548,-2.0340628954585376,0.46063691313834315,-4.005884681785408
86,-0.3054758628076071,-2.835913047285195,-0.3944328328743922,-1.1899551390727618,-1.2521324185528744,-1.5134476313703218,-1.6238695143978414,-1.0864111536331922,0.597419252125188,1.3371540678884,-0.41024616489067134,-1.3904828656225312,0.2716587268015469,-4.200081058652832
87,1.0541973751566325,-0.7334922597186321,0.7070076334214549,-0.5511061933767837,-0.7134824612897056,-2.1642421536072765,-2.2575579843928755,-1.3394701411009733,-0.5211418699085941,-0.07618440405514065,-1.235046036073779,-0.6701844012821213,-0.02809745790706404,-4.006210326531581
88,2.3455224170737274,1.4588513506014067,1.7394881957237966,0.10793491664062335,-0.15807570041292054,-2.6731818502167544,-2.696945108604526,-1.5077240307011648,-1.6680047741747117,-1.5269532542414066,-2.0347405035504877,0.046680706243750564,-0.4162153794810409,-3.462192761905009
89,3.4346125267123107,3.5498061193032204,2.596824035096044,0.7264514168028509,0.37985917825672416,-2.979274693750391,-2.8996807178842574,-1.5695986294192243,-2.694166918789163,-2.8323033837186258,-2.710075459813002,0.6841166427495967,-0.8540824602281356,-2.6433008629250536
90,4.204860666777284,5.356945329173201,3.190054008916007,1.2509613174301206,0.8705527337515193,-3.0392057603150966,-2.8484465077009395,-1.5127683823455054,-3.4583271916893756,-3.8229008693314106,-3.169564524220441,1.180374072928909,-1.2905627241836555,-1.6507688636286666
91,4.570792703761755,6.723881705609869,3.458899923632745,1.6395324531087794,1.2891482662295342,-2.8343563824960976,-2.551243323243372,-1.336070630034613,-3.8457312549420695,-4.3662140290173115,-3.3420210158990074,1.495959276040894,-1.6679444269679513,-0.5975764894052016
92,4.488716970770552,7.5346241154282945,3.3799660983456747,1.8646981451740767,1.6158264771233128,-2.3748068058260374,-2.0387850729606876,-1.0500928868722157,-3.784358633495505,-4.3855650952955205,-3.1870784924333995,1.6183131758520166,-1.9294653003980922,0.40642760521580573
93,3.962668937582872,7.7237720681766,2.9703634251393565,1.9148566200551431,1.8358623964534382,-1.6995983779203954,-1.3596870434070898,-0.6763661164754651,-3.256143332700482,-3.872046026224448,-2.702139497289288,1.5624142244619548,-2.027391756846693,1.2679114565423621
94,3.044746726147392,7.281681017124013,2.286060946484412,1.7941958097430915,1.9397986621165193,-0.8730788684286612,-0.5743462973344894,-0.24528103228447165,-2.3014899995060523,-2.88730594697088,-1.9246065160374193,1.3672070883326097,-1.930448921151593,1.9201532201184377
95,1.8296805956804971,6.25428747624248,1.4150268344807262,1.5213122954875795,1.9238026599216398,0.022266874084231524,0.2515574198594189,0.2070008219490714,-1.0161947228967392,-1.55647515293624,-0.9288516578384124,1.0884380610204611,-1.6294125852355588,2.3286477561020322
96,0.44425620603139315,4.737822666175437,0.46599388319472496,1.1267778393136083,1.7901468602394168,0.8955709177242434,1.0531331686079215,0.6422569398547919,0.45909466661672155,-0.051929572437565456,0.18189568349741395,0.7890626657793515,-1.1398966045495242,2.4917759998865487
97,-0.9671043066591798,2.869108431614964,-0.4456567365475951,0.6499475749348171,1.5476423099958674,1.6585913352281596,1.7713380605212155,1.0240871391569937,1.955679133436933,1.4299950281740217,1.2878187622671178,0.528775277549375,-0.5017730144497703,2.4368415632560043
98,-2.2588036032620966,0.8124859846899363,-1.2129589136885743,0.135309200151788,1.2117933636442142,2.2364426263989263,2.356706842521203,1.3215136064913795,3.2977320746358703,2.6960895531780755,2.2673674194933775,0.3543326127391816,0.2248211296731858,2.2124347060191907
99,-3.3005243115989407,-1.255335457036845,-1.7512772329466797,-0.37134279780487534,0.8044468608573891,2.5765458804467856,2.771695756946031,1.511887824041909,4.324557486409184,3.5832379533027257,3.012684921199896,0.2921922839755798,0.9664022349581742,1.8785587286330794
100,-3.9916509338307655,-3.1611065370688527,-2.0091203763245575,-0.8266461878067736,0.3527829005386772,2.6545648240554742,2.9917984547722036,1.5827929409823092,4.911147868008362,3.9812720866570883,3.443455592872969,0.34459993121827565,1.6450428269385404,1.4961942366217529
101,-4.271913548418058,-4.750136704376239,-1.9743208473297256,-1.1930839141607839,-0.1123812534163424,2.4765521903883276,3.0057273516867222,1.532768551988331,4.9842138191398,3.8482846081548425,3.5172102428309486,0.48970365446893704,2.188021109840323,1.1179580025211717
102,-4.127013616401809,-5.8993643676894605,-1.6746989813996445,-1.44185394721933,-0.5588606108795761,2.0771009132,2.8149957017543676,1.3708447164200148,4.531489094047014,3.2160839475118954,3.234620139915413,0.6856426793538869,2.536882297993695,0.7812443398623466
103,-3.5886560589770022,-6.527301781529406,-1.1731168125267866,-1.5550066721625662,-0.955708852302416,1.5138800919685944,2.4331868221355433,1.1150292032343745,3.603073070977766,2.1849684756365497,2.6390296026385225,0.8779420197233695,2.654680013847104,0.50476154195835
104,-2.729147354692906,-6.600046116627191,-0.5576434515682354,-1.526698835348621,-1.2758505312784738,0.8594408642603825,1.885077972241289,0.7900192740834856,2.304703891712921,0.9086250643295718,1.8103056311259005,1.009031236394334,2.5304406037865435,0.288767632614148
105,-1.651425460576615,-6.132902119767819,0.07172048638415432,-1.363465536708505,-1.4984143552780598,0.1915257359362461,1.2056318739311531,0.4244836718066018,0.7839809009180823,-0.4285461463767129,0.8538907868161201,1.028365696817102,2.1802870032804758,0.11866560774618103
106,-0.47596207191947665,-5.187557033971788,0.6177897706291258,-1.083477910654804,-1.610487008065826,-0.41673787185516314,0.43872229551605424,0.04827084262923322,-0.7884950640279937,-1.6382529347077406,-0.11338590739152804,0.9015191935801877,1.6451123864545347,-0.028951728361065434
107,0.6736646287947814,-3.865152334897267,1.0002151396692176,-0.7148305115186997,-1.6080936561550956,-0.905440961403245,-0.36463292607708675,-0.31014929198080327,-2.240451730046285,-2.5552659194604925,-0.9787463007346296,0.6167656237854194,0.985150853898358,-0.17910998130451455
108,1.6846427680713412,-2.295968210432866,1.166693938598376,-0.2929821795058291,-1.4963186393964887,-1.2342196988190726,-1.1487613006765023,-0.6257918018412127,-3.418874669963834,-3.060530999736444,-1.647999677910816,0.18806219111506095,0.27220232380759213,-0.35155856923862255
109,2.466557378007146,-0.6267338611205189,1.0997345683436264,0.14245213899573542,-1.2885854739683362,-1.3856110125858574,-1.8566775622632432,-0.8786968629458463,-4.2078084004087035,-3.0970989113794354,-2.057174334015977,-0.34607067174144374,-0.4194156365898585,-0.5554826148123347
110,2.9595249775130763,0.9932285479300789,0.8180498993307163,0.5513014271226792,-1.005203258591941,-1.3651920824738706,-2.4342233039988277,-1.0548828439371638,-4.540812848506134,-2.6766579864720534,-2.179665144251318,-0.927604087348314,-1.0219403387079748,-0.7867530897331259
111,3.138157041095177,2.425734762630096,0.37250871676120334,0.8965304976370091,-0.6713514157306498,-1.198713413074944,-2.8347259405634064,-1.1467603423714714,-4.406654868590867,-1.8758972734192052,-2.0279700946247026,-1.4871769341309726,-1.4820124988396999,-1.0281127277933964
112,3.011286551325788,3.556077045287811,-0.16257852259926117,1.1476981896563416,-0.3147184951830053,-0.9268335584103659,-3.0236940606560863,-1.1530932140465957,-3.8477797015432293,-0.8234640664029769,-1.6498816827526692,-1.9540799114981866,-1.7662434601776502,-1.2521202898557304
113,2.617929602877959,4.302831667266152,-0.7013668313833249,1.2838510178983098,0.036964272040086676,-0.5983538428108492,-2.9829332549487275,-1.0786023056086822,-2.9521049920889384,0.32032080973704785,-1.1198208313933764,-2.2664656717504132,-1.8638057173684728,-1.4261760606100964
114,2.0203520533205097,4.6242251543139945,-1.1596670754227312,1.2955441317863776,0.35825065773617754,-0.2629974608201289,-2.7134385586671086,-0.9332953437768277,-1.8395674220153548,1.387778905750356,-0.5267253088431751,-2.3802083674638044,-1.7858270456648992,-1.5186152330674014
115,1.2953407687160967,4.520471018257235,-1.4673887601364106,1.1857408414213404,0.6279485337148759,0.03523553897379035,-2.2365071749793333,-0.7315810213873051,-0.645499407250898,2.228474423384256,0.039589660032655745,-2.275101482013653,-1.5618725427486502,-1.5047272141470251
116,0.5248432834061946,4.0318850073372285,-1.5783997152556697,0.9694416328577462,0.8305634908113924,0.26326774240357287,-1.5927083528435626,-0.49119738538025687,0.49677038065045964,2.7304069913380324,0.5014844207725843,-1.9575475891186416,-1.234238095152445,-1.3716377076789281
117,-0.21293949212951682,3.233022183245917,-1.4764339542506772,0.6720273842886817,0.9571226317535516,0.40210616006132416,-0.8386207876271284,-0.23196658359062655,1.4717447317003802,2.834731611414521,0.8039948464942366,-1.4594678296207464,-0.8510772470833715,-1.1212432525458973
118,-0.8511133946402718,2.223504412322432,-1.1763366192490414,0.32645388171938405,1.0053602326202085,0.44771685089645075,-0.04156293120906318,0.025608889168887292,2.1940425574963474,2.5420252232070144,0.9212746223968302,-0.8337436263631489,-0.4594968519545402,-0.7707586012184379
119,-1.339671443147938,1.1165701965306118,-0.7206753608272409,-0.030415255137452423,0.9793127070531932,0.40971405089132007,0.7271515086743485,0.26186515740356053,2.6157980910122864,1.909479485748245,0.8581701675083551,-0.14700410170684297,-0.0996740504225263,-0.35085521031577455
120,-1.6487514091758149,0.026633922092249355,-0.1724497189725997,-0.36192545553759664,0.8884191407797929,0.3082719831987226,1.3996543480034471,0.45952209842231667,2.728606181594749,1.0398151769107271,0.6469289721550469,0.5290871114137444,0.1992105969161166,0.09823954160660381
121,-1.7695069165971955,-0.9427476927424251,0.39481591084866763,-0.635708869930419,0.7462541640643738,0.16988663468022375,1.918739766384977,0.6051187499319208,2.5602436026240696,0.06396053835265475,0.33983128407523616,1.1267560533988912,0.42080819861032004,0.5320103470334583
122,-1.7127709594287246,-1.7091581553506432,0.9079827493620231,-0.8272201462745385,0.5690337069189967,0.022719890108281966,2.243927435365314,0.6901739915473348,2.1671011865360215,-0.879580369002199,-0.0008316557138252587,1.590034163831901,0.5612136222256042,0.9074449365706961
123,-1.5058781065278428,-2.218724896233123,1.3045372842328609,-0.9222827547096973,0.37403597541263084,-0.10775508516963087,2.3555728912000315,0.7119102459217256,1.6237768525805987,-1.6653522098760332,-0.3136370199937684,1.8806886460845407,0.6267515202797657,1.1884791675153352
124,-1.1881364287969902,-2.4498692659796397,1.5406889588439079,-0.9183168420780703,0.17807504265554913,-0.2022037158054168,2.2564829457008897,0.6734169318596893,1.011543996904843,-2.1983959969612297,-0.5479158538270199,1.981549981398863,0.6306144601868902,1.3503416954944052
125,-0.805507935687512,-2.413079878758907,1.596275732400963,-0.8240892405576579,-0.0038468033637103207,-0.24956073151543742,1.970838147252909,0.5831989055996025,0.4074004356196312,-2.425997472104715,-0.6710571358832739,1.8970286802645446,0.5891559676691775,1.3822617072390961
126,-0.4050805193028656,-2.1468902071689007,1.4759802626536151,-0.6580283771292978,-0.15960376633776757,-0.24765989602814967,1.5405978405106717,0.45413848179550204,-0.12486250389380618,-2.3422473809424353,-0.6721769760989036,1.6510042558372229,0.5185904569516888,1.2882719610113098
127,-0.02990380125898225,-1.7107368530732607,1.2069418561403036,-0.4453540988050931,-0.28065828047519514,-0.20242501027505766,1.019903861912919,0.30198152396688216,-0.5405915254383683,-1.9851633986992043,-0.5618008891611406,1.282584091106001,0.4326469163486646,1.0861084252679054
