,AF3,F7,F3,FC5,T7,P7,O1,O2,P8,T8,FC6,F4,F8,AF4
0,-0.28454423479094487,-0.9718467773956664,0.09776563622437867,-0.46634051838427815,-0.17078479713621428,0.16741125802703594,0.63661035670832,0.28210448742370375,0.5018277584162636,0.7869018584588542,0.6145025510067246,0.23349274023682956,0.08528642234414911,0.19382552049967017
1,-1.6927949471592276,-0.931329095540701,0.4414663857444757,-0.836576244051907,0.2917924413700338,0.19840443394728324,0.015785568429481863,0.5927445116522485,0.2810166652425393,0.128496396464341,-1.3965249458281284,-1.529189613070646,2.7720530989166097,-1.5717312163855395
2,-3.0554550436483296,-0.935445448228569,0.7381489645802216,-1.2175583974048825,0.7110498324725445,0.20643329822031498,-0.6343200330097924,0.8426144295293493,0.1253885751654154,-0.4832087464902284,-3.29589415351113,-3.2487281614911914,5.189090107679162,-3.2686890595387426
3,-4.271585703624842,-1.0124396975008263,0.9598220001595552,-1.5909993837494358,1.050350057514319,0.19357077814453585,-1.2802736650978352,0.9663740920551567,0.05557358673576006,-0.9811823161887507,-4.9046205893153045,-4.84688030394276,7.1772074244855455,-4.761559348839583
4,-5.237637994973773,-1.164954823893259,1.0868957573108262,-1.926373377539567,1.2849273019690797,0.16792501861358602,-1.8773499771791669,0.929919855346799,0.08591933223305535,-1.3099695793187691,-6.067908508679624,-6.237899962717018,8.618690608886004,-5.919460154615826
5,-5.855464863336739,-1.3678945527296904,1.1104044229223822,-2.182655350119229,1.404406111833357,0.14371540267182753,-2.370574226131604,0.7395709736138121,0.22509536715173187,-1.4306916305313373,-6.670317677457667,-7.331002444007932,9.445059041649152,-6.6275817162380735
6,-6.042263060198448,-1.5715691412769455,1.0329023381531313,-2.3128620582479553,1.4131397215870882,0.1394480231366433,-2.699682182148185,0.4417603203047602,0.4745973054830869,-1.3256544625085651,-6.647928463789276,-8.036515711968487,9.639662909949955,-6.799459771347216
7,-5.741434620797674,-1.7097414655027516,0.8679158194146172,-2.2709088825457773,1.3283655788976645,0.174389161810879,-2.807557620857497,0.11324403654574625,0.8254162344183466,-1.001971227948789,-5.996164738043695,-8.275288942865236,9.23509553496436,-6.388681386194618
8,-4.932919025781204,-1.7113803816791329,0.638030770095725,-2.0198470833639415,1.1765103905040668,0.2639858731065585,-2.6507893740485775,-0.15609222408455695,1.2539961419496726,-0.49334570873571704,-4.77218198508285,-7.990106012208666,8.306007050459462,-5.3983470458723986
9,-3.6413075732132123,-1.5142907669539034,0.37188114498388053,-1.540218556239905,0.9882659679233488,0.41520330671133265,-2.2103229226324137,-0.28413824329539406,1.7191550993131834,0.14088117945897963,-3.0911512276053346,-7.157229731967171,6.95842308657528,-3.886565446484372
10,-1.9400770443804223,-1.078416423844925,0.10044885609696663,-0.8371131105830467,0.7932537679152538,0.6228622868487415,-1.4999185634929366,-0.2166493273898732,2.161729831582739,0.820096226514313,-1.1163553323231101,-5.7959116612561745,5.3170290598544945,-1.9665149667858872
11,0.04940407376625414,-0.3965651365670491,-0.14682709002758765,0.055428470079763065,0.6151633970980861,0.8679361267548521,-0.5703385724969401,0.057888275604418005,2.508266822272315,1.4503771183094545,0.9562861743874809,-3.973808968227389,3.5120312424252202,0.19983585176803498
12,2.164857239994239,0.4993942555252044,-0.34561613750234993,1.073744193911977,0.46817086300399685,1.1184232656531259,0.492157356619526,0.5019863713619533,2.679204521887476,1.9355682108704055,2.9179192616397276,-1.8067484041458137,1.6671373318030849,2.414458708001031
13,4.216034203062243,1.5381936146289659,-0.479472264944278,2.12821718758077,0.35522489731562373,1.332920840694929,1.5734457162240618,1.0331022109206995,2.600866131210482,2.1902653437320123,4.568694912632748,0.5479086460415029,-0.11006542265639711,4.461631326515536
14,6.0027016098331325,2.615159181634159,-0.5414708852431535,3.1112683160734904,0.2684698577540324,1.4664856636600803,2.544619398890186,1.5373414318377217,2.2194799316999356,2.1529147980186027,5.739514686444886,2.9040528161852324,-1.7344667641960532,6.130215948138363
15,7.335907695636571,3.604036749893794,-0.5345177627358574,3.908995667361272,0.19170626567852986,1.4778945907067136,3.278794217793638,1.8904562830051392,1.5146410473404477,1.796922924029169,6.311011101036974,5.0645162733362366,-3.146147818694243,7.237391311362145
16,8.06009436727621,4.373204974903066,-0.47032605499674696,4.415154640129781,0.10443743952285406,1.337100463520359,3.6691627793042105,1.9821730136162263,0.5093402189076237,1.1377463724462658,6.227401916462165,6.841577483462406,-4.309582128219217,7.650941117030749
17,8.073233787772548,4.804067209959213,-0.3672402579923505,4.545686287616997,-0.013227565453969907,1.0315812515507503,3.6454764079993613,1.7391609323882642,-0.7259865292630497,0.23440622099511002,5.503402837954636,8.077656232213416,-5.20991363653313,7.307144775850774
18,7.34215794650419,4.808946977742604,-0.24724023416901858,4.251742598269967,-0.17570063952304507,0.5704146014438719,3.1862748295574055,1.1421511573425753,-2.077022693513489,-0.8153245558629038,4.22319123852522,8.663423775984468,-5.847269205375271,6.221667099116501
19,5.91065025211541,4.345734507711239,-0.13256302815005377,3.5291866081789234,-0.3879621922397054,-0.01474695434232409,2.3247772438432768,0.23377809110757006,-3.3970542118916986,-1.8858094711434668,2.5313724892237026,8.550816192367252,-6.230293897269061,4.4915762769858985
20,3.898661189206948,3.426878651364525,-0.04242152913723485,2.4228876079668678,-0.6432714643059817,-0.6721322877234263,1.1472925330262496,-0.8845634185800648,-4.525176036260342,-2.8392435253821557,0.6168811640038625,7.759081547278424,-6.370158293223507,2.28765830103875
21,1.4921149731330319,2.12106652252953,0.00972576388527074,1.0247671621289216,-0.9230000931591513,-1.3355133774575767,-0.21586200229711394,-2.0665147971918993,-5.3086595832690575,-3.5440325600937204,-1.308374165623476,6.37292365590247,-6.276159670248959,-0.16257765887718498
22,-1.0759473817978003,0.546991016897757,0.017984329692649622,-0.5345918299995971,-1.1986829709185742,-1.9323182899479903,-1.6058118852640866,-3.1429111717642786,-5.625960041979991,-3.893202569416668,-3.0336488415272407,4.532891985205541,-5.953726382195265,-2.5995470630727473
23,-3.550872980205868,-1.1401824492506036,-0.01532513458422165,-2.1000048597474956,-1.4359918647422778,-2.393034812021368,-2.8548721065385108,-3.9484892778908427,-5.406503801544182,-3.8200773714402576,-4.373436377269258,2.4192467090615435,-5.405172624042072,-4.761112578075038
24,-5.685473731427537,-2.767873694954015,-0.08024983071361115,-3.5097441460990724,-1.5999950102721519,-2.66052807368071,-3.807885690559327,-4.348542422566359,-4.64377019622805,-3.30881260704815,-5.188602416550419,0.23143558666184738,-4.633009142674836,-6.4133932726287215
25,-7.268934054344277,-4.167978594856445,-0.160927306661474,-4.615233599919258,-1.660831155829699,-2.697902367971667,-4.342234289271248,-4.260981247935472,-3.3992193237802075,-2.3981278966807347,-5.402026736311939,-1.8340861256463439,-3.645089035855974,-7.378919845573181
26,-8.151674012365532,-5.198400538143639,-0.23819373756607307,-5.2996649330877865,-1.5988416288229033,-2.4937590733283823,-4.383814486776758,-3.6701373854118793,-1.7961332555651945,-1.177607238666738,-5.00685106471046,-3.604774763080406,-2.460454885922107,-7.558384512347067
27,-8.262737165600013,-5.761036436860811,-0.2926994357875482,-5.492877898749316,-1.4082841279162153,-2.064095900563206,-3.916865000434237,-2.6301452435483346,-0.004146859035746449,0.22294011012962833,-4.066327455010742,-4.948988794504651,-1.1145336704254953,-6.942967751607313
28,-7.617249663113559,-5.8135520559393035,-0.3080780536245597,-5.180322316854536,-1.0989826751913472,-1.4505891244843734,-2.9863936912839337,-1.2575498277324835,1.7831776203964858,1.6495429986565648,-2.7052912295159963,-5.7870266078479595,0.3376561205223899,-5.61541708563897
29,-6.312868440899355,-5.373237790663942,-0.2737021105677512,-4.404745170081264,-0.695608977702934,-0.7155191548680292,-1.6929537428636583,0.28542810865627344,3.3742261785799985,2.9432823349314474,-1.0943108919481537,-6.09511390302387,1.821359875971731,-3.7395454006129056
30,-4.5156974238906,-4.512474025997871,-0.18660915691414953,-3.2602993206215105,-0.23468302967683893,0.0659365076014362,-0.18051502451338938,1.814092798647956,4.604629341581342,3.959994010346543,0.5715311432204105,-5.902301200980871,3.2456063590462154,-1.5393994061348446
31,-2.437665358832571,-3.346649747841459,-0.05229674756837986,-1.8798878712425944,0.2402410813376473,0.8149709779847454,1.3809556402219607,3.1471734882037037,5.358126151828254,4.5878146236750315,2.096602302896489,-5.281255911505568,4.51037006656933,0.7292038779617226
32,-0.30859424911311384,-2.01654755538381,0.1157528811505865,-0.4175606679060223,0.6844389886879912,1.4587125456387433,2.815951230009977,4.131424680343149,5.579959157506339,4.760311207123748,3.3084425669521713,-4.334766103647999,5.516676772559755,2.8109778262143967
33,1.6530541452170329,-0.6680349372138249,0.29776916336958326,0.971496827697138,1.0579962811807062,1.938806601810614,3.9643191602995147,4.661339617219156,5.281053184084467,4.463616928627613,4.0782645072028405,-3.1802853458960643,6.1783378181858355,4.482935166925514
34,3.266612941724592,0.5677508992481867,0.4703762364784507,2.1505130794765654,1.3309640257915012,2.2178944262887907,4.699979568496219,4.691334343945738,4.532756006817336,3.7368577283203304,4.335637159507199,-1.9349592090353627,6.4335704851568085,5.581305733525146
35,4.409168070828455,1.5907186340817152,0.6098760204620536,3.0174619963949016,1.4868991798057256,2.2831773451104835,4.945165762128023,4.239047279806053,3.4534119282758424,2.666068937368659,4.075501147456586,-0.7032727567462125,6.254615070678047,6.019964398213306
36,5.026425037472983,2.3422977404871865,0.6956506685871023,3.515949173090757,1.5242787550601429,2.1466693398060626,4.6784864766725445,3.379800084247492,2.189247234066501,1.372633795810728,3.356667226193382,0.43118984985958636,5.653636406823766,5.797950950330059
37,5.1333035838147065,2.808753730259001,0.7131841340490557,3.6392823195411155,1.4556334569555702,1.842203978704723,3.935926239851234,2.233552508937811,0.8927802712472591,-0.002082389290934271,2.2920844766397277,1.4092469818130187,4.683680960783962,4.995244805440684
38,4.804669112476082,3.01722501647186,0.6562600933949173,3.4274016502723796,1.304618625827178,1.419710161959019,2.8048304752105797,0.9466699052439738,-0.2978652326336696,-1.3138471356575185,1.0322717649583224,2.1951684299209164,3.4341804130017355,3.757662601404082
39,4.158099138197157,3.0255415099817515,0.5280171793646705,2.957415923066896,1.101564310719002,0.9376440520717851,1.4118421840350504,-0.328614880026776,-1.2757557466201503,-2.432272176296737,-0.25576724075564905,2.7723463248284297,2.021339223123251,2.2733185606783533
40,3.3317374370427695,2.9078534834683873,0.3407118768529533,2.329417769348599,0.8782703605875527,0.45470675445985265,-0.09346272512561611,-1.4540664636014755,-1.9759050357277697,-3.2551405993528006,-1.4112130621939147,3.1371841963250047,0.5745813206808073,0.744286291399667
41,2.4609344349232964,2.7387059577594686,0.11422806055185637,1.6499003283893359,0.6629060119251935,0.02205062222154555,-1.5569658766958439,-2.3219924881439256,-2.3789566652474536,-3.718763741547039,-2.300548457783497,3.2929674124023838,-0.7790840645215618,-0.6422588657312357
42,1.6574212587368022,2.5783479492865196,-0.12644884901117287,1.0153756264619271,0.47582894995039,-0.32292883800963934,-2.8379429075444382,-2.8664863968640937,-2.5079249305820634,-3.803332183612796,-2.834234499056536,3.2452774277586833,-1.9305109042674162,-1.7391547751935186
43,0.9942207197606632,2.461751944840313,-0.3544320468909415,0.4986714154986422,0.3269681674416235,-0.5603834882607251,-3.8242109594975484,-3.0682455850859176,-2.4191541365975877,-3.532854403802333,-2.9767118115656728,3.000001588567583,-2.801365886626859,-2.457030058445185
44,0.4984556479275031,2.393102024860897,-0.5443589265818112,0.13988675885994434,0.21514780365931968,-0.6889342351815394,-4.442622168928368,-2.952769318053648,-2.1893921331826216,-2.9699101936573657,-2.748470115967578,2.5642839520288114,-3.35259870150691,-2.772355966973792
45,0.15284734072270822,2.346523755129721,-0.675571391159253,-0.05679724415138036,0.12940957330795044,-0.7237115214103255,-4.663765674445273,-2.5826144965945006,-1.9012404452795293,-2.2060190648592553,-2.220079254992435,1.950007612099497,-3.587120050144484,-2.7249345204831195
46,-0.09476920402666886,2.2727495758678176,-0.7346260562686491,-0.12020110266929603,0.05206882851061595,-0.6919359347909938,-4.500621389214304,-2.0451156995334183,-1.6292330124134373,-1.3488861100257818,-1.499230765638646,1.1787460493870443,-3.5462720194867074,-2.4056352978309206
47,-0.3159124698105269,2.110416999224802,-0.7168145396652739,-0.10383710114954486,-0.03704003300628659,-0.6268266746537914,-4.00181419993603,-1.437492193220994,-1.4284639130861083,-0.5081056518446291,-0.7128337321665239,0.286695030299735,-3.300660536257998,-1.9366902148228653
48,-0.5828764126666771,1.7999373391316942,-0.6265205582627427,-0.07375235895797735,-0.15586849081546633,-0.560871768024682,-3.2409096772324024,-0.8515273643102745,-1.3271307961690952,0.2189424027975965,0.013100219740096813,-0.67202303538008,-2.9368316193951776,-1.4479707832627489
49,-0.9505437663295654,1.2974661790791189,-0.4764055665661573,-0.09465014603096603,-0.31582700993971213,-0.5195819775096632,-2.303742705184318,-0.3599965198670419,-1.3237003061611248,0.7592890536735885,0.5727600536210332,-1.6250771015611127,-2.5419573394949047,-1.0532334884260839
50,-1.4419059910646204,0.5865163774532824,-0.28557411984319514,-0.21664897326034296,-0.5185872666749763,-0.5167642103580222,-1.2759809673025897,-0.006739610406154517,-1.3887396041724476,1.073153969618125,0.8961622838900052,-2.485544938524696,-2.1890314716331063,-0.8302370107914486
51,-2.0399202221059007,-0.3148268003409899,-0.0770018016981725,-0.46489329328516893,-0.754589220191761,-0.5521004550087402,-0.23295376698323336,0.1982469388288291,-1.4708752192970214,1.1581734070910767,0.9588192213184206,-3.1595683359013873,-1.9249953798538872,-0.807924086615569
52,-2.687205611115288,-1.3523805627182781,0.12540546549628095,-0.8337321154854226,-1.0035478396141413,-0.6114416860272848,0.76674889795932,0.278034866237688,-1.5058902179664593,1.0484784321687195,0.7840828035859317,-3.5573545753225884,-1.7637314714495989,-0.9626408785502081
53,-3.2937097925001075,-2.440378851601517,0.2997221623002347,-1.286417492685709,-1.2369265849035866,-0.6697800978501841,1.6831864464532373,0.28245545799108257,-1.4276781947336175,0.8086554526125445,0.4379108231309929,-3.606066986375803,-1.6850547278465067,-1.2238444861843425
54,-3.7510992386397906,-3.471399733162418,0.4285128261413371,-1.7603690791557296,-1.4220232160569835,-0.6964163923891187,2.492664952404004,0.2772260156499299,-1.1796383390171519,0.5232847962807038,0.01694244108949781,-3.2625968099942604,-1.6398377678590121,-1.4881809594623283
55,-3.951476512822743,-4.330229489436687,0.5006454685896655,-2.177148755060548,-1.5270472823541725,-0.6614619757697631,3.1820449993474287,0.3301903992554535,-0.7251039511965527,0.2833674870217817,-0.368233523559637,-2.523991193141628,-1.560389224086544,-1.6394616342481882
56,-3.807287178366188,-4.909590082738358,0.512222989110245,-2.455532561399166,-1.5263979424237233,-0.5425693207793826,3.741418091560097,0.49684885026075626,-0.05552413996611088,0.17143072041304205,-0.6120284564667952,-1.4334881136352373,-1.374339037486229,-1.5711411285971026
57,-3.2690596691739633,-5.125392325766544,0.4665720989248698,-2.525571827639632,-1.4053011220773792,-0.3307082204157594,4.157114543035798,0.8075479378124092,0.804657666153916,0.24737383356720152,-0.6321185640426659,-0.08066492369090428,-1.0197091686682467,-1.2075419509011465
58,-2.337947735978247,-4.929270452165641,0.3733535127483945,-2.3413738357142444,-1.1630432666817467,-0.03391647118801797,4.4069242908017126,1.2585478570573474,1.7971797143942136,0.5371262628654843,-0.3842363005786152,1.4049427966517471,-0.4586533019095007,-0.520316851450974
59,-1.070857840204225,-4.316578527818559,0.246964972152619,-1.8905255648954242,-0.814234170891658,0.32176097596462117,4.458955894584581,1.8086805886450026,2.8335636441922447,1.0259146831142258,0.1287783848792691,2.8663905448538385,0.3124401495608374,0.4625656450807532
60,0.42288999319527876,-3.3287122019913493,0.10448707028448795,-1.198600226893071,-0.38781792299632895,0.6945071283958478,4.274805227915337,2.382509668014113,3.803062807987856,1.657390840529866,0.8550865251212615,4.136686646915844,1.2582094323896158,1.656821437925443
61,1.9930871507625465,-2.049449333184121,-0.036537829288944015,-0.3279438649145592,0.07610984947545478,1.0320023290472335,3.8167867110203093,2.879902498017801,4.5843756751092535,2.3391070196997723,1.6994866711103358,5.058791215751476,2.3058236036217283,2.9309249721562005
62,3.4667822006418128,-0.595848797338488,-0.16020378945754407,0.6291824007262619,0.5312779892300499,1.2790785847489994,3.058065693440392,3.1908735265446206,5.060030005003765,2.9539355335388557,2.5358450846510827,5.505569155437634,3.352626856910309,4.1229374452775716
63,4.67045278401833,0.895017562238611,-0.25396486774053184,1.5621684759261436,0.9313168786898345,1.3866718657435022,1.9937962563976697,3.2136183695468366,5.131884414598729,3.3761353199046997,3.224591881111653,5.396906898614524,4.278867189968142,5.062596357912323
64,5.452997229493306,2.2816993957054965,-0.30980018940900667,2.3566830434479185,1.236050949984023,1.32069168024138,0.6509608524567984,2.87299738082291,4.7358647181989495,3.4900065434467282,3.6328168638544733,4.711523862464659,4.963677532077215,5.59541307274261
65,5.706234970515089,3.4343164246683,-0.32472411876980334,2.9102607594039807,1.4170592995635167,1.0693329633554263,-0.9053831854232094,2.136470583592548,3.8539272310673334,3.2085661275040813,3.6541227519857737,3.491718653106748,5.301993911498365,5.605278614928076
66,5.380009483225093,4.248812033901274,-0.30063997153185196,3.1466121415661528,1.4616413135522872,0.6474906510915157,-2.5713013178283504,1.0247050537940687,2.521378438764047,2.489517539617861,3.2254330813397516,1.840280275912565,5.219970299351869,5.032361299425034
67,4.489821482818704,4.657818879263593,-0.2436239019457648,3.026621954215743,1.3745475834108405,0.09730088343749932,-4.209651695094842,-0.385231907255362,0.828107244415319,1.3460260266528794,2.3383949208906705,-0.09009005297208764,4.6866918175164365,3.8838267026357816
68,3.116038376842583,4.636971942422393,-0.1627933341332265,2.5545035525838022,1.1771700274473984,-0.5156126375530335,-5.662180222793354,-1.9650999810648133,-1.0870173229447615,-0.14956482334595445,1.0437857453064112,-2.1134388500353003,3.720545492440825,2.235985320805508
69,1.3949407681366117,4.206155871399006,-0.06895203498323053,1.7782903954381926,0.9042794075004597,-1.1099375187489604,-6.766848680570297,-3.5488345831813146,-3.048439437937345,-1.8700049792154976,-0.5516968364268632,-4.031056950842691,2.389378273495584,0.22769275130419617
70,-0.4970191740486787,3.4258421009996476,0.02679105527602947,0.7846513889674414,0.5987889413208954,-1.5995851627577706,-7.378194501531186,-4.952407055902794,-4.861798535947364,-3.6452187402660123,-2.295864942631808,-5.653090961253933,0.8044250678106548,-1.9540045860521897
71,-2.363526624179954,2.389252411215479,0.11425599444304253,-0.311216994877884,0.30534094048487065,-1.9062114116215558,-7.3878354281335605,-5.9974974544953055,-6.3354240962074915,-5.2808988148860125,-4.007372505207953,-6.818506910634099,-0.8912046137872394,-4.094037740401886
72,-4.010588046771435,1.211498224177487,0.18515033869321992,-1.3792567581019217,0.0637006684600093,-1.9714813478992,-6.742004180238435,-6.535606711982876,-7.3028293254874725,-6.58136698247183,-5.495932878932758,-7.41103322287276,-2.5380388990842118,-5.972743809828785
73,-5.267836273709212,0.017051507023018622,0.2336788410281951,-2.2900247626923016,-0.09703604488630298,-1.7671434646253084,-5.453281723516423,-6.469093348002977,-7.643305713882178,-7.373811480167513,-6.584001074790608,-7.369443004520128,-3.9778768135943303,-7.3897670495761245
74,-6.006517568164355,-1.0730854707410096,0.2567889303631644,-2.9301023082939937,-0.16255724701099108,-1.3012197307499083,-3.6044561184612025,-5.76603472232443,-7.297850055782585,-7.530766387536451,-7.127410864511789,-6.691459884749085,-5.071473709761192,-8.185770244576814
75,-6.152321564601118,-1.9532816600057101,0.25408889524310235,-3.2156632823769944,-0.135181830796977,-0.6191436129125603,-1.343544249166687,-4.466710679410769,-6.278190498263846,-6.9878785259049305,-7.0326562389761555,-5.43150539904128,-5.714254288122126,-8.259709052062307
76,-5.691972498536367,-2.5432455073793965,0.22751543185075176,-3.1027103792054054,-0.033203424794192166,0.20058823080559723,1.1297093179964801,-2.680734906852364,-4.667545731488289,-5.754579675687234,-6.268935588869843,-3.6932779909734244,-5.848275706091264,-7.580027292978437
77,-4.673282884786022,-2.7953119084075215,0.18084806073052054,-2.592894647187538,0.11213091046012216,1.0558547010522756,3.5843079594291676,-0.575213371603786,-2.6128282744390745,-3.916163492802628,-4.873663919393169,-1.6186411008497883,-5.469071483702132,-6.1888231387144215
78,-3.1990712428471,-2.698547052413709,0.11916720128547896,-1.7343067964705474,0.26153191513742874,1.8342449306365034,5.782907776183628,1.644426927176663,-0.3091332767257682,-1.6268375661781203,-2.9508333686313013,0.6255499679981158,-4.6265354758070645,-4.198728949252098
79,-1.4158942978241502,-2.2793922150162116,0.048333115156764916,-0.6171273086312262,0.3737387919781777,2.4284523190116163,7.507994952993548,3.758314431529836,2.0216262643792025,0.9055591226521541,-0.6623049582903751,2.8612086018514606,-3.419615625038865,-1.7828853439668346
80,0.5010871522554433,-1.5987726430274352,-0.0254685927332777,0.6354852286415207,0.41187870140873967,2.751511585176929,8.586035588695657,5.5575273351014545,4.15531411630633,3.441455878017889,1.7872042522807772,4.912261995576852,-1.9852391730803558,0.84105293617897
81,2.3655889777069836,-0.7458121169668701,-0.09610397313365401,1.8804276389271048,0.34923403011739607,2.749615467059456,8.906626811311586,6.867733290408548,5.890367005770797,5.735537036736031,4.170055241504071,6.616728738319812,-0.4825386150788314,3.431470368363856
82,3.9984376686927474,0.17145488669271874,-0.15780835561203435,2.9703617521050187,0.17364741962454253,2.4105531684141304,8.43440818242404,7.568174332011078,7.0697631112905555,7.563777108739247,6.258638824820613,7.837365560951412,0.925962374234525,5.746105463729623
83,5.244971488849087,1.037683480444563,-0.20547859737504912,3.77052690624244,-0.11000046586024642,1.7664313462513475,7.212492639320584,7.603835525696506,7.597524487222637,8.748333340162263,7.849058933935157,8.470839027376012,2.0940737738953827,7.566028451143386
84,5.990085923817524,1.7431175769026985,-0.23497288898825264,4.174863577527559,-0.47954468744138984,0.8901772013590054,5.357281852423695,6.989603207228169,7.447835786470457,9.177323643335674,8.783057525405818,8.455382064959183,2.9101648388256556,8.717994314822896
85,6.169524754526319,2.1964784500775467,-0.24343415762117399,4.119586241333274,-0.8975483495044444,-0.11374855585066466,3.045574918191884,5.806261279598542,6.665808961623664,8.817086834309418,8.965710549722763,7.776709392397001,3.3114580342432105,9.092851376500603
86,5.776234203164215,2.3363380648200813,-0.2296251514058896,3.5924647809100296,-1.3153397976403183,-1.1231299449696084,0.49572212475820593,4.189151470728487,5.35996962033434,7.715386801989132,8.376707008814519,6.471677284359965,3.292249534591302,8.657866197525983
87,4.860943145765415,2.139452594819346,-0.1942311748635684,2.6364162450675606,-1.6786196366557458,-2.0142913147202046,-2.0548742502187656,2.3111269934995438,3.687552818197511,5.995096806925038,7.073592560007302,4.628909840388437,2.9045416466557827,7.461268617623687
88,3.52662763495003,1.624738839614994,-0.1400589096998414,1.3465728717096273,-1.9340146936086182,-2.6785665900079523,-4.373387314653754,0.3619889824872208,1.8345527273488835,3.839068605936515,5.1862014483615955,2.3855103088678127,2.2505073314830777,5.628043820733306
89,1.9171492399628958,0.852024905589505,-0.07204644963354524,-0.13925929015353397,-2.0358500547433898,-3.0365918748895973,-6.253881210595578,-1.4731205075353784,-0.006926798401007486,1.4680145759791148,2.902548798377061,-0.08086737164691668,1.4673561246386428,3.3469643348943867
90,0.20107087325884648,-0.0846359653320681,0.0029914977018925776,-1.6559791668558426,-1.9523706217276873,-3.0484233550831488,-7.536205082515733,-3.033885522570097,-1.6611892774229604,-0.8858364249220454,0.44758841611086625,-2.564858132737894,0.7063787027304164,0.8499639379654761
91,-1.4476408731827057,-1.0685141908588924,0.0769253652277478,-3.030776255598847,-1.6706728874406014,-2.718128682773054,-8.119846319832645,-4.201299416759745,-2.9885559208030164,-3.005940770209624,-1.9427029058349627,-4.850697809604266,0.10901681010648176,-1.613945537538543
92,-2.8697430834843636,-1.9752509385158774,0.14116645366321498,-4.1045644123014275,-1.19970758410176,-2.092331049808413,-7.971695723596444,-4.908670480921283,-3.899681106233091,-4.715951165547649,-4.048654260711642,-6.732718303483838,-0.21646880156116652,-3.8071076402690753
93,-3.93907615235102,-2.689390117226444,0.18773790431099083,-4.752444808990671,-0.5708841878048249,-1.2530688808696975,-7.127269998127418,-5.145975963222853,-4.362859914194142,-5.898294403783105,-5.692003884583995,-8.036918988429493,-0.213950347566262,-5.530365947347771
94,-4.576613914561184,-3.1200129794882416,0.21042045189683362,-4.90030286531049,0.16395632958318754,-0.3061365048084779,-5.68551311109402,-4.957138702872068,-4.4035121917980105,-6.504355277688695,-6.755294707454881,-8.640920972668196,0.10936684483221133,-6.645262455317896
95,-4.758139339299821,-3.213104771214101,0.20578986847051148,-4.535017077926494,0.9371472625247982,0.6333247769033015,-3.797832725951327,-4.4306261836024,-4.0960523193614184,-6.5549810393332555,-7.1928028237707675,-8.489428906059866,0.6818360894727435,-7.088189995389339
96,-4.514347501863027,-2.958707588824199,0.17395180648035904,-3.7065669836235915,1.6720135457539544,1.455894450276955,-1.6524979336292733,-3.684601330019431,-3.54938222910162,-6.131430206724949,-7.0314523396690065,-7.602648482574612,1.3771597049376973,-6.874490127614083
97,-3.923310755166981,-2.391697662698085,0.11880683940916523,-2.521472613534663,2.2912291187603757,2.0715094578573656,0.5440959806721443,-2.8485892085244027,-2.8881375696189484,-5.358320476412375,-6.361691772611257,-6.075932489973074,2.0340843838023455,-6.091958136731532
98,-3.096447669080321,-1.5860359055469901,0.04774323781215291,-1.1283046570262931,2.7257898449059272,2.4198893277156226,2.5875263395016876,-2.0441527011188163,-2.232439161108747,-4.381350643982013,-5.3198841664918195,-4.070140126500595,2.483250289883774,-4.884824814255008
99,-2.160200500207797,-0.6433981232089802,-0.029251552808761468,0.3027432265015825,2.9235195246016703,2.476521104318491,4.2949088412098995,-1.3672939596662237,-1.679150731124948,-3.3433740918211834,-4.065121985508205,-1.7935919456637595,2.5770486137320496,-3.430754535398722
100,-1.236352102919004,0.32199083987083094,-0.10096364550979627,1.6032495005700482,2.8559982882679487,2.2536661208705255,5.522058687748402,-0.8751539774251242,-1.2874663069928272,-2.3626457435957073,-2.754277336303828,0.5221618387587698,2.217581257650138,-1.914475734153461
101,-0.42416336765752294,1.1998783027116982,-0.15661391640152308,2.629431344994593,2.5229247777173716,1.7965657712409009,6.176564634021384,-0.579056511743876,-1.071052137246904,-1.516697717838963,-1.5193683944457193,2.649516390576174,1.37785876152254,-0.5021521369180832
102,0.21277728673016502,1.8992172382283912,-0.1875418069667763,3.281023052894839,1.9531967309680462,1.1756594809877727,6.225452036236583,-0.4450762300449344,-0.9980129161629687,-0.8343630885025549,-0.45089523139706983,4.391170286039408,0.11225914416217907,0.6795855254689176
103,0.6529012476891716,2.3597233940829945,-0.18862232652266983,3.5133174216803678,1.2023952667436564,0.47610429320120506,5.6966293278363445,-0.40220306412229706,-0.9987607658412269,-0.2970972811582796,0.41027468098590075,5.602004136885989,-1.4461055748595388,1.5568764341030203
104,0.9152966845782556,2.5580376871424284,-0.15915961067794976,3.3406169145652647,0.3468379206925573,-0.21384938945840828,4.673957450583861,-0.35697731359900275,-0.9806061244785624,0.15084181938002814,1.07143291097512,6.203520037220643,-3.101353530575617,2.112430619861885
105,1.0510888373352893,2.50774052447336,-0.10308581400690177,2.830739936111216,-0.5251434437156778,-0.8140348958313776,3.28649195053973,-0.21237053070788156,-0.8467580789816745,0.5853372423595045,1.5776686017301371,6.18906566535445,-4.62210923895492,2.3798318010959085
106,1.1293098504167924,2.2535452391080324,-0.028415415067977713,2.091687083403525,-1.3236185715232116,-1.2616857158687607,1.6931350144334287,0.11212130866989112,-0.5166104143519158,1.0816922397296544,1.9949361722920576,5.619518878342811,-5.776065876374026,2.4299043509674974
107,1.2199911972317072,1.8609918513059307,0.05396253333171099,1.2528354218243263,-1.9678021569172512,-1.517828495028947,0.06449835813103931,0.6625601368077354,0.05614440896307732,1.694147697099464,2.390058607149511,4.610566752450414,-6.366416937545846,2.3520195218250164
108,1.3777055012564305,1.4036847875482423,0.13195438716972607,0.4438717303040688,-2.3956694969191523,-1.5701537826970846,-1.435875927534427,1.4380122787563006,0.8707982169184815,2.439544391807338,2.8116998813207212,3.313918007369019,-6.264239821711383,2.233980155080309
109,1.628684289234176,0.9504396017422251,0.19411488535934318,-0.22504855230093054,-2.571123180793616,-1.4322723899678578,-2.6687230702497944,2.3857874941298105,1.8747357029403389,3.288331846878569,3.2760950425116,1.8955401133537153,-5.431422585083523,2.144205489602565
110,1.9639538140273907,0.5545789761436117,0.2313767908036485,-0.67876088072148,-2.487733339582408,-1.1397445703462648,-3.5327077550347963,3.4056750995765377,2.967547027943671,4.164822363245512,3.760354633423012,0.514211878836066,-3.9301785606269912,2.1193386731124892
111,2.3397868654616367,0.2470928983654874,0.23837910374557236,-0.8858770606240058,-2.168575916198927,-0.7436610853451247,-3.9730294044122023,4.362888012504378,4.0138205409975205,4.95691729174888,4.204654585524751,-0.6966612089955808,-1.9173500729525923,2.159251361371743
112,2.6853814144870918,0.03457103788825331,0.21419093722956192,-0.8598289655972919,-1.662269731045786,-0.30281431847129636,-3.9841726086952316,5.107918199286058,4.862795437784562,5.533796174393016,4.522881567758267,-1.6418014516208073,0.37581344313906884,2.229956111064835
113,2.916313855149695,-0.09810966775871048,0.1623342827132464,-0.6524587700049502,-1.0358651606729619,0.1244023423122424,-3.6067683549015976,5.500254736465912,5.371828446349235,5.768576758500078,4.619667124019981,-2.2702569237669503,2.6753433930039128,2.2734442488823547
114,2.951237153644081,-0.1812261962584052,0.09012678130873553,-0.34168542815167363,-0.36567357177257576,0.48729085383801424,-2.919284090543927,5.432149298363858,5.429895863922299,5.56199831601262,4.410524763872424,-2.575014341039085,4.702795899009588,2.222225536478281
115,2.72870339102341,-0.2513153989389514,0.0074756379543188724,-0.015691855071010508,0.27261872232681345,0.7484677424860693,-2.025886599597174,4.848482874764422,4.977251453219837,4.862927118256486,3.8412257462838117,-2.5869607621509454,6.214126393536506,2.0155765390910223
116,2.2209854814568075,-0.34181030346542607,-0.07466226872231191,0.243475856468784,0.8131667356189549,0.8872354168828313,-1.042238947042132,3.759328998756075,4.01791889615274,3.681975028118284,2.902702909877117,-2.3648154375925285,7.033246346079188,1.6143246867235845
117,1.4423373150399468,-0.47504028710068313,-0.14589547875139317,0.37407709418735985,1.207295317001934,0.9004825856469184,-0.0811532247916997,2.242937350506447,2.622822843467864,2.0956674502015247,1.6386053718610563,-1.9829977186083547,7.075260332563688,1.0114020165168158
118,0.4501443202619253,-0.6570643448120818,-0.19783328778081719,0.34434127451435637,1.4280610647415397,0.8012318947191269,0.7600860722467094,0.43838674590591664,0.922862912457791,0.2401880225295302,0.1439645131531347,-1.5194018518479746,6.356111896065345,0.23628560694669706
119,-0.6613160261028334,-0.8761938043718959,-0.22513395417723409,0.15626183067911667,1.4716185585114425,0.6152452680468393,1.4092621954862319,-1.4711789125732158,-0.9071447749706564,-1.7045173319870943,-1.4449833469568838,-1.044769404141792,4.987570196526753,-0.6473848016587278
120,-1.7734903404143219,-1.105319958238223,-0.22603686599570774,-0.1567577768729138,1.3554476031007203,0.3763126347724211,1.8246967429665815,-3.282292333396105,-2.6712665978255514,-3.5378810288072784,-2.9682265636889062,-0.6148694354902545,3.158790205570821,-1.5504779028191604
121,-2.760435582191867,-1.3074332536629063,-0.20234078752614665,-0.537608677862421,1.1139439571306367,0.12096978346269335,1.9963479172414447,-4.798311226220266,-4.1785304523321125,-5.06550961659385,-4.263831671282135,-0.2661141707628436,1.107696892985806,-2.371702196659459
122,-3.5071661837589683,-1.4431411368498188,-0.15887691043135954,-0.9168615175303065,0.7922149669158864,-0.11659392916014281,1.9428596857531302,-5.855856101583979,-5.268331826299781,-6.125472482663861,-5.190671805434161,-0.014655292640024785,-0.9131428928219102,-3.013209503842041
123,-3.9264570015932763,-1.4786673503962913,-0.10259566003422557,-1.225633962389901,0.439107162293144,-0.3087659416819666,1.705409652388527,-6.34654954010412,-5.8313737091590605,-6.610054724636434,-5.6483887188434245,0.1414882813894366,-2.6708928649626498,-3.395776548669453
124,-3.971425025200953,-1.3927957514567262,-0.04143263063659846,-1.4076340438881894,0.10050793557378389,-0.4373828092105527,1.3395530423376358,-6.2308452405194545,-5.8231175083830555,-6.479739552510187,-5.591475188885905,0.2180680558609453,-3.9820531783738797,-3.4710475815413835
125,-3.6419802033713844,-1.1814893741348511,0.016862465384423098,-1.428371543471388,-0.18617887643935668,-0.4949829983104039,0.9063968868067224,-5.542016266004228,-5.26795362886321,-5.767477998894224,-5.035390760714479,0.2389881082986759,-4.733307959096692,-3.2289169496370556
126,-2.9842831508575807,-0.8593976542824623,0.0657599052583017,-1.2801511523665272,-0.39574572919700335,-0.48443581537400626,0.4643640634531498,-4.379930225721514,-4.2537681224725326,-4.5728536984940975,-4.053942698893734,0.230439785387006,-4.891184486470372,-2.6990086303632546
127,-2.0834821383690705,-0.4580570654033864,0.10070818080582371,-0.9822703063779359,-0.5167729742358389,-0.417180682735619,0.06255913295098608,-2.895805911826854,-2.9180329586284035,-3.0472890143627924,-2.768536400995745,0.21570050527568072,-4.499910643286702,-1.9461978675701106
