,AF3,F7,F3,FC5,T7,P7,O1,O2,P8,T8,FC6,F4,F8,AF4
0,0.42774853903437504,0.8443161918276355,0.3011818234432043,0.3481737010770564,0.44553565326146566,0.24539875540502712,0.6321319871885243,0.15946479520220308,-0.08479097620164111,-0.1306164640956293,-0.00635178484507967,0.03569466174633978,-0.05104860632360924,-0.3867413889368403
1,1.197116482251427,2.4433944838952515,-0.038724411318930396,1.3916285881911192,0.8249683203272776,-1.868113598469728,-1.5616366213142834,-0.5467677558693127,-4.551556566058576,-0.4480009653605742,-0.28255848078560686,-0.8105472757257409,-0.34162191080819126,-0.8634355593916009
2,1.8900227265346605,3.8485873862178317,-0.32219054927250107,2.3341920901352124,1.1335032056566003,-3.790369524394347,-3.5612225889038602,-1.212736156636293,-8.606652892866688,-0.8078821848739457,-0.6012519949657256,-1.632860868256048,-0.6903168132628629,-1.316004278432652
3,2.4698404266267016,4.9194906682926085,-0.4857731180669825,3.091711212002329,1.3187675722810959,-5.369770610298847,-5.187486617548347,-1.7983590314395521,-11.933674390633781,-1.2573772510093388,-0.9672039089055479,-2.3876306069281283,-1.1107733667838369,-1.714880803726856
4,2.9019530570850276,5.542203069140437,-0.48912182699341733,3.592868650455653,1.3396557836345173,-6.491286985708578,-6.307581716054104,-2.272343679619049,-14.286167689111666,-1.817343451606948,-1.3722483198347724,-3.034405809306904,-1.5998383108151146,-2.0333933614500475
5,3.15501490807289,5.640271370346158,-0.32178075678884593,3.7852488463871325,1.1715676559606036,-7.086748253929642,-6.848278330008204,-2.6141682990856414,-15.509167171389933,-2.4751471291802143,-1.793425375653941,-3.537725524673153,-2.1348318983070884,-2.2497838023106436
6,3.203405666044064,5.182864079936418,-0.005164368355449723,3.6402914267003736,0.8100588083286394,-7.139617012032672,-6.801587691650078,-2.8146073637760276,-15.551327322991524,-3.183757626597648,-2.1940053642366095,-3.8686688850219846,-2.674168337956504,-2.3487464994870226
7,3.030674369202534,4.189353341261668,0.4106079714802052,3.1567244258385494,0.27248972500558294,-6.683825214464035,-6.222147937447639,-2.874827804179306,-14.466458047386334,-3.8673049679562883,-2.5273678562476802,-4.006120397908231,-3.1613659520781763,-2.32235155724568
8,2.6334466439714492,2.729705135507186,0.8545567630359485,2.3621179583429113,-0.4025339438979085,-5.7970177664634,-5.2169259285711025,-2.8042965007782534,-12.40442740746249,-4.432121085879137,-2.7431738220913378,-3.9377435899137225,-3.5319175681525703,-2.1702852398169323
9,2.0250211800655933,0.9203666192136715,1.246177930306212,1.3122649093277299,-1.157923578467712,-4.589254956456602,-3.928808127821322,-2.617922629629931,-9.592570350054356,-4.781376159442792,-2.794848852637654,-3.660669191622901,-3.722025811086648,-1.8994329100108878
10,1.2377658121580954,-1.0843092876368243,1.5085186981463343,0.08819486715943009,-1.9228645558971642,-3.1887779322273997,-2.5164647020691957,-2.33297922213217,-6.309794169775407,-4.830868172363156,-2.647166445728634,-3.181919183688517,-3.677916314593621,-1.5229276651538546
11,0.3234818805459289,-3.1046593318362823,1.580941474548142,-1.209222805015336,-2.6191834877485975,-1.7267649089269732,-1.1333517326125577,-1.9663808441757369,-2.8563747350280293,-4.523394047403958,-2.2827106019411225,-2.51859215308006,-3.364360123907462,-1.0588670789689265
12,-0.6488519305116083,-4.951453115137203,1.4295412043543978,-2.4669249478723083,-3.1687947776712857,-0.3230595181107324,0.09121025073086811,-1.532826707199627,0.47710528119041845,-3.839420275836632,-1.706190712946255,-1.6978181171187017,-2.7711614613293785,-0.5289409434243568
13,-1.5981461023820325,-6.443498195259371,1.0535282869913705,-3.569134353716903,-3.5015813984124478,0.9253671040550746,1.0662988433762908,-1.0441551852911384,3.4381704393265444,-2.8024129712893173,-0.9459289829286497,-0.7564496213381653,-1.9166659408303766,0.042797422133013845
14,-2.4387747240557416,-7.425483159767826,0.48651642171747045,-4.407982433387418,-3.5629875439870684,1.9519196589948984,1.7471549236983037,-0.5100171022724869,5.835073923910991,-1.4780648298813803,-0.05227270417625904,0.2596029112421639,-0.84776644827473,0.630848090508467
15,-3.089857606179627,-7.7842378877983425,-0.20753804354280422,-4.894327528559981,-3.320572007554716,2.723180376838877,2.13563856457266,0.06030134691347989,7.55122217234909,0.03237958144132027,0.9068715381836799,1.2965431935924616,0.36363232763930503,1.2088126230603793
16,-3.4850420268086597,-7.461589769264201,-0.9431452871497702,-4.967635262956902,-2.7688056303146023,3.2370506441398494,2.2737118189107752,0.655338589584251,8.550034809622417,1.6036058083904237,1.852791632304124,2.2945555687752437,1.6272518313974247,1.7496537938272931
17,-3.581343853637308,-6.462220486009503,-1.625480632130289,-4.6037215509149165,-1.9315043134650176,3.5169450851267747,2.2313647979251634,1.258829638232713,8.870077756955288,3.1007439935967254,2.7041317231132895,3.1905391333768534,2.8433368994934876,2.2258773142997748
18,-3.3656104713678907,-4.8553782839546615,-2.1640729078408305,-3.819252876662283,-0.8614724670496634,3.603279561606531,2.091234941945308,1.8477043568015572,8.611532723421421,4.3947767796904955,3.3854298201140836,3.9218032298739116,3.9126967090779714,2.6099279328302294
19,-2.8574268107795358,-2.769940675232249,-2.4858511464057864,-2.6721699412990105,0.36281678637667314,3.5438054999317705,1.9326185059892727,2.3913735634583664,7.9161544865482645,5.3766964945480185,3.8349954278478275,4.430672605594877,4.746667268658513,2.875092717318002
20,-2.107776713536388,-0.3830838635606704,-2.5455368748684672,-1.2576364533056763,1.643375097897997,3.3843978601172418,1.817563567287559,2.852769373260791,6.943672079277881,5.9685943546440585,4.011221637737112,4.669754121272337,5.275833506939332,2.9971082826958915
21,-1.193423731979711,2.0964004398068434,-2.331819466015465,0.3003343850530461,2.8712290208854396,3.1617055850231988,1.7812673469211469,3.191292186177518,5.847995973681306,6.130438818411107,3.8966575067578177,4.607398605983295,5.456548931036497,2.9564868402216726
22,-0.2076774814560908,4.448407919891812,-1.8684542568102145,1.8608369056996945,3.9365579945836484,2.8986644171971734,1.8281610956901717,3.36743616884879,4.756538104874875,5.862008648320826,3.4994602592441337,4.232693391544551,5.27459156836506,2.741345321167844
23,0.751167381483569,6.463221684751322,-1.2102516541760666,3.280348344743863,4.739424336814552,2.603329963160557,1.9340092564603162,3.3484908561729765,3.755437845883553,5.200169925844561,2.8521647044230027,3.559194958472998,4.745656902936801,2.3503001124178877
24,1.5920159774370333,7.9621822152348765,-0.43473336870905255,4.427682910250312,5.19994465971104,2.270911466887829,2.053274904512604,3.1144265549048415,2.8825821855388063,4.212316293599568,2.008014203840762,2.626607965803997,3.9127728842529184,1.7948426175531547
25,2.2419525198945505,8.815017617447156,0.369118642513017,5.197832245420055,5.266761825628312,1.8883710080359095,2.1301084008982216,2.6629314031415063,2.1291341204737124,2.9872408182460903,1.0353624745040801,1.4997696082474212,2.841087737796854,1.1005917475807154
26,2.654377905455773,8.951947102722567,1.1132053133184072,5.52300125432654,4.9228365215216074,1.440574879910141,2.1107550529822388,2.0126157348225067,1.4489990815676521,1.6249200808080897,0.010850452763067488,0.2646057916675917,1.6107838389769242,0.30694812705421104
27,2.8131447913425225,8.3693303507938,1.7218497732805205,5.3794909588295665,4.187866502196324,0.9167878152345305,1.9550339388192355,1.2036330709046474,0.7744436077440904,0.22664868802155927,-0.9878356031534955,-0.978850811752429,0.3090678070284342,-0.5350743773273006
28,2.7321972086791395,7.128430534651551,2.1408610982974055,4.789611725180767,3.1170193646216617,0.31630029093040213,1.6448185948076381,0.2953466013061589,0.03511397871157672,-1.113309387184251,-1.8888200272319424,-2.1258196481107796,-0.9777515245808706,-1.3667497723527482
29,2.4509600098253386,5.347674827249052,2.3429284225716707,3.818450030583742,1.7960813773472206,-0.3478357167239055,1.1880824362339548,-0.6388712698852302,-0.82285401110276,-2.3138212733447525,-2.6318023737537954,-3.0775130959160744,-2.171168594741419,-2.126873181303463
30,2.0264012774324685,3.18952313163488,2.3287912272342397,2.5659646911470237,0.33352639212458995,-1.047648023372796,0.6179308983192229,-1.5191598049954622,-1.8209799202646322,-3.3105102809138356,-3.1722080901396357,-3.751953636147612,-3.2056574112271288,-2.757679685410983
31,1.5231906462405589,0.8436013434190623,2.1243183317862604,1.1554601006709904,-1.1496564412947377,-1.7419072183993718,-0.013032269717934851,-2.268082252272527,-2.9386737548855653,-4.057148809151703,-3.4834478609715718,-4.0934425671181955,-4.0317249106817235,-3.2106668657616972
32,1.0036153163207846,-1.4919409355275686,1.7742464725316918,-0.28010269443653363,-2.531309345470723,-2.3803811190961026,-0.6418302014013219,-2.819755182716022,-4.111407169455345,-4.525407674483796,-3.5572840269335435,-4.079359652270214,-4.616819793883575,-3.4515398114316835
33,0.5188618687396299,-3.628844811274389,1.3337869618482434,-1.6122901885417666,-3.6994592003411433,-2.9100158978660846,-1.2059681448218809,-3.1279475760538937,-5.237351675968573,-4.703710287219062,-3.402561647138217,-3.723289572970719,-4.944433807857264,-3.4636331251394723
34,0.10295186822457401,-5.405116998625379,0.8595481835649822,-2.7302246341555287,-4.5625368260535595,-3.2820549556930407,-1.6540047911138462,-3.1720103614539195,-6.191587802429061,-4.595896341325224,-3.0427519053703604,-3.0739494515472834,-5.012003949052639,-3.2494052614309274
35,-0.2298923179622482,-6.697923518976041,0.40122393980695686,-3.5510228783622924,-5.057463418859044,-3.4589466801994053,-1.9539390795917628,-2.959767587737532,-6.8456813324041335,-4.2201756119674965,-2.5128352689586766,-2.2099520459312254,-4.828346345409252,-2.8298900837007146
36,-0.48427542814135277,-7.432036225210327,-0.004718326429452973,-4.026587560288961,-5.154840051522639,-3.4199236955880292,-2.0979541511274844,-2.5268915268050756,-7.089442588794638,-3.6085054624606268,-1.856005585430342,-1.2309879659396352,-4.411295924478887,-2.242262962478137
37,-0.6794598215550522,-7.583377653175652,-0.3385022414181884,-4.146168723818338,-4.860779232102412,-3.1643552166378393,-2.102739003672219,-1.9327389768304617,-6.8511932017673915,-2.8061425740832164,-1.1205244939109695,-0.24646362019005758,-3.786008735707251,-1.5358858372092064
38,-0.8428901836065427,-7.17770193675534,-0.5973062468215842,-3.934633492744146,-4.215262938417707,-2.71234470327138,-2.0053981852663774,-1.2530858743694908,-6.112961933350547,-1.8708073932390539,-0.3568531295378057,0.6370650726039669,-2.984070278327036,-0.7673226274108598
39,-1.0026228145435871,-6.284885799914489,-0.7924986602892483,-3.4468859034438455,-3.2872693994020183,-2.1025017395294276,-1.8557243914271346,-0.5706103382033512,-4.917738338454608,-0.8707612951330602,0.3849928075839894,1.328191546423817,-2.043232096927044,0.005126843098126675
40,-1.1799903281389532,-5.009660508450438,-0.9444981571552673,-2.759310515142939,-2.1672443757260482,-1.3872760188779278,-1.7062225817906875,0.035703594658424764,-3.3671520549372405,0.11880490906818732,1.0580159851799276,1.7612558463017076,-1.00735509155909,0.7268234670301112
41,-1.3837492787735368,-3.4798764253215686,-1.0762796721060401,-1.959422351137431,-0.9577612188485463,-0.6266191737465979,-1.6016416313078552,0.5008775649951306,-1.609532915896227,1.021336040554999,1.620874345201852,1.9039960033501782,0.07396956983042502,1.351603077878833
42,-1.6066945651213553,-1.8335442079015054,-1.206741864464654,-1.1350591455728176,0.23661667475447365,0.11902691602964902,-1.5698397232948096,0.7825731241379319,0.18002165417900126,1.7661882319858366,2.0406004490508924,1.7613262401244112,1.1466008075609326,1.8455637969277303
43,-1.8253265330170854,-0.20593442973061044,-1.3451517335448098,-0.36443724255804605,1.3192056727820418,0.7953618153543978,-1.615581940214514,0.8668079513626467,1.8244885396478594,2.296812472167685,2.2952445281961866,1.3747268683200378,2.1541170337073865,2.1894738305605532
44,-2.002683721997475,1.2820589205635549,-1.487687531510819,0.29178236890540754,2.209805922264429,1.359548124531284,-1.7183865461036096,0.7698431336277857,3.1706204154987154,2.5785761485058334,2.376104165217681,0.8172020941559841,3.041178560871834,2.379560552198178
45,-2.0939691522189796,2.5332691933523703,-1.6167433674848128,0.7955795453669274,2.8512167057743727,1.7835665155840004,-1.8348769616898355,0.5358121581825951,4.111182115089963,2.604712624861923,2.289085210707027,0.18425601446042553,3.7576789982722825,2.42658011514436
46,-2.05416142435289,3.480576539581143,-1.7031916532942752,1.1333726118538408,3.2131016053785197,2.0553199598926595,-1.9053597316259845,0.23024612276956294,4.599892909843023,2.3989668293347224,2.054731447732376,-0.41818420028118664,4.263125608262144,2.3532333997927077
47,-1.8464693241812489,4.089794110054387,-1.7112938947807408,1.314526438783839,3.2929550936529886,2.1776018627963105,-1.8636514386216794,-0.06973854922895614,4.656444744781039,2.013922866057212,1.7065898372013495,-0.8875520056743786,4.530549662317709,2.190185530332653
48,-1.4503088370722168,4.359093548709124,-1.6054860331907337,1.3669900195542026,3.114243219915611,2.1653864372609064,-1.648637453178837,-0.2872789918492514,4.360660981107289,1.5246992777951265,1.2878304873503552,-1.1384885284293802,4.549260440350711,1.971146007331482
49,-0.8674896181894324,4.315306237920635,-1.3579179694446812,1.3308326115406939,2.7220783579274612,2.04211656218786,-1.215756197531107,-0.35794244736090913,3.836742930398601,1.018550086816385,0.8463653939020649,-1.1149898703676218,4.325916872967172,1.7276412713149765
50,-0.12550520374419538,4.007750019067358,-0.9554575232834263,1.2506824463250725,2.177013917798675,1.8357174087624295,-0.5466086284784514,-0.24041801969005208,3.230280248148753,0.5817462763027115,0.42903441121920016,-0.7991927936810094,3.883663725741541,1.484217309443161
51,0.7227921764814451,3.50045961904805,-0.40490830915086995,1.1681642242238621,1.5476970321103518,1.5749616685617214,0.34481992725314675,0.07595146364607872,2.6819661678125253,0.28575937245137445,0.07567353138457986,-0.2154722590116573,3.2594087314318547,1.2548093848641686
52,1.603335933784216,2.863817194424629,0.264563673744052,1.1153745616485269,0.903191453378923,1.286602743650815,1.4103319489219035,0.5680548038912014,2.3025354736914547,0.1750804976663327,-0.18601318747350565,0.5709287597210759,2.4996364994766385,1.0408937175165818
53,2.4284435794107004,2.166574418572385,1.0023850690488099,1.110243284441712,0.3057792262076782,0.993446019717143,2.5704556373083025,1.1809383268218734,2.1532306918828357,0.2588970332589132,-0.343922742196435,1.4608186642404855,1.6553999536802861,0.8318020240638695
54,3.1069713720210084,1.4691341161383924,1.7409824310318875,1.1543356292096048,-0.1950279210921727,0.7133134010697142,3.7218563608351367,1.8346372536044768,2.2351404170902462,0.5083089596322047,-0.402741191910815,2.332851165511898,0.7772528584105596,0.6072651493301973
55,3.555715664249645,0.8187394720245428,2.403169640039711,1.2332989678414397,-0.5666809077973571,0.45871819494253846,4.748326680809426,2.435012309237811,2.4892174420430533,0.8598797223367403,-0.38258963396554524,3.058815411148392,-0.08913343586929384,0.3419026946000622
56,3.7105243938424097,0.24693434588220406,2.9115629472326363,1.319793643508953,-0.795604952367383,0.23702078565821288,5.533991270610944,2.8870439728947894,2.80694772309944,1.225235482939462,-0.31529252340182684,3.5205005505443103,-0.9060814564067216,0.011045738134598172
57,3.5355713348294833,-0.23065438467958788,3.1987288499160753,1.378416095294387,-0.8868926259144009,0.05086746493698324,5.977079917515613,3.1086183870779522,3.0498276741279504,1.5053475493340558,-0.23884380018156534,3.6259180014497883,-1.645415407911006,-0.4029770846710786
58,3.0294536561322376,-0.6124620625746711,3.2166216944936177,1.3718651670588842,-0.8618082110694496,-0.10120631049224968,6.0025528700952835,3.0427288074179994,3.0743334453905353,1.6072591307862427,-0.19096299933680785,3.322674377683861,-2.2883339069437802,-0.9050975737371059
59,2.227176286086122,-0.9075559504400885,2.943940501399309,1.267451887721975,-0.7534900079299139,-0.2240415562497139,5.57201086797284,2.666244562449808,2.758185586965983,1.4605221228208747,-0.20278885621450618,2.6066167537507585,-2.823897741231392,-1.4833027118624282
60,1.1976331003120424,-1.1312879980980757,2.39031860694648,1.043026359112907,-0.6014486548316268,-0.32496886315115187,4.689662569305626,1.9939341472190628,2.0235681872634173,1.0305952001809888,-0.29371649880829725,1.5244839497309217,-3.2465908080174595,-2.1067807822659947
61,0.03680740738023044,-1.3007513208914643,1.5967075214780786,0.6914916915570853,-0.44559783098194,-0.41274398166770504,3.403606335043447,1.0771793507342944,0.8535549475573873,0.3269267368108242,-0.46815693301979816,0.17010576551734125,-3.5535182047632485,-2.7269133921445565
62,-1.142500269740974,-1.4307267287053578,0.6318508663225934,0.22327643016266652,-0.32060068332080605,-0.4963255041895225,1.8022486040025156,-0.002348074017600634,-0.7008107993513064,-0.5956877668804168,-0.7146407204253539,-1.3254294827478568,-3.7418098369825414,-3.2811976995527505
63,-2.223140738723394,-1.5306878132707031,-0.41472186921074955,-0.33358631652723275,-0.25126281020620334,-0.5835841161855875,0.006259711602250173,-1.143001854811391,-2.5237780541176025,-1.6427893583693425,-1.0072855029207672,-2.808408700420928,-3.806721740031663,-3.6997509306841025
64,-3.096722123510285,-1.6032477524806938,-1.4422972957591278,-0.9358093130904055,-0.2495537208195928,-0.680095507079131,-1.843006821450899,-2.2358428317189176,-4.447851212135454,-2.6921697800384377,-1.3092833074460892,-4.120076815103733,-3.74079752710247,-3.9136629736180613
65,-3.675732135153684,-1.6441982369959418,-2.349974622746002,-1.5293519317842001,-0.31360930456146685,-0.7881942667399282,-3.5972958188306547,-3.1777686940148535,-6.274365374543995,-3.610235484725565,-1.5777993775983057,-5.114962825260622,-3.5342910817681936,-3.8641778170594834
66,-3.903211844379447,-1.6440400312491015,-3.047711337331032,-2.055514793197374,-0.4287873239336106,-0.9064383182313579,-5.115854879909221,-3.8832094680017115,-7.798540292034869,-4.270376206985833,-1.7695384261794698,-5.677692286203047,-3.176872039330396,-3.511536917410059
67,-3.7588602076706827,-1.5906742366010227,-3.466110183113604,-2.457868047112552,-0.570557092461332,-1.029559549272086,-6.278843254333736,-4.292848471137304,-8.835375408260889,-4.570627639852397,-1.8462268940633173,-5.736274370681466,-2.6604473940598776,-2.8423225178167817
68,-3.260926285417763,-1.4727510423027301,-3.56384244245865,-2.689148002598086,-0.7087488866818188,-1.1488826171126685,-6.998294771288135,-4.3784021082869815,-9.242829138158946,-4.44808238829076,-1.7793614981291361,-5.270349375997469,-1.982750414191312,-1.8742922620313445
69,-2.463785712039495,-1.2830824039048832,-3.3319317076378034,-2.717261787390103,-0.8125080643240348,-1.2531126444614133,-7.225533690682423,-4.143184190406961,-8.939330013284893,-3.888056122897042,-1.5537526765821223,-4.31355616246303,-1.1511924770701307,-0.6579746765055158
70,-1.451620774105412,-1.021523070725781,-2.7945224051515867,-2.529650344712341,-0.855218703605421,-1.3293475361095082,-6.954413037531591,-3.6188602890191848,-7.9136449053464615,-2.926846673913153,-1.1696049138031759,-2.9499251558818473,-0.18636470019563223,0.7253423835358241
71,-0.3290591080213612,-0.6968057307635062,-2.006168248230151,-2.1354593167846065,-0.8186895453934744,-1.3641704902281144,-6.2202588977528634,-2.859340686208247,-6.226283571390256,-1.647879551689744,-0.6430787695709614,-1.3049093940958145,0.8754684914173538,2.1692007577449535
72,0.7900756377161612,-0.32696913707225217,-1.0460444995984364,-1.565229065549344,-0.6960215324261732,-1.3447170412004237,-5.094884335742028,-1.9330752015965909,-4.002757671827993,-0.1719559538647856,-0.00543298964596964,0.4677622727289069,1.9815071704249838,3.5507228035849128
73,1.7946125202823162,0.06177571348988264,-0.009775550202403923,-0.8681072683187366,-0.4927778502999985,-1.2596724154086394,-3.6784240522495377,-0.9150608317215116,-1.4199826436108849,1.3569243937536288,0.6990701961756846,2.2018504180664205,3.063683454822139,4.741769414091599
74,2.5872203948245427,0.43766257103779854,1.0002445369075978,-0.10687642270663647,-0.22632387985319846,-1.1002173099541162,-2.089002668538656,0.12032516183341255,1.3121914431898678,2.7881958174290356,1.4162922232812476,3.7352700519263013,4.042340725135405,5.621483403243111
75,3.0938377469332834,0.7671598532346859,1.885075986474014,0.6486568740440549,0.07653490865301683,-0.8609809676855832,-0.45137694995000477,1.1049268719941943,3.9719616935520574,3.981650948427645,2.0861898394340233,4.925975834050098,4.832310773190952,6.089016939160879
76,3.2705092677414225,1.0194250639439377,2.5590399330326417,1.3291694474409137,0.3832461606799154,-0.5410610633214232,1.1143066273585815,1.9805532642433936,6.346666625534951,4.822598510213211,2.6474624595923792,5.66558233981466,5.351026279881736,6.075160587205927
77,3.107099102953473,1.1707802373201197,2.958212887639784,1.8733696728730023,0.6599743124221285,-0.14512048245401288,2.502604778975983,2.7009870742174087,8.251842406958861,5.233558399751288,3.04269721695526,5.889533069405122,5.527944116145199,5.551616575468451
78,2.6276634553936233,1.2085175978643685,3.0468339527822463,2.23470888188574,0.8761719960734128,0.31552333039509,3.630876132123221,3.232679945558682,9.546556603439493,5.181344380928994,3.223778638425069,5.582990378504886,5.3142334937010585,4.536796112552552
79,1.887559098417281,1.133398735074263,2.8210152731112514,2.386457262599815,1.0086019432301414,0.8220149398714198,4.44478049901904,3.5546800666610343,10.14391552792418,4.679025409904716,3.157228947632494,4.782002936664383,4.6914620232142825,3.0972726641369337
80,0.9676252512020295,0.9603654424668094,2.3093548871959073,2.3245194461413274,1.044261312872635,1.3475750163846352,4.920830109098298,3.6582851157575105,10.016229868114664,3.7828944657269816,2.8290151548329545,3.5698940659083807,3.6779463519094135,1.3443855044124928
81,-0.034002539468670635,0.717220276867321,1.570300827946195,2.0676189379254417,0.9818472434907521,1.8579354194948146,5.0658957713049535,3.5467195360201087,9.194837669569596,2.585123052553602,2.2482340351687364,2.0691884988196403,2.331557944568527,-0.5740556102810365
82,-1.0117087267214366,0.44133010540811074,0.68640005995478,1.6547886215663625,0.8316298211263583,2.3128665229351126,4.913811888023157,3.234873294221248,7.7649895179001795,1.2031822877627223,1.4490143560326716,0.42974836282176354,0.7480983415622795,-2.486494403071891
83,-1.8629713992794306,0.17471464758933977,-0.24412877967105248,1.1404324823412864,0.6138281241643869,2.6689322847187107,4.5194610786528475,2.7488966732723488,5.85650976732668,-0.23265563205248954,0.49000971599469645,-1.1858858398294634,-0.9451381994421428,-4.213775999184182
84,-2.4987353329763473,-0.0418439549349847,-1.1177584357011794,0.5875324634800635,0.3557824323205714,2.8834084947423415,3.9509545662464016,2.125300792233274,3.6311905284465467,-1.5923526737731857,-0.5489672603645671,-2.618670306709235,-2.6003644110428494,-5.587226724940974
85,-2.852601889014712,-0.1748406805219782,-1.8369466732993065,0.05982495191483082,0.08835594313941858,2.9190677032651515,3.280743208873166,1.409212322458283,1.2680694184447234,-2.7583656212664995,-1.5732910228276045,-3.729252373081749,-4.063930736876184,-6.466801499350905
86,-2.8878998612282807,-0.20332757270724203,-2.3211642489088247,-0.386070846372659,-0.15792952013398356,2.7493129510190446,2.576662769593906,0.6515737741249991,-1.052120183211747,-3.6360044187398515,-2.4825255878295573,-4.412568498857326,-5.193027452876594,-6.75724156604129
87,-2.60183185587294,-0.12258240114506143,-2.51638211260615,-0.7075521487478579,-0.35651760687303236,2.3629777046555676,1.8939949169261958,-0.09467414281783237,-3.1619816070028812,-4.1610270285572915,-3.18126871613859,-4.6092484777574345,-5.872432191366199,-6.4202239690886564
88,-2.0261197365107995,0.054487901734530074,-2.401811382118392,-0.881035688954588,-0.4877579095063604,1.7680404530089562,1.269576223655659,-0.7791142235330307,-4.9206779091362955,-4.303931986330511,-3.59058942937199,-4.312422450205511,-6.029071608224003,-5.480787776617303
89,-1.2239069011255237,0.2985417504035434,-1.9929282076670527,-0.9043722587318799,-0.5408383196299358,0.9935521362391164,0.7187899226508268,-1.3585323065500161,-6.2242290333761,-4.0707622383449875,-3.6585390128791224,-3.5689198915335463,-5.642290747746965,-4.026891886395933
90,-0.28309579154791426,0.5675292149142601,-1.340219529537502,-0.7963245337431186,-0.5145430005307553,0.08924595312652513,0.23593245870844234,-1.8010825791370297,-7.012058167509754,-3.500587368601348,-3.3681808043914114,-2.474431723052061,-4.7481940255277495,-2.2017500625738773
91,0.6932467754354897,0.8124776031144535,-0.5236137515510165,-0.5931714380314796,-0.4168395072753966,-0.8774253220582453,-0.20200971344004712,-2.089277597908568,-7.2693385168966245,-2.6601490793024296,-2.7418092764512334,-1.162923509488239,-3.4371833610193323,-0.18950400174012288
92,1.598371452802662,0.9845252209680042,0.35686101087776106,-0.3429180402627763,-0.26344966536488146,-1.8267362399850033,-0.6286500534691797,-2.2212867950559487,-7.025106927744684,-1.6363956993624467,-1.8404851399252213,0.2086577263522339,-1.8447537982550637,1.8043006774270196
93,2.33387503326878,1.042180539607588,1.1931093329760474,-0.09794352630387144,-0.07566928087241696,-2.674171421625761,-1.0795243370664636,-2.2102762768412756,-6.346516529663408,-0.5277641680584327,-0.7586305622853763,1.4786682169628498,-0.1365617868450568,3.5752228610250696
94,2.8208142454975405,0.9577332492805511,1.8821988697081968,0.09284726216229594,0.12223887691023977,-3.3391732885027237,-1.5827867762919972,-2.081828316776147,-5.329953864390518,0.5649156462545976,0.3858874036939625,2.499853893494268,1.5103983958030667,4.942737083239095
95,3.008524896921116,0.7218631020386532,2.339085631211985,0.19123241246774486,0.30574831812708514,-3.754147027587572,-2.1508025310769683,-1.8697845898065284,-4.0900136166567105,1.5471016269483904,1.4651088305843873,3.15685816749359,2.928118229516584,5.770552746586212
96,2.880048070948489,0.34576393135539185,2.507163646410719,0.17521140175099753,0.45257937042496194,-3.872599594833754,-2.7740966245757255,-1.6111086235118168,-2.747485231940602,2.3381591953974263,2.356174026638537,3.379909051038198,3.976798135245218,5.981913628490279
97,2.4535072609990474,-0.13952425838408944,2.365245922805698,0.042107216825260134,0.5448017937286571,-3.675319070748737,-3.4188089850840107,-1.340518834836913,-1.4175531712440592,2.87744720249079,2.9564497485733052,3.1529043507945014,4.560533556354618,5.567964592081249
98,1.779315309038618,-0.6864717111217907,1.9300635332795437,-0.19116060893127645,0.5703982044568066,-3.1736853073396847,-4.0282937667531895,-1.08568184574926,-0.19935086323129383,3.1285619045750335,3.196616894832113,2.5148355617295888,4.637526684508508,4.588150490661417
99,0.9336358922380967,-1.2366252057834213,1.2539759879631758,-0.49060643651804425,0.5242312374460554,-2.409533432679228,-4.528873296681085,-0.8636745555339433,0.8321505732068099,3.08156597800478,3.049947801487053,1.554367698761914,4.223635752657191,3.162628843952086
100,0.00900132710978753,-1.727620248828416,0.41822748960862205,-0.810090375203693,0.40840935201815054,-1.4514329708451743,-4.839115058839218,-0.6792379389198238,1.6311791752450182,2.7531306200616212,2.5364440568690134,0.3982938228523343,3.3889564252499227,1.4576886702608818
101,-0.8966692628652506,-2.1007122796098607,-0.4773303024172003,-1.097873757953306,0.23207276115244513,-0.3877341989529828,-4.881441325436816,-0.5250841126922017,2.1826931277861616,2.184600061928812,1.7211398333973795,-0.8046192882080587,2.2480209504978346,-0.33396722110938937
102,-1.6912441564616016,-2.3078706790397563,-1.3266774465978475,-1.3038872629083496,0.010629507224670789,0.6828107960120798,-4.594484007974839,-0.38421771164383434,2.5003329649810904,1.438072707381925,0.7066240342464202,-1.90229273261232,0.9449853081978935,-2.015614205338595
103,-2.29837156099756,-2.317575692664857,-2.0305994132412097,-1.3867273905854667,-0.23552200973523818,1.6617009381010839,-3.944416142550281,-0.23393340407083796,2.621109631539507,0.5907023457432975,-0.37939744938853137,-2.7581061617232145,-0.3642416853054355,-3.4088363569728957
104,-2.6651343248223416,-2.118656346338424,-2.508538471788828,-1.3194763513179428,-0.48272898433998573,2.4612859215429763,-2.93355308492226,-0.05089321297795546,2.5975279585116433,-0.27243538973533415,-1.3999931651374837,-3.2674061012486546,-1.5306567530580728,-4.373140034096893
105,-2.7665744996180424,-1.7217728821627665,-2.7078607022401933,-1.0936282292791024,-0.7061880850622159,3.014002366352756,-1.6048184310924798,0.1834937795395456,2.4881816040062414,-1.06640067091954,-2.2263409724010543,-3.3697198606802807,-2.4293176671322794,-4.820604433634694
106,-2.6067445965656897,-1.1584417958035715,-2.609460104696157,-0.7206674947668644,-0.8822808792491424,3.2791345062124546,-0.04117832521078849,0.4782423068139241,2.3480886660285445,-1.714695083995497,-2.7542495740332353,-3.0552407732155453,-2.972970422429218,-4.723996631208315
107,-2.2164048321905483,-0.4777866346531623,-2.2291310565360956,-0.23114700980379838,-0.9909583246103549,3.2463315156745276,1.6402001993466848,0.8293195488222771,2.2201150877020335,-2.157007512427453,-2.917663449367257,-2.3649178974585157,-3.1206242031720914,-4.117619596612333
108,-1.6478917706907992,0.25856116069833257,-1.6146978835538948,0.3285869755948044,-1.0179536810691154,2.935547777023245,3.298602767763657,1.2181722554444734,2.128721544287469,-2.355534130862632,-2.697303947737569,-1.3843114037746018,-2.8802181297510856,-3.091054419197124
109,-0.9679809048798614,0.9828143892090766,-0.8394167256831685,0.9016097063842488,-0.9565790743585565,2.3935346588282043,4.784102547899101,1.6126232075679419,2.0769653781562716,-2.299057359859295,-2.123219357876216,-0.23215211023197074,-2.305274882861601,-1.776787600671604
110,-0.24972719283724543,1.627943922235768,0.007404565273505216,1.4269520375024756,-0.8088586386511258,1.6874418015804522,5.953915226778015,1.9701663587357232,2.0472257333148494,-2.004151294463864,-1.2708252704764909,0.9548270778903492,-1.4861800887518521,-0.33338639659750025
111,0.4357075413537698,2.1344431098752006,0.8313318327177504,1.8466955652289745,-0.5857827733731763,0.8964272585880313,6.688791320408087,2.2433212370890363,2.0055617990735577,-1.513192368224351,-0.2509077168259916,2.038809114232497,-0.5373711136365954,1.0736631823363314
112,1.0263259935635036,2.4562741738984735,1.5439104623470206,2.1128086629553713,-0.3065455708149863,0.1023848871920113,6.9073937989138665,2.386364368279233,1.9090432293519521,-0.8892601344232005,0.8050903619456032,2.89742820618193,0.4178164661529489,2.291143481478399
113,1.4749393289547255,2.5654207607810124,2.0726257192341206,2.192922668985809,0.0032477204892636252,-0.6190508985726678,6.576802871188943,2.362493651388122,1.7148969537389578,-0.20845252838618553,1.7625025799908738,3.4379047565107657,1.2626685644489346,3.1950730359057444
114,1.7527097962750362,2.4546059359768586,2.3685845007708806,2.0743531804832305,0.3142606777358157,-1.2061679524994364,5.7177271783032735,2.150348285127346,1.3899809637020497,0.4494635105395688,2.5011992825809193,3.607123585181502,1.9010333348100443,3.7035352810698874
115,1.8504019105604987,2.137906484476177,2.4111031502605114,1.7658613123926197,0.5966951704199466,-1.6166880948698783,4.403632662366261,1.7488328037319159,0.9189898419311948,1.0108634388688162,2.931228596774498,3.3965585482089535,2.2680134292235183,3.7839955469387485
116,1.7774308432483623,1.6491931731301182,2.2087864262786687,1.296908120921962,0.8237323958165641,-1.8306334104214064,2.7537509534495834,1.1793863506782862,0.3099493452360122,1.4172208344854456,3.0041926346703978,2.841626472707414,2.3362142832806927,3.4544405244908276
117,1.5590343355988967,1.0385376245624958,1.797115559537711,0.7144530448776557,0.9746720171290205,-1.8504139481808253,0.9207025656342093,0.48517785296878885,-0.4040456594463947,1.6319675537424927,2.718820579899776,2.0157601699607772,2.116957649957237,2.7784520976488674
118,1.2320641738629752,0.3669310257148877,1.2329764885235592,0.07764775168617855,1.037319994673401,-1.6983512711163344,-0.925836061695327,-0.2728514575186457,-1.167309887060785,1.64428888969691,2.120026044183911,1.0201316943123688,1.65652696084156,1.8550737621550708
119,0.8399840183683853,-0.30016019771311064,0.5869060316091453,-0.548956953425406,1.0092778947332475,-1.412145215799525,-2.6174732555737052,-1.0226996872093903,-1.9080382431244656,1.4693187795491454,1.2916625699559812,-0.029544078770448946,1.028141906928281,0.804944104716804
120,0.4276775455160325,-0.8997362093266779,-0.06592162701472563,-1.1028747206720777,0.8979502242236537,-1.0390001555839739,-4.005229817115994,-1.6899309449876518,-2.5478715643088936,1.144739533805735,0.34408945141011665,-1.0173916767004343,0.32088966831506843,-0.24541872456341035
121,0.036629734999284305,-1.3779494306671356,-0.6548244438503873,-1.530896390522338,0.7192836909954565,-0.6292346385556734,-4.9752481150373695,-2.207042906598905,-3.0131156016928835,0.7243497119328184,-0.6015959650676161,-1.8411247136286677,-0.3727943037534629,-1.179138260195756
122,-0.2990403196883836,-1.695760630652065,-1.1217258068340938,-1.795137587412214,0.49544801927322973,-0.23019823726059363,-5.460182100059084,-2.522230582416575,-3.245848853930238,0.2696443734710223,-1.4303248776396584,-2.423478803225316,-0.9693509167606315,-1.9023647248448068
123,-0.555336480718221,-1.8328615622902071,-1.4272662717218698,-1.8771347010048054,0.2518259092740941,0.11878337242123853,-5.444927247524298,-2.6062358919510404,-3.2131157831723414,-0.15923846271534037,-2.04835778455432,-2.7199784626886694,-1.404371930645099,-2.353927705203415
124,-0.719725556892824,-1.789335581307534,-1.5542042997931167,-1.7794464841056357,0.013771240057630672,0.3899034516158244,-4.966090996469782,-2.4562221123729673,-2.9126633179809107,-0.5117778196776168,-2.3949087646306917,-2.7221923097551524,-1.639597367465509,-2.510209210929544
125,-0.7910289391343279,-1.5848052494281575,-1.5077760706444576,-1.5245539194302606,-0.19639463584554662,0.5685259978900107,-4.105426010527985,-2.096047119778155,-2.3742089774917576,-0.7532896432191925,-2.448492665201411,-2.4562486033176283,-1.6658331254919803,-2.384871731223149
126,-0.7780149282885156,-1.255162517718592,-1.3131167153778844,-1.151232815709438,-0.3617458641976463,0.6529814908735931,-2.978232693271308,-1.5728616292232473,-1.6559488114881307,-0.86825793486257,-2.2272636797106733,-1.9770334847213382,-1.5016228987285962,-2.0237955279812017
127,-0.6969964764140715,-0.8473343270266828,-1.010261134458897,-0.7089409587371539,-0.4721985493139247,0.6527467352903848,-1.718369453196898,-0.9505356162369407,-0.8368033305153082,-0.860460470424988,-1.7835901701434564,-1.3590780366297808,-1.1881510490929659,-1.4962280088564586
