,AF3,F7,F3,FC5,T7,P7,O1,O2,P8,T8,FC6,F4,F8,AF4
0,-0.18728394212809535,0.21526983713032039,-0.42618146191176126,0.06291074940790048,0.005123515355208693,0.0030880079652422206,-0.13211424515517356,0.1634931017190339,-0.16155023870573365,-0.18710044650141974,-0.05078233840177966,-0.4338973374910102,-0.14232479096116507,-0.6287324692412251
1,2.1475099581973085,2.323448221858008,1.12275755756312,1.419641126187822,-0.32920151454883684,-1.2097020734068284,-0.01397953754433597,0.9228517745621531,-0.011197333344727918,1.1450339483870666,0.22909848863005378,1.4730300873907167,1.7096640661155,-0.23473107019019654
2,4.327070856701779,4.250862709749697,2.572488313474845,2.667304635648293,-0.6568169065898929,-2.327918664575217,0.08458941890015377,1.576848423395018,0.16025592363135738,2.422801873694109,0.4957082010266525,3.261923285460734,3.4146431798012724,0.18872276964212512
3,6.194480005071519,5.841389344629958,3.8044000294135745,3.701794095021012,-0.9598062902259268,-3.2568077853827204,0.15396994251997226,2.0667074088588,0.37911217728820346,3.5705142436162016,0.7375678081327293,4.786867453802115,4.8340555209337674,0.6354022444780507
4,7.614493957348791,6.969461598943195,4.716734700381545,4.437741627538009,-1.2185533758485,-3.918516284528134,0.1870504554815097,2.352480358460508,0.665898184809323,4.522060264064255,0.9461343070405105,5.923050146981893,5.8572079229889145,1.090950688951754
5,8.483113979680557,7.5509853267262335,5.23305670779533,4.81647962877072,-1.4125251579825127,-4.259088556093569,0.17970963051512787,2.417505117526987,1.0310628941440905,5.225413198908523,1.1161414507289196,6.577270725912867,6.411727447419463,1.5316981418567963
6,8.735438697896306,7.550190684591586,5.3091571514165405,4.811382432144037,-1.5219250137022373,-4.253190275222116,0.13138422596799518,2.270009328640989,1.4713669260475806,5.645355839898071,1.2453773495385063,6.696207694770626,6.46989950424176,1.9257564838484744
7,8.35120399377167,6.981795569362358,4.937727367412161,4.430045602597622,-1.5300872446624476,-3.906115611152297,0.045641717795094454,1.941617234359746,1.967559151492302,5.764350158115742,1.3339428495207468,6.2716633999599924,6.05020407528572,2.2363757639114623
8,7.357416396609214,5.9083293016999985,4.150179922313931,3.713095033897534,-1.426264891463123,-3.252891213638708,-0.06941208535699908,1.4829265836029089,2.4839195495023625,5.581819616491352,1.3831355619619092,5.3421409225286505,5.213921243955081,2.427065140437742
9,5.827581462272036,4.432962372540815,3.0151447672971976,2.729775241123348,-1.208304646636042,-2.3545825986125797,-0.2011107015195389,0.9567121107665757,2.97009981737628,5.11235310676917,1.3941811167059603,3.990345073794637,4.057249252950874,2.4675944977271995
10,3.87724174160009,2.688657679824235,1.6334370700989782,1.5708086897982658,-0.8846444739008761,-1.2922057408478922,-0.3328044954435028,0.42963070947142695,3.3654169055573515,4.383430001908821,1.3670738751756635,2.3365416368002854,2.699900343542314,2.3397757605198226
11,1.6558646466007028,0.824847159783377,0.12966348363345528,0.3393091064610866,-0.4751267941298941,-0.1589067617842933,-0.4451814090590677,-0.03649019634157225,3.6053862693814582,3.43319742099563,1.299790023298684,0.5281316318768242,1.271550964287575,2.041918510057802
12,-0.6644811363393737,-1.0069067920821446,-1.358944759712292,-0.8592645824134832,-0.010285524772035766,0.9487480087900108,-0.5183435940031816,-0.3926322488865008,3.6298822981119727,2.30863045071394,1.1880953050897411,-1.2737526355647466,-0.1022289105097694,1.5910607938138976
13,-2.902819270875959,-2.6667235904869013,-2.695481122168036,-1.9270409952913536,0.47098958196673724,1.9394624581699198,-0.5344842051771557,-0.6087667435835598,3.391956814462193,1.064131984267885,1.0260850013090232,-2.909415861937939,-1.3128958076948212,1.0224494525084498
14,-4.884157333578248,-4.038257975113835,-3.7567953202954594,-2.78252844114807,0.925228101701308,2.7350265602031616,-0.4808361614012752,-0.6773933036128549,2.8661049804577328,-0.23964223749928565,0.8074665812867433,-4.236024101923697,-2.2791993596348026,0.3862107650608002
15,-6.4542064382389395,-5.037449535967892,-4.44595085743241,-3.367405890129385,1.3091493550527262,3.2765602795192548,-0.3524281914024857,-0.6139356697773526,2.0546985436032816,-1.537139187816208,0.5274421831072119,-5.141649463803043,-2.9536596819494263,-0.2583752137324672
16,-7.4925252418169235,-5.617443868009094,-4.702282398943005,-3.6507096640647476,1.584791362690151,3.5287141590483504,-0.15412078473104404,-0.4539121898634737,0.9914409120104788,-2.7599034239665263,0.18490229133820324,-5.556368431516296,-3.324634315978896,-0.850185262753539
17,-7.922816334999709,-5.76945002009777,-4.50784642648588,-3.630121135292898,1.7242727330605974,3.4816082424659656,0.09856820408028716,-0.2472395108709857,-0.25896346074160653,-3.839559931036741,-0.21545793886358974,-5.459114611926233,-3.4139396891782754,-1.3340753011490776
18,-7.719379060953007,-5.519785891320606,-3.889443217405639,-3.3303804114397657,1.713490119410071,3.150531740785987,0.38019534280486156,-0.05043116693559731,-1.605228488783175,-4.711882235819047,-0.6615157916361649,-4.879427927782788,-3.2705634743736134,-1.6680522991984048
19,-6.909105632277084,-4.9237855558327315,-2.915891073039033,-2.7991473011710464,1.5541917016884155,2.5736236993978556,0.657795102682635,0.08223870819677835,-2.937700268356444,-5.321714817126974,-1.1329570284435129,-3.893808956602922,-2.9614815983058294,-1.8287278602552122
20,-5.568848248146192,-4.057551187499324,-1.6907904679117527,-2.1008760499542056,1.2640904950336491,1.8078922927904566,0.894783516957345,0.10736725832422511,-4.13948093714329,-5.628200535231646,-1.6016216128156122,-2.617012593023857,-2.560918565496992,-1.814244477575857
21,-3.818430262019656,-3.008695164862326,-0.34155157379406853,-1.309443570892394,0.874954812562455,0.9240044358008914,1.0559017700358724,-0.000391448016648075,-5.099102489692697,-5.609538767138679,-2.0330562718302336,-1.1892208910664475,-2.139531055667196,-1.6442450824248105
22,-1.8099751738833325,-1.8672232332889738,0.9940993402102829,-0.5003585209410754,0.42889491338057795,0.00029752787556408067,1.112503337768089,-0.24365800784840336,-5.723115452882747,-5.2664284405878,-2.3892049631748193,0.23945973600675036,-1.7549461321006423,-1.3568944375993162
23,0.28545210780984903,-0.7175679305729932,2.1826267507119983,0.2566231191071745,-0.02668828633988937,-0.8835524785285596,1.0473546078007363,-0.6009194747068661,-5.946931485266139,-4.6234583805299625,-2.6320118974533675,1.5253956001066784,-1.4448598258432102,-1.0033885505195488
24,2.292676817458217,0.36747740532123213,3.1085873572314195,0.9037349009919299,-0.44484972464345734,-1.6528092836608748,0.8581217864529174,-1.02867917897428,-5.74248526634402,-3.727980786119326,-2.7275818373425507,2.546815044907296,-1.223527632807521,-0.6407419088462105
25,4.04739600258177,1.3305089381850272,3.686389182100002,1.3997047636452282,-0.7848108487644712,-2.243540685833182,0.5588693430651972,-1.4669587935408999,-5.121716093848458,-2.6463873728846674,-2.6504489394142974,3.2164035160633864,-1.0819976499522816,-0.32387067702416394
26,5.410000314292185,2.130896275961662,3.868635448756933,1.7221588643372698,-1.0169053092498306,-2.607733158755722,0.17918463001027518,-1.8474528620101722,-4.135434391657329,-1.4581214242456018,-2.387452294485055,3.489662805552647,-0.9919066705757414,-0.09806182271344362
27,6.27705417988424,2.7440902686690327,3.650192234023408,1.8678079277947695,-1.1261170663847317,-2.7173287164306763,-0.2390741384183075,-2.1032227775105676,-2.8677420058405994,-0.24812251584745018,-1.9407084804484296,3.3681257151853954,-0.9121519581174051,0.007168694228263111
28,6.589475726433575,3.1594091122822863,3.0676206535449086,1.8505574052861906,-1.1137311615764827,-2.5668612382663873,-0.647005543728329,-2.1785518493169636,-1.4267360963958808,0.9013469329373501,-1.3292195810702958,2.8971626381071984,-0.7973449785266281,-0.017956187304708163
29,6.336750064429454,3.377005302238175,2.194139756697685,1.69791281867914,-0.9968427227094576,-2.1743924195975697,-0.9951229911663534,-2.0375160118693096,0.06732197876621672,1.9184408631721248,-0.5887677364929514,2.158780715975,-0.6067120144416913,-0.1621595827383093
30,5.556850008860155,3.4047336618833253,1.1307746487941774,1.4462294040357733,-0.8057338927468191,-1.580508970308441,-1.240078577638513,-1.6699768700239885,1.4949010591464935,2.7480445722290257,0.23008126911437773,1.2604112392783133,-0.31206337679296653,-0.3945796031545301
31,4.331907733448442,3.255538088774221,-0.005254418894247337,1.135463637236491,-0.5794010532182488,-0.8452561995858893,-1.3506315400147906,-1.0940618241666962,2.7495881210470947,3.355894168417338,1.0658313334826621,0.3211374644169985,0.0963902167754815,-0.6688064793231312
32,2.780054308762683,2.9457775259181487,-1.0935705938610223,0.8041111811750904,-0.3597651101556858,-0.043053493519922985,-1.3119553702124618,-0.35471367233829454,3.748496711037176,3.730062854831784,1.8515013213494615,-0.5429168418194025,0.6072596469439543,-0.9289658296695248
33,1.0441906423157874,2.4946550287325633,-2.023649989116836,0.48495593106749363,-0.18529738605854332,0.7441417322685175,-1.1276468553027643,0.481507612696576,4.439491166586823,3.879760113953372,2.521167249202077,-1.2322670603209231,1.1886506523867928,-1.1170943447919297
34,-0.7212594520793749,1.9246401699119875,-2.7063799109221205,0.20211441760289764,-0.08491711349943284,1.434904878893104,-0.8191753732102823,1.334605744828119,4.804426285605503,3.8317554633111133,3.0169054900389844,-1.67521175681469,1.7921591901393867,-1.1809180207038446
35,-2.364366038906208,1.262530516760147,-3.0829296537612927,-0.03034251180600207,-0.07304125683087581,1.9568928980025728,-0.4229199773723248,2.121086938825855,4.858101562381102,3.6250336527057896,3.2953091212683314,-1.835191755403575,2.3595363272061833,-1.0811083044237744
36,-3.74915027597551,0.5406249476919488,-3.1300135697968354,-0.2081453654409449,-0.14657809115645193,2.254933656848051,0.014693201210000093,2.7641790833887296,4.643173381101991,3.3044815230373876,3.332723602166645,-1.7136035982664821,2.8309546391989597,-0.7971536352138322
37,-4.767203985719029,-0.20258734175961152,-2.861037086389731,-0.335151225870804,-0.28444980782641816,2.2976462198493985,0.44318436482005164,3.202849047288189,4.22179412856206,2.9144831934507396,3.1284463100226434,-1.3478676418974607,3.1535690166907555,-0.33113361681248626
38,-5.346380182791559,-0.9227653254399688,-2.3230799417940537,-0.420633952922043,-0.449919433979379,2.08165202667346,0.8142640105728906,3.3983732660540418,3.6651843511847044,2.4932579657644247,2.7053512722927,-0.8051205612210117,3.289036666003303,0.2910928850686062
39,-5.455770318817967,-1.5714531150787223,-1.5901393184227028,-0.47607199138057565,-0.5956131613908495,1.6326612062675991,1.087484693862592,3.3376477328815373,3.0426309334750146,2.0686274666231306,2.1077108300034175,-0.17241747809773209,3.2188434165026414,1.0214952396669474
40,-5.10657956097684,-2.0993211043404916,-0.7534782076259684,-0.5120163867323465,-0.670716353274498,1.0030826133771833,1.2346205474197876,3.0329691957934144,2.4114973194008935,1.6556744109834285,1.3963515979687118,0.455267902768636,2.9466452967454067,1.7941748313996317
41,-4.348950176278914,-2.460703975421282,0.08974715782880525,-0.5355782576477578,-0.62943883073956,0.26626680048521967,1.2423395094344563,2.5185841844716217,1.8097106626648698,1.256493898564895,0.6416546670530479,0.9877122993463803,2.4973187103326078,2.5319576325987545
42,-3.265214596018547,-2.61892455575729,0.8482112171358573,-0.5489478554399848,-0.4395574828390022,-0.49202225442338193,1.1130072448744723,1.8447891599491502,1.2518604038047665,0.8619744235911136,-0.08476463569227309,1.3511887276895562,1.9129406653853034,3.1545927079650244
43,-1.9604352638505689,-2.5516577798589135,1.447084907282901,-0.5491695294331187,-0.08971124260814291,-1.1838822802553504,0.8637125325787316,1.0706910500239508,0.7295344735577277,0.45530301195285455,-0.7186369397954259,1.4978258292487996,1.2464037728299013,3.5876622817947883
44,-0.5513635846235974,-2.2554722035687425,1.8363569784894858,-0.529179538467422,0.4058148144478837,-1.729976642583751,0.5237947316379244,0.2568521791405352,0.2158910697325016,0.01668400816011199,-1.2107348376516485,1.4114186938408613,0.5537306829866936,3.771189397832468
45,0.8449117132987419,-1.748713593673917,1.9958014840843148,-0.4798995489267066,1.0058126490622465,-2.0692424260932896,0.13127248443648082,-0.5410600431904435,-0.32620127883619976,-0.4713873300753623,-1.5326186401617403,1.1089726629498067,-0.11366364930150515,3.6669230599141325
46,2.121377222197512,-1.0720668330701193,1.9359875963755904,-0.3929987960756952,1.6449282986132971,-2.1662803631091494,-0.2713742363165717,-1.2767861932396163,-0.9337244795367806,-1.0190291920424286,-1.6796012775191616,0.6377997009681918,-0.7155302329000756,3.2633972520411976
47,3.1894974625268233,-0.28642709204578315,1.6952190475074038,-0.26381872279536556,2.240459166191121,-2.015407699146955,-0.6416160761763379,-1.915726819045421,-1.632477961807445,-1.6247771669425026,-1.6704666585187957,0.06855615753228163,-1.2271460692356742,2.578093717829618
48,3.9848497472222486,0.5319154240532588,1.3328116937597094,-0.09391275992874658,2.7025075125891647,-1.640821126477825,-0.9410660613558816,-2.4349587987349652,-2.4273439410502444,-2.2729103623987092,-1.5439211283372263,-0.5148590017754107,-1.6408305937683878,1.6563704101422068
49,4.469640881754278,1.2983840763696177,0.9196065484162427,0.10730489359353362,2.946246336846911,-1.0928760945059492,-1.1390998959620018,-2.821447398927086,-3.2956293540523465,-2.932739954910096,-1.3522192222681655,-1.0272005722059538,-1.9644436867564463,0.5672163463308874
50,4.632200594639923,1.9287870250093788,0.5270093092076498,0.3221917716737892,2.9046297781869814,-0.441048876363569,-1.2156262688044097,-3.0691756565226083,-4.184848425366622,-3.5600524426743316,-1.1528138779189006,-1.3939577085675985,-2.2171804665016617,-0.6036896676505838
51,4.483962304650681,2.348584849528332,0.21608870727877044,0.5260057833572558,2.5396966932223,0.23538600556085523,-1.1628036473145689,-3.176042324249317,-5.015648224802877,-4.1006191283514415,-0.9991765059084465,-1.5619470283453463,-2.4234121670722186,-1.7627678449732427
52,4.054757412222796,2.501681114496652,0.02830933968945674,0.6895282830638563,1.850716176314043,0.8576319127559223,-0.9855803694627303,-3.1413372914513653,-5.689775466771023,-4.4954120817173395,-0.9320718185937502,-1.506913171012718,-2.6056380926112497,-2.818065573640531
53,3.387406470946125,2.35768710434285,-0.020705467791102775,0.7829436790775895,0.8777997567246285,1.357177319689248,-0.7010274276198325,-2.9644090510159917,-6.10217031145504,-4.686946829239191,-0.9725394245673904,-1.2370201748930123,-2.7777681088828703,-3.688320824243377
54,2.5325599310740303,1.9167569310636745,0.05661664914606132,0.7805099189757372,-0.29979722396189695,1.6838309057974779,-0.33653846376518554,-2.644835836847087,-6.155586424359209,-4.626035569362752,-1.117635471954918,-0.7916849966324346,-2.93992817432304,-4.310447452348089
55,1.5445321600842008,1.2113345169234389,0.22203896315230276,0.6653696814279448,-1.5707321417240405,1.8109829943643647,0.07291966713055428,-2.1840590790987546,-5.7756862258889505,-4.278196617097195,-1.339647095311925,-0.23587653996467997,-3.075775765134354,-4.644592040494323
56,0.4785323493065657,0.3044738037218975,0.4179625030321103,0.43374616210849704,-2.803283068932596,1.7375224117604249,0.4882234705646015,-1.588100353589624,-4.924416585778521,-3.629020124804208,-1.5890481719771776,0.3493195244436719,-3.152952796792985,-4.676299208928729
57,-0.6107008748589465,-0.7152434478549208,0.5771667759853135,0.09776734559260962,-3.860336046165569,1.4863280639350667,0.8698207366980855,-0.870722923461035,-3.6096534725078486,-2.687914602906922,-1.8009665823235923,0.8784969960189504,-3.126836490977574,-4.415763875387316
58,-1.669222222909303,-1.741797970296173,0.6343880126052618,-0.3137176489117556,-4.615795801181228,1.0997315936984648,1.1813815092535151,-0.05626252918911253,-1.889582212473119,-1.4898246015089587,-1.9044392326976403,1.274343458944467,-2.9472359567023654,-3.8945662469197053
59,-2.6437819377673315,-2.662098742266818,0.5379505052360449,-0.7567310112231678,-4.97032801023835,0.6327450391710581,1.3930023624364758,0.8186381899032842,0.1290214327778818,-0.09469263425193417,-1.8333065238039712,1.478828715407911,-2.5671965618043613,-3.160606950753432
60,-3.482028714046276,-3.3676209317838515,0.25961537160661896,-1.1762401852529352,-4.864383775063127,0.14511319410691026,1.4836639294506357,1.7050049023198295,2.2986283229460045,1.4153769509369385,-1.5373071340565687,1.4615087126501274,-1.952687588615644,-2.2721355735486335
61,-4.133649257525706,-3.766138672859899,-0.1989507681537424,-1.5124062464163188,-4.286771769488565,-0.30664722367551456,1.4427526789080667,2.5435629541855564,4.444116397530797,2.9411162245834257,-0.9918256134503624,1.223728133213326,-1.0917199375546454,-1.2917742899537281
62,-4.552823312715356,-3.792316209546493,-0.804189938979579,-1.7083239334101674,-3.2775892120765135,-0.6761279202403951,1.2705920423821424,3.2688379088454393,6.3797663827949425,4.372952302954634,-0.20484034266227152,0.7981348599082817,-0.0014071576634211139,-0.2812887419788627
63,-4.701995808745145,-3.4159864304903245,-1.4935756982512347,-1.7182641975037358,-1.9250308769248712,-0.9319585839652461,0.9780584935965508,3.814994885566304,7.928125204936282,5.5992753781236155,0.7800879914841755,0.2436391525717516,1.2683394027226007,0.7024071549192106
64,-4.556555303576209,-2.6471369385463,-2.183119342823459,-1.515255009599934,-0.3563769901483366,-1.0602561356948388,0.5854557571631888,4.122788489834963,8.938557900937733,6.515535224216731,1.8854845704295327,-0.36335722921046465,2.6354091283548575,1.609840756843867
65,-4.109657395204727,-1.5369291808521208,-2.778428895632958,-1.096832889746427,1.2757867114052501,-1.064465134829451,0.12086503130952739,4.146787359956498,9.303376174112161,7.033479161093249,3.0063989889230105,-0.9400842314245942,3.990764136951222,2.4002854853946927
66,-3.3762254718567566,-0.17446881476885584,-3.187741985469136,-0.48797526480270964,2.810445163926315,-0.9628530645673518,-0.3818214612000373,3.8619460900671965,8.969752375021974,7.089771782261098,4.021095582176305,-1.4091739188102546,5.20812057037461,3.042113849789365
67,-2.3951479101103206,1.3205141708677328,-3.33504582843782,0.2594382861594874,4.096058470838798,-0.7842434762402534,-0.8850288617018925,3.268628419100921,7.946145708094562,6.653211542621313,4.804881446737159,-1.7093152891268646,6.1571274984059015,3.512628285014837
68,-1.2288803275155402,2.808474421416716,-3.1713765239143052,1.0708336304414643,5.007305747147894,-0.5627722092059134,-1.3497076440743627,2.395328707500698,6.302605180763537,5.729796475067804,5.245482436247061,-1.8032440656563702,6.718574732106842,3.7977721476410564
69,0.03997478556005722,4.1433497117780265,-2.6826578604460036,1.856507893083184,5.458645471641525,-0.33251853555807714,-1.7376054103890406,1.2985734338863888,4.1649843614953195,4.365000493701995,5.258087713813683,-1.6819635904875214,6.799775347563297,3.8919910813922693
70,1.3150621033225813,5.187040645412566,-1.8929531387199128,2.521753059077907,5.413095853397973,-0.12279726998064926,-2.013623736144018,0.05978353558149601,1.7037264074801992,2.6428017225610336,4.798120929520186,-1.3646985680480237,6.348115106193327,3.798320267784523
71,2.4950850197736756,5.823585216796753,-0.8626798849969269,2.978338472664956,4.885265814942315,0.04527989451140788,-2.1482723998747377,-1.2207898740058376,-0.8816059323026358,0.6812442375268446,3.869974567260716,-0.8947545078434972,5.360871246861558,3.5285707292123205
72,3.4840298004163537,5.971525870789629,0.3179312515353659,3.155908341552295,3.9384101897558006,0.16061958477958452,-2.1201753172737283,-2.432612271005427,-3.380506855317704,-1.3753983109980414,2.5303505413691956,-0.33208757432204655,3.8897744763228235,3.103332382572625
73,4.201489525575121,5.5931256782333785,1.539182250422453,3.0118005023650762,2.6760409644347636,0.22226713578683305,-1.9184879390008607,-3.465150475765501,-5.590645640037433,-3.36746646145683,0.8854472459978069,0.25611860589011426,2.039382216768066,2.5514461960460544
74,4.591669864785623,4.699410707580856,2.684601972029467,2.537949239490172,1.2292958042771145,0.23802209121851545,-1.5449826321636697,-4.218911361376609,-7.336106050281417,-5.13303737671913,-0.9180396300857169,0.8053009277948542,-0.04092097463276703,1.9086446471403233
75,4.629782917049319,3.350456526969388,3.6442617095566345,1.7638740027323614,-0.2582468502401198,0.22193572759354205,-1.0154828746624434,-4.616099136088365,-8.483031708581555,-6.522279604915555,-2.7073599409355102,1.2622125830958255,-2.170671854863169,1.2152120908164532
76,4.3248722161711655,1.6508393945269009,4.326972824985501,0.7552261275389928,-1.6463748928765358,0.19118506256255594,-0.3603091032062132,-4.609714757496829,-8.951220132851258,-7.411744578085817,-4.302125995234433,1.5911401709729192,-4.156439830017511,0.512740219886375
77,3.7186054441140537,-0.2593255005023438,4.669859632165846,-0.3920958243191118,-2.81276902151116,0.16283354719201173,0.3765498124254559,-4.190003429152261,-8.720598623103623,-7.717163651418587,-5.534653513977536,1.776778290341515,-5.812303152533023,-0.15970379314574462
78,2.8801402557113995,-2.2168926860852207,4.644231586482901,-1.5617079561930494,-3.664624927138656,0.1509302076533006,1.1397119447471837,-3.38736431437361,-7.832004174914382,-7.403329589508732,-6.26982700470057,1.8234928183762018,-6.980316908076418,-0.769474637247671
79,1.8977243769652312,-4.050535751643738,4.257237218837539,-2.6293380756980116,-4.146221327333322,0.16429369070714916,1.8661365875325633,-2.271161001204066,-6.382234337531621,-6.489813425787303,-6.422027456371707,1.7513330080236194,-7.548518342651326,-1.2936725743166866
80,0.868151091830723,-5.596522125388509,3.54937963053983,-3.4768396541678634,-4.2418713800599805,0.20520214325970448,2.4901420017968725,-0.9442887029760786,-4.51388851103246,-5.051599762272508,-5.966905398207605,1.5897112556648498,-7.464243323772301,-1.7212555900793618
81,-0.11451332740242806,-6.713928302699337,2.5885172130464706,-4.005986735875664,-3.9743047266870395,0.26908494483637346,2.9493408793680733,0.466173070169628,-2.401028843910765,-3.2141936919482195,-4.946318992346037,1.3700625237911723,-6.741038520713468,-2.0534327962014562
82,-0.969427985678436,-7.297874779468223,1.461383065981803,-4.1503855879808,-3.399072921454272,0.34520095863971684,3.1909608400387843,1.8214163677661535,-0.23210655094134305,-1.1433189448438819,-3.465533182670709,1.1189520230563976,-5.45818367513659,-2.3020817297830756
83,-1.6373346411189145,-7.289545273532286,0.2638785341428402,-3.884011311451933,-2.5959839530267232,0.41819486452615684,3.1778980192859425,2.9852411336201055,1.808122905585281,0.9700685241783065,-1.6827049273458232,0.8529891672429629,-3.7526977520789595,-2.486266337591152
84,-2.0857382737555685,-6.682043372044858,-0.9085871658077495,-3.2252391820507955,-1.6588106653254502,0.4703468234857103,2.893800640345469,3.838738310846903,3.555870363553037,2.9281534127013074,0.20835346740502536,0.5765460931523831,-1.804590073996096,-2.6272936916478886
85,-2.3103486183486055,-5.521509731625105,-1.9696091875362425,-2.235757024493007,-0.6845735553429393,0.48426718061942015,2.3465100003164157,4.293647533914704,4.8830344099059015,4.546248251959848,2.000258743506396,0.2827322509428626,0.18306610392371256,-2.743068026608733
86,-2.332764139541873,-3.903349270093357,-2.8483581907682582,-1.0143616653865857,0.2364084849342076,0.4457341703196904,1.5693015395144914,4.302775528319913,5.707911948523006,5.672307257491548,3.4964289346380473,-0.04256417020446722,2.0070014083557557,-2.842717139108594
87,-2.1949132703013796,-1.963869356524852,-3.4937993825679463,0.31371467506396394,1.0287338833920432,0.346330733080265,0.61956130598628,3.8661219746895568,6.00086073024269,6.203769508681009,4.5347861546219015,-0.41438030099487383,3.486897743956111,-2.92253001164075
88,-1.9512085363332978,0.13193321312507528,-3.876528409263531,1.6107217877733848,1.6377360476614637,0.18551722798373793,-0.4252107167071554,3.031805917954057,5.784412654418851,6.099668216764741,5.007790608894707,-0.8414296366781914,4.486025789811087,-2.9641286645600298
89,-1.6596487084824996,2.2053216750898352,-3.9885021808687506,2.7418957541816606,2.0325682340216633,-0.028202668925680314,-1.4738789221729374,1.8914774662242009,5.127935852838628,5.38634161684918,4.876150539658177,-1.3194570761934201,4.926796376753883,-2.935502341171719
90,-1.3731839659291145,4.080113187162307,-3.841135859499043,3.59067754782819,2.2065411757205777,-0.27729073902396595,-2.430125555464787,0.5705698686315974,4.137545117958436,4.155730161471822,4.174263702011362,-1.826717994331886,4.79920510954368,-2.795090633668084
91,-1.1325397794946386,5.598775926500377,-3.462302738936257,4.071802718008149,2.17497842000814,-0.5364944832994052,-3.202082660361251,-0.7855914603054086,2.942493638567248,2.5560840650998484,3.006450285188522,-2.322770137835676,4.160994961221241,-2.498577370104049
92,-0.9614115294022673,6.636783504799536,-2.892730800957919,4.140686572163715,1.9710706361087913,-0.7754410978433335,-3.7121249907878306,-2.028247271851171,1.679676648428968,0.7758359045589386,1.5342143921570244,-2.751196925969263,3.129395053685668,-2.007535971047646
93,-0.8645493992113382,7.11382723565205,-2.182176994981941,3.7979973535061307,1.6403533120631448,-0.9622720266318547,-3.905694288722012,-3.022279788059482,0.4780870445947527,-0.9777055194822161,-0.044031073345274944,-3.0461704206380347,1.8653823573052786,-1.2986453595217924
94,-0.8288151160356144,7.000779190322349,-1.3856228753330644,3.0889154558531664,1.2345036997709375,-1.0678981217734922,-3.758048757079879,-3.6618220799549053,-0.5549457564378006,-2.5024363625309167,-1.5182873578928318,-3.1420347558960353,0.5524119876975429,-0.37195772797135696
95,-0.826871166015137,6.321715626190546,-0.5596146149893658,2.0972391483074024,0.8051594468858426,-1.0703104759759372,-3.2780016433946018,-3.8824544115031974,-1.3441339930975578,-3.625430833410721,-2.6940969704838804,-2.984473923174849,-0.6276677468082036,0.743299274578531
96,-0.8228163292037878,5.150809828527688,0.24120310796861316,0.9351285742830289,0.3984076180333468,-0.958311126427741,-2.5080227909141466,-3.668435868608142,-1.85205983032833,-4.223799028530523,-3.4178990214483824,-2.5414353061073296,-1.5183738083559368,1.9866465385285053
97,-0.778854128113758,3.604429208277356,0.9673231620580577,-0.270202807204482,0.050479608149538266,-0.7340543668744772,-1.5204994651428554,-3.0540308202454143,-2.079874857328048,-4.239698106622468,-3.5971965838331985,-1.811892130195229,-2.0088730695891095,3.268777315817155
98,-0.6619974659457798,1.8292638933928185,1.5773061881652566,-1.391200784651638,-0.214980315990287,-0.4139199830551663,-0.4104386748930644,-2.118741359473602,-2.0629675560467273,-3.687430013750413,-3.2127680373133605,-0.8307713347831381,-2.048075997899806,4.478604256435304
99,-0.4498712468828387,-0.012279539550912913,2.0402620383846273,-2.314312460837103,-0.387909888117996,-0.027460070456549576,0.7146252386168522,-0.9770499523040361,-1.8623735617932349,-2.651540846701259,-2.321208494926689,0.3310862114772848,-1.650636583896551,5.49434025285753
100,-0.13485086163604112,-1.757907233229591,2.3376784443856597,-2.9522756359502558,-0.4711369691471098,0.3855611721008965,1.7463525523526464,0.23599843886661692,-1.5532893538865098,-1.276010380180611,-1.0473982137556896,1.5723180455953885,-0.8940433026697385,6.197365561533888
101,0.2739675310140587,-3.260859291920778,2.464368843196942,-3.2529634496587714,-0.4782415308746894,0.7797228773125252,2.587529754650359,1.381492067699358,-1.212452249134278,0.2541769437512089,0.43212654012975854,2.7713373357823214,0.09280357120132199,6.4871396957647525
102,0.7511673839998982,-4.40334937274233,2.428344062249328,-3.203839909609424,-0.4303585828838703,1.1095261986817209,3.162726277088585,2.3334430652212297,-0.9062964792864165,1.7367312500326235,1.9126756270966565,3.8003039086016264,1.1479677046938224,6.295166989507052
103,1.2576775652197512,-5.106677924493133,2.2495071959452058,-2.831631077259836,-0.3523986129594976,1.3352418952810914,3.4263323014156333,2.9934914953646943,-0.6816491723370213,2.977928933326606,3.18861436186256,4.540927213492325,2.0992892108098706,5.596059039905062
104,1.7453188577818575,-5.33705021317536,1.957215228483908,-2.1974017308016838,-0.269189943580952,1.4282023786464801,3.3669646137298734,3.301651194965799,-0.5602991034821715,3.817237618790736,4.080615286921014,4.89991805568335,2.7885080066324646,4.414052265677347
105,2.1626241731177416,-5.106611215634125,1.586917614556869,-1.3877804125798812,-0.2020162453714074,1.3747702171522755,3.007705413580886,3.241804178172244,-0.5381151704658584,4.147436842703013,4.459300334278703,4.821890052933536,3.093396421554827,2.823892157645357
106,2.461183079888849,-4.469741879752234,1.1762372698192443,-0.5035313303598655,-0.16594101362418986,1.1783906023316624,2.4021958140379254,2.8414105965827443,-0.5886197007488588,3.9276014547202642,4.262139153246304,4.297827667619336,2.9448841000096326,0.9457125126599579
107,2.601713101889897,-3.515184029454739,0.7609710926732491,0.3530284413841337,-0.16819140529681784,0.8594047056059908,1.627160756377572,2.1657232756366867,-0.6701735518205516,3.1873107132313208,3.501413185693505,3.3678399278760014,2.336862928718114,-1.0656806399091243
108,2.559109895667922,-2.355012181904592,0.3715296794968131,1.0901650355784955,-0.20773081673308352,0.45262458407015144,0.7724155007577306,1.3075491467645288,-0.735345102933068,2.0216642630018256,2.262286570978335,2.1177155103199645,1.3273813068884193,-3.03597482983712
109,2.325867373465647,-1.1117953236493066,0.03029415488592768,1.636923781052161,-0.27599949143544217,0.0029981988710490945,-0.07027247840993561,0.3741682911659383,-0.7407209059684497,0.5779424478815632,0.6913677068047256,0.669661565492817,0.031126363831526917,-4.78923471496649
110,1.9134671681554414,0.09454771085065238,-0.2497589406402832,1.9501918057416292,-0.35866288210434966,-0.4400279617716659,-0.8179676687150941,-0.5266762146519998,-0.655423932969408,-0.9641439398853487,-1.0225898317320101,-0.8315880541749465,-1.395720442402363,-6.1664137040397
111,1.3515854976962283,1.158716134399778,-0.4650106733166077,2.017879477121634,-0.4380935841842217,-0.8286571203090296,-1.4055935511318656,-1.2998006417635382,-0.4669233175426811,-2.415865256247631,-2.6731847176067522,-2.2354883642649552,-2.776149771078762,-7.042317687684045
112,0.6852223651064889,1.9995333881330444,-0.6198114201186994,1.8580032084147182,-0.4962343441024259,-1.1225495256466735,-1.7920985116179686,-1.8729737182167585,-0.18327322265181384,-3.603395080641411,-4.06276870496263,-3.4030605407382186,-3.9356923681875546,-7.339034018159771
113,-0.02990430321852581,2.5660596470004666,-0.7240585805938813,1.5140010756338755,-0.5174522185492301,-1.2935070198514624,-1.9631074901219723,-2.203529515286183,0.16841021623316388,-4.389126654055516,-5.0272725208211435,-4.222716779003802,-4.72534116065508,-7.034268896992155
114,-0.7331594053105306,2.839843031911813,-0.7902165960336506,1.0471093687923148,-0.4910001355082599,-1.3284376278407986,-1.9299335436187721,-2.2806610293870486,0.5467682578939326,-4.68771197757664,-5.456251716809822,-4.622561159764066,-5.040972520979579,-6.163642912954764
115,-1.3653079304826865,2.833352924442609,-0.830331729893695,0.5270007020893883,-0.4127531061667345,-1.2302692902558277,-1.7253467456773315,-2.123488121207137,0.9033217848704407,-4.474930511245721,-5.305634061940726,-4.577687868647721,-4.836705258775672,-4.81669919038959
116,-1.874611541641533,2.5851191424816884,-0.8535670482829594,0.022072835890180203,-0.28598090960260925,-1.0167858334481423,-1.3969427108438186,-1.7755571709478135,1.190580366098847,-3.7884961615248676,-4.601661528161699,-4.111672038232736,-4.130469810204111,-3.1271024868105375
117,-2.222001600286575,2.15247801615262,-0.8646640387960998,-0.4092483925002159,-0.12105018094498796,-0.7176515109317184,-0.9992563301267607,-1.2968543475182313,1.3697389025085824,-2.721000238715986,-3.435723463130255,-3.2922148510720444,-3.0011297310707956,-1.2581737749805206
118,-2.3847508451241555,1.6030505460922582,-0.8635500519247782,-0.7250589389746275,0.0658994422951373,-0.3701281663410699,-0.5858804001091116,-0.7546517825831853,1.416713565070664,-1.4062163537604537,-1.951006874041058,-2.2216602913061814,-1.577657312881889,0.6145624272670954
119,-2.3582609840933992,1.0061285651336909,-0.8460878912087609,-0.9036344242822378,0.255111506996265,-0.014137623516814626,-0.20275256523730092,-0.2145334611390884,1.3256137929395557,-0.0008208324815567212,-0.3229699069985499,-1.023741607551486,-0.021948715348060876,2.3218083810633394
120,-2.15581802066487,0.4250294905856526,-0.8057465668687374,-0.9439277265838847,0.4258862391683421,0.31263551506457926,0.11651422337605899,0.26722536805208974,1.1092176781090497,1.3358982907049313,1.2635774156655886,0.17164453088650503,1.4922845153457782,3.717801939749602
121,-1.8064112443315175,-0.08877057940287635,-0.7358039541618249,-0.8631244059839482,0.5593822473856017,0.5789670031069072,0.3528030947388812,0.6490806174391117,0.7965289017471652,2.4616172896730255,2.637631092146215,1.2436511773034071,2.8016117129123446,4.694565688274122
122,-1.3509383036655207,-0.4992525890070252,-0.6316064929742935,-0.6918950305690407,0.6411419489154425,0.7631554827319328,0.5011784001867421,0.9070145037372308,0.4279591705886781,3.2673300292406884,3.662316379288177,2.093777752611009,3.7729542915866805,5.191545682993359
123,-0.8373016279920272,-0.787109311744589,-0.4924221704769296,-0.4682773321186666,0.6629812991870121,0.8546399522935678,0.5685172061937004,1.0346999484753234,0.04902974845304625,3.6885193746635,4.249809782629441,2.6556764151429992,4.318971958615118,5.1996548751637865
124,-0.31501838609895083,-0.9488605863619146,-0.32252317837491046,-0.23124887306787476,0.6239822427294899,0.8541081396497889,0.56981670723165,1.041400269058835,-0.2963297875027966,3.7099800315618636,4.369138905346151,2.900421081979323,4.4068297695322025,4.759413839981453
125,0.1699971358263171,-0.9943034662540338,-0.1312979582681513,-0.015001459939683813,0.5304613881756379,0.7722357247905282,0.5240325334340457,0.9482352165626565,-0.5718103595379362,3.364041585361076,4.0461910879471565,2.8368364322844584,4.059397803726178,3.953590699968917
126,0.5798691867586173,-0.9429172706974944,0.06761837398148901,0.15528020035158013,0.39494051536656993,0.6273575584281926,0.4502495179888705,0.7835782058552755,-0.7531857688375514,2.722844398776314,3.3563633655055662,2.507153970147604,3.3490341955594145,2.8953992763902305
127,0.887936223365389,-0.8198716464651639,0.25802962571811583,0.2656575097157517,0.2342917973677164,0.4424754130253724,0.36478752926605296,0.5783495416536417,-0.8306321525476279,1.8860891807464166,2.411281465450847,1.9788670909251784,2.385154081607124,1.7138411428376397
