,AF3,F7,F3,FC5,T7,P7,O1,O2,P8,T8,FC6,F4,F8,AF4
0,9.197910627451947,7.123157680792441,5.8630321416211695,12.455777877932348,4.218405818627291,7.1705062824675085,3.6923299083461467,5.435915502940142,1.0199071703573557,9.396411542733713,14.538232516676075,-15.074687531455611,7.330020783086198,9.426080666394576
1,10.7558036310075,8.555011002787081,6.989008462257836,14.647632419007119,5.351870202553593,6.798308284913997,4.621667367855512,7.743210042181637,1.2184717597117312,10.474592462819126,13.81432635153612,-15.932171077817639,8.869432960435658,10.41305312472485
2,12.33069879036792,9.993513771485139,8.121285203576882,16.854139967079497,6.475047622947729,6.446368627853571,5.534337145337536,9.986316872645052,1.4193385025717606,11.551597078356874,13.082890868101604,-16.754542566421993,10.404687382988833,11.420461535268867
3,13.903991517484013,11.416385731679968,9.2453095132069,19.060761613796753,7.567120608197901,6.14210204410077,6.406390217884983,12.115887999441027,1.613541777616816,12.624531078332145,12.31938970063727,-17.575973231182317,11.900031676752961,12.44026472347125
4,15.455324206361324,12.800141550094214,10.345656233561272,21.251602785240213,8.607397852415406,5.909291498700961,7.215132708752624,14.086329833473764,1.7922219683818823,13.68992422177096,11.501151037245728,-18.431715065170764,13.320148549337626,13.463222030825975
5,16.96272150374309,14.120444758317221,11.406197525684693,23.409321196855284,9.575869673067386,5.766735413222154,7.9397520359488505,15.857304353674595,1.9468270047505536,14.74348805427588,10.608541183513703,-19.357267951545577,14.631092409206449,14.47899937438277
6,18.40291274667366,15.35261656938662,12.4103947459769,25.515187896974144,10.453782624215316,5.727152885302168,8.561827472957045,17.395010631675895,2.0693050164245625,15.779949056257214,9.626018667445805,-20.38746269131385,15.801229314003724,15.476403997457801
7,19.75184864048664,16.4722984030153,13.341712993653758,27.549314672272978,11.224215373675397,5.79641310647595,9.065708178770539,18.673197981392416,2.1522878990911027,16.792976578589155,8.543021106778944,-21.55547456637043,16.80215442455844,16.443748192351777
8,20.985391090876305,17.45624075078596,14.184138928328348,29.49103754061937,11.872630013073119,5.973141368788528,9.438755682944452,19.67387663189291,2.1892659745998984,17.77521569033362,7.354637287323021,-22.891796924656152,17.609551438968197,17.369319350777417
9,22.080129743569696,18.2831672276043,14.92276541089174,31.319424552989055,12.3873678564681,6.248735484984556,9.671461791019297,20.38770894937419,2.174753385017697,18.718425281212586,6.062021363183011,-24.423215260199843,18.203951922901428,18.241913764466773
10,23.014260279447285,18.934645941227032,15.544394923178281,33.01386020107273,12.760058026435392,6.607804564269842,9.757464232782288,20.81408181678181,2.104442746981303,19.613712376255346,4.672516281783811,-26.17182856389465,18.571350376435845,19.051377835227758
11,23.768450610914606,19.395893792789582,16.038109445387764,34.55465098480958,12.98591111645955,7.029017951168973,9.69348864257167,20.960875761384795,1.9753459618048201,20.451845042645573,3.1994688844622647,-28.154166429468468,18.703633926390783,19.789095061252297
12,24.32662278782762,19.656443819530352,16.3957579584672,35.92359790454812,13.063878258942292,7.486326146684738,9.479245235484873,20.84395611296797,1.7859157364368137,21.223618601571367,1.6617371770239475,-30.38044775427107,18.5987938226828,20.448361403858136
13,24.676589635144303,19.710619828744576,16.612322647948282,37.10449060555032,12.996666513145485,7.950488641349562,9.117302041081997,20.48641506299464,1.5361395104655917,21.920243359781452,0.08290858132081176,-32.85402012874153,18.26089859813893,21.024604711084727
14,24.81050314073712,19.557783233644834,16.686138541565168,38.08349208652816,12.790612923313478,8.390818655263132,8.612945808211892,19.917592656509544,1.2275951242837864,22.533717701502827,-1.5097346088770123,-35.57100876667901,17.699824056876263,21.51542325226208
15,24.72509292705443,19.20234030016411,16.618956066473316,38.84939941071082,12.455430538432092,8.777036172727463,7.974030163201942,19.17190315407592,0.8634571429852933,23.057149892250834,-3.0864501877685777,-38.520190917827684,16.93075164874381,21.92044079350772
16,24.4216949283005,18.653520685822254,16.415850299677185,39.39378230989676,12.003849041645072,9.081112033692401,7.210802090054407,18.287494994554265,0.44844512703960177,23.484996971720918,-4.616404815624098,-41.683096553953874,15.973463603286508,22.240998296017537
17,23.906090528386027,17.924958008492982,16.084993588649102,39.71101599915412,11.451179137987321,9.278988047698146,6.3356949299779695,17.30478019028764,-0.01128994998636615,23.813199513628206,-6.069099515107484,-45.03431911334582,14.851479446945179,22.479723076266378
18,23.18819254704092,17.03411827071575,15.637318424660108,39.79823492215052,10.814832153486826,9.35206944881422,5.3630791886065925,16.26488155752535,-0.5083384663105907,24.039204285877396,-7.415770385963691,-48.54200303919816,13.5910916564787,22.64003243445957
19,22.281623991977618,16.00163028649175,15.086103423342431,39.65523877488345,10.113823962701344,9.288404481908776,4.3089696928133145,15.208060312918375,-1.0342545029097945,24.161879861325055,-8.630686150990034,-52.16846130146106,12.22036509976445,22.725637198643824
20,21.203236939086622,14.850572814073562,14.44651641045322,39.28438069964051,9.368286525868678,9.083490096148854,3.190696434265801,14.172198493265405,-1.579812000243096,24.181341971639153,-9.692273918621161,-55.87086943457748,10.768164095164545,22.740109433962022
21,19.97261288881462,13.60576657954693,13.73514565171226,38.69046137091094,8.599002932942916,8.740670553705005,2.026554413343066,13.191417655948701,-2.1352747949374713,24.098716723131563,-10.584018314611926,-59.60198422393305,9.263263211336229,22.686568204415472
22,18.611574681894428,12.293107512467557,12.969544376787843,37.88064358773513,7.8269742591301315,8.271123634604699,0.8354530676139791,12.294915376380192,-2.6906594735101814,23.915880177852987,-11.295094506176167,-63.31084453704076,7.733585191851591,22.567519975165013
23,17.143726088759518,10.938962307415341,12.167805737559284,36.8643912508994,7.0730191700121186,7.693453256985242,-0.36341299870413424,11.506092335749296,-3.23597210275667,23.635218496928342,-11.820712289074667,-66.94342760584722,6.205593083447138,22.38486864984458
24,15.594020804527066,9.56963128952646,11.34817594926305,35.65342561752181,6.357400546917372,7.032925730754359,-1.550853971341953,10.842024180695008,-3.7614048154435897,23.25944951994534,-12.162167477581717,-70.4432542424586,4.703844975350123,22.14008691999078
25,13.988350061071944,8.2108695172644,10.52870396652719,34.26168237373254,5.699468514845742,6.32039961112638,-2.7079256756050056,10.313304575654724,-4.257484992334903,22.79153337631943,-12.326618391084805,-73.75195765039902,3.2507008295105497,21.83451840404046
26,12.35312961955062,6.88744781911714,9.726918395968378,32.70524696820774,5.117307145382428,5.591007163552788,-3.8161229729621406,9.9242519065891,-4.715177322712413,22.23467966237834,-12.326626638759368,-76.80984866273504,1.8661548186779613,21.46976205243155
27,10.714863741896371,5.622732228090791,8.959517523668987,31.002243420405833,4.627372878909683,4.882649457489152,-4.8575399774179635,9.67343648749386,-5.125946502499735,21.592436837879774,-12.17951845205548,-79.5565223688598,0.5677561621516378,21.048078962507766
28,9.099665609207392,4.438262719356842,8.242056496817275,29.17265342470386,4.244115863545687,4.2343674921153625,-5.815022606951026,9.554453254566209,-5.481794934444149,20.868830446634295,-11.90663211315975,-81.93155584761023,-0.6294220206929734,20.572758298852985
29,7.532719854376754,3.353319340046305,7.588616962261655,27.238047867584886,3.9795805387367222,3.684649256057001,-6.6723462908582425,9.556842256273653,-5.7752943409947095,20.068504194936256,-11.53251753192964,-83.87534364357477,-1.7128028195266882,20.048383690118744
30,6.037683117432559,2.38447461998627,7.01144940453159,25.22122146070037,3.842988626824268,3.26972838922141,-7.414452882595519,9.667050073611588,-5.999631373771028,19.19681420510622,-11.084146975734626,-85.33010640258928,-2.6723419182961035,19.48095385931638
31,4.636032065706461,1.5451438680021297,6.5205871961730235,23.1457321340279,3.8403158478484003,3.021925586503528,-8.027774530069179,9.869331395401952,-6.148684522563076,18.25983253355765,-10.590183602559044,-86.24108917530282,-3.500593588762558,18.87782980953644
32,3.3463827860447455,0.8451571031863986,6.1234426116270795,21.03535862738852,3.973882530015649,2.968080695939739,-8.50065832821901,10.146509846186781,-6.2171435061753035,17.26422997538226,-10.080338649274045,-86.5579415153008,-4.19280465504535,18.24750257483096
33,2.183817833433742,0.2903854330205628,5.824406325588113,18.913500594713597,4.241986824257257,3.1281230605812076,-8.823885934699902,10.48054682339825,-6.200674276582067,16.21702763430915,-9.584830113107435,-86.23624526862201,-4.747022458407846,17.599196811802255
34,1.1592660345307297,-0.11754056708713405,5.624481423648213,16.802554327118433,4.638616070287597,3.513830704235485,-8.991260341862843,10.852901708958976,-6.096124207957493,15.125228978511496,-9.133936781890622,-85.23913110370262,-5.16419473568306,16.9423442012331
35,0.27898575925052294,-0.38138224739946647,5.520990237498012,14.723303811518361,5.153275723822172,4.12783479674525,-9.000211262053663,11.244701678099627,-5.9017539926428215,13.995366602993267,-8.757623226357751,-83.53890302132103,-5.448234641669073,16.285976354869074
36,-0.4557951001347714,-0.5082788969133227,5.507396929232603,12.694371085935062,5.7709750134707605,4.962931703321395,-8.852354493717002,11.636769662508826,-5.617476050417861,12.833017471913267,-8.485196201233943,-81.11857244570851,-5.6060219892535885,15.638099220845442
37,-1.0490313542058678,-0.5095406637476728,5.573288978548338,10.731770194535601,6.472403070952658,6.001766113780329,-8.55393231790002,12.009580258908663,-5.245074788558745,11.642353020732195,-8.344943754682614,-77.97319238663938,-5.64731255803692,15.005117758465461
38,-1.5097629941248278,-0.4002331975288332,5.704554364092891,8.848603439625641,7.234318261837827,7.216940847568492,-8.116063562457962,12.343222460528452,-4.788382663737877,10.425793031619747,-8.36370793617271,-74.11088113374704,-5.584532038955034,14.391377910221003
39,-1.8517432328132608,-0.19855593167458066,5.88377730841693,7.054926380237169,8.030157688540648,8.571590440125,-7.55474393856488,12.617444173739539,-4.253388104168203,9.183823815227148,-8.566351533133409,-69.5534368971511,-5.432440515618088,13.798880812138368
40,-2.0927918012884583,0.07496411929137865,6.090854903101373,5.357790338015644,8.830854973178987,10.02042811565371,-6.890558497106839,12.811837384934803,-3.6482568245868676,7.915023034176368,-8.97509813473243,-64.33647012871204,-5.207667231978048,13.227202404065796
41,-2.2539017737390674,0.39842050993497813,6.303812058689593,3.7614504206704913,9.605834243505619,11.5112423195107,-6.148096235073374,12.906196716229992,-2.983256246447465,6.616307603340705,-9.608751185748263,-58.509016416734624,-4.928132420929525,12.67362298178194
42,-2.3581571138339954,0.7495558016106485,6.499766310060653,2.267706224931396,10.324128876615793,12.986783442189619,-5.355088638776989,12.881051564011322,-2.270582483486984,5.28339047304089,-10.481828583012987,-52.13263530586819,-4.612390600034619,12.133439914954119
43,-2.4295430960157502,1.1067937743805827,6.655971407993277,0.876324967716744,10.955557815490305,14.386948445472994,-4.541324919085654,12.7183381985711,-1.524099242725109,3.911401111360186,-11.603679678468673,-45.28004334788226,-4.278944586005164,11.60040799128122
44,-2.4917477558616494,1.4501918985142954,6.750854469943383,-0.41451323116915295,11.471883343109676,15.651145819570372,-3.7374217301372767,12.402149596473809,-0.7590063764557855,2.495599148312393,-12.977673861952756,-38.03336629280812,-3.945587635597321,11.067232069260317
45,-2.5670547310341862,1.7622347273935661,6.764959946179552,-1.6078077441834258,11.84787448844827,16.720709258904332,-2.9735397214854538,11.919483645977268,0.008539079543101532,1.0320969116531158,-14.600557027495821,-30.482119205942308,-3.6288294523649203,10.52603173142775
46,-2.675414486789955,2.028404834639986,6.681725825888696,-2.7074160931295914,12.06220986683574,17.541226597628405,-2.2781415655450084,11.26090783339619,0.7618258808933327,-0.4814927004751269,-16.462060947201586,-22.721031370868626,-3.3434501770881058,9.968709262440107
47,-2.8337549466760366,2.237492634922358,6.488040615464375,-3.7178482470807204,12.09817026944554,18.06465976372563,-1.6768775347154634,10.421069316306829,1.4839953752125241,-2.0455528799785254,-18.544822792624988,-14.847826334306502,-3.1022080987144642,9.387177155045585
48,-3.055559854720803,2.3816352295854766,6.174558556477565,-4.644183165005788,11.944091347124841,18.251149959985767,-1.1916679350702486,9.398999774536847,2.1584374376842703,-3.658150937607259,-20.824633569900335,-6.96105000917194,-2.91570581326213,8.773433078109857
49,-3.3507098125254458,2.4561031804968554,5.735779728116343,-5.492092051398276,11.593567528219259,18.07042780335951,-0.840029083415807,8.198190832544116,2.7691667473412154,-5.31493587951234,-23.270993730351265,0.8419842816157576,-2.792399192076123,8.11950214891877
50,-3.7255520701940132,2.4588794542268526,5.16992630290863,-6.267934687892334,11.04541763774567,17.502778121737244,-0.634663492749813,6.82644430596024,3.3011758997536123,-7.009233545541035,-25.84792147582008,8.467090681433753,-2.7387165651134384,7.417292696724312
51,-4.183144716839459,2.3900936526165903,4.478663141083242,-6.97888349159652,10.30343863968774,16.53954108336047,-0.5833087135532078,5.295527627149777,3.740765979902626,-8.73230051510004,-28.514941025189717,15.824925050676232,-2.759244503928531,6.658428419553085
52,-4.723610465000694,2.251384940468603,3.666719020901982,-7.633025705922289,9.375985507427385,15.18316321571404,-0.6888162905824767,3.6206845353261947,4.075857680120961,-10.473678924073635,-31.228174433748855,22.83251428445844,-2.8569328984677993,5.834125346148311
53,-5.344534031555057,2.0452682897023915,2.741464660550786,-8.239397254875405,8.275422361729406,13.44684031000262,-0.9494153103304382,1.8200621789723117,4.296286457986945,-12.221585528443864,-33.941466437479306,29.41460544206828,-3.0332754425053605,4.935177020237652
54,-6.041343785787769,1.7745715748928037,1.712496695857703,-8.807911424485152,7.0174927766562325,11.353814240295224,-1.3591057897406087,-0.08588235113717473,4.394083501840394,-13.963270321895386,-36.607482193828375,35.50484192311484,-3.288430858157282,3.9520975773279257
55,-6.807631627201282,1.4419971547636314,0.5912647879369507,-9.349160194271406,5.620655619805152,8.936393828472989,-1.9081262984747598,-2.0749399804783852,4.363740676984715,-15.685292010003,-39.178730804380095,41.04677090097698,-3.6212635113748215,2.8754518766434027
56,-7.635383431386112,1.0498428134683848,-0.6092358748619825,-9.874083807416264,4.105427398128754,6.234766864965225,-2.5834471703823434,-4.123631006072789,4.202452814615389,-17.37367810640564,-41.60848352189354,45.99467896602303,-4.029298034905243,1.6963767408346928
57,-8.515113622510547,0.5998955751671621,-1.8747003148520909,-10.39352305488042,2.4937634802087847,3.2956603464098047,-3.3692540216510696,-6.207590247112677,3.9103256626594503,-19.013963826528844,-43.85157473140459,50.314243144159796,-4.508599980350462,0.40727004804903355
58,-9.435918522113223,0.09349036714061906,-3.1896865520908,-10.917686500042947,0.8084995379143186,0.17089334250076954,-4.247403850063804,-8.30186123535435,3.4905336261909654,-20.591132268009552,-45.865094152799664,53.98297447104991,-5.053611427434377,-0.9974021120232149
59,-10.385480698268807,-0.46829357120433707,-4.537747003820788,-11.455578719005985,-0.9271376646368618,-3.084144919834374,-5.1978546002130495,-10.38112804214653,2.949408897514884,-22.089503235740438,-47.608995924119,56.990423940927016,-5.656983604200376,-2.520251981323766
60,-11.350067916152875,-1.0843398827772397,-5.901548964030788,-12.014443458250556,-2.6899527793882165,-6.412067560307873,-6.199085100265944,-12.419930325653631,2.2964430485933938,-23.492634649347764,-49.04665996727258,59.33811824053628,-6.309454700670548,-4.160155873157589
61,-12.31457449327466,-1.7531555611070908,-7.263018964513143,-12.599277274666232,-4.457150090908639,-9.755092149339474,-7.2285326842836,-14.392914860378971,1.544183710309506,-24.783306287715295,-50.14544183242699,61.03919602223934,-6.999819048570682,-5.911568117382731
62,-13.262650385981997,-2.4725370979917254,-8.603545440300607,-13.212465900405165,-6.206666269693167,-13.056649086257172,-8.263078915055612,-16.275174387216804,0.7080127991099086,-25.943650551420273,-50.877240557816485,62.11772413067532,-7.7150248661791325,-7.764045819915576
63,-14.176955360280955,-3.239292649796622,-9.904269135046956,-13.853588133142464,-7.917488640128528,-16.262966191009777,-9.279609066643035,-18.042712514314207,-0.19420079259329687,-26.95547992743483,-51.21910208319901,62.60768651581221,-8.440424071255626,-9.70205250020465
64,-15.03956328457391,-4.049063975750633,-11.146481357367128,-14.519420484751285,-9.569977574241683,-19.324590114518745,-10.25565863624653,-19.673052844842715,-1.142572032533572,-27.800837255343982,-51.15385970444045,62.551655876325924,-9.160181386335996,-11.705087818580115
65,-15.832525377838877,-4.896280459309627,-12.31213688490935,-15.204159661088099,-11.14620486923194,-22.197794927106486,-11.170141329558598,-21.145983776875127,-2.115781159619034,-28.462764608589406,-50.670794179844606,61.99917845206994,-9.857832558113113,-13.748164478010613
66,-16.538581117928626,-5.774261007574616,-13.384471407909345,-15.899859111824087,-12.630309255466571,-24.845819129850206,-12.004130624957673,-22.44440100999658,-3.091741599744028,-28.926252750259696,-49.76627657967727,61.00492470289156,-10.516963784905812,-15.802622644536715
67,-17.141982402063668,-6.675459085140037,-14.348693982442548,-16.59705190105178,-14.008857013201832,-27.239867335228176,-12.741645990161434,-23.555182463332425,-4.0483210851706986,-29.179300685308764,-48.44433963203522,59.626681277638276,-11.121967367394948,-17.83723870385335
68,-17.62937341498188,-7.5918244323895685,-15.192705624698002,-17.28550861615963,-15.271182889053067,-29.359814999261616,-13.37038030113702,-24.4700105478437,-4.964077097075554,-29.213990108413068,-46.71711081806575,57.92327983944488,-11.658814392229166,-19.81955286311096
69,-17.99064970315594,-8.515235984302203,-15.907779705115317,-17.955060341283023,-16.409677089090042,-31.194565143556222,-13.882300230912286,-25.186049165795573,-5.818966781519736,-29.027467872448895,-44.605035078455046,55.95257224504493,-12.115777146937477,-21.71731425156065
70,-18.219708953281597,-9.437947470687117,-16.48913155347105,-18.596406031780237,-17.419979894222543,-32.74202372265583,-14.274056645814326,-25.706389268193174,-6.594994897512417,-28.622732700861725,-42.1368184038118,53.769566502916454,-12.484034202927552,-23.499926992444657
71,-18.315005255504847,-10.352982030865592,-16.93630546321533,-19.201822105069823,-18.301046853551323,-34.00868214508141,-14.547155721820582,-26.04019564406689,-7.2767696595678455,-28.009137807277234,-39.34903633440627,51.4248330344708,-12.758099467682142,-25.139778090510543
72,-18.27982882637701,-11.254415293342971,-17.25331739659679,-19.765699398985173,-19.05505421393169,-35.00881831148625,-14.70786115741324,-26.202514749794645,-7.8519435622424085,-27.202544345581906,-36.285372726943876,48.963276361312104,-12.936031021091956,-26.613337819379048
73,-18.122253342785502,-12.137497035556281,-17.448510257436475,-20.284847708759845,-19.687125379608048,-35.763349406835566,-14.766820659981086,-26.213733999580107,-8.311523099725955,-26.225087670782518,-32.99548247816074,46.423343928734454,-13.019394136498125,-27.90194438719511
74,-17.8547214383835,-12.99857871948108,-17.53410383395239,-20.758529533618052,-20.204873562275885,-36.29838978825897,-14.73843277340503,-26.09871287068577,-8.650037522168876,-25.10454697770666,-29.533505081388828,43.83671194157825,-13.012974004452012,-28.992215116727564
75,-17.493273667095632,-13.834837021212584,-17.525451182637823,-21.18821119792469,-20.61777225212363,-36.643585229961,-14.639990465161967,-25.885632429216088,-8.86556287543812,-23.87333816030941,-25.956290749743136,41.228449271138956,-12.924256077182667,-29.87606372182206
76,-17.056464530616886,-14.64381031538094,-17.44004431711688,-21.57704929742662,-20.936382682496724,-36.83030965770207,-14.490653816090566,-25.604630313677003,-8.959603919027261,-22.56717887263352,-22.32143267667489,38.617618143311795,-12.762714239211146,-30.550343955051087
77,-16.564045892776022,-15.422792354674813,-17.296340172504717,-21.92915996036593,-21.171484471613706,-36.8898208352502,-14.31031453799583,-25.286301360015173,-8.936843009738459,-21.223501726466285,-18.68522266299753,36.01823011872304,-12.538967117223399,-31.01617886345538
78,-16.035526993476882,-16.168150378600462,-17.112498246578333,-22.248743353867514,-21.333169743608288,-36.85147570641117,-14.118419805885614,-24.96014958114951,-8.804771423119702,-19.879713384888394,-15.10065972058596,33.44044394150524,-12.263877954000977,-31.27806645794437
79,-15.488736854422047,-16.874649934784205,-16.905131328856484,-22.539152890389257,-21.429969929894533,-36.74110326997288,-13.932822868547754,-24.65307597239142,-8.573224682014654,-18.57141145922641,-11.615642299955493,30.891872665206957,-11.947680865652664,-31.34287241558524
80,-14.93851749526495,-17.53487391638124,-16.68816995477767,-22.802005841151605,-21.468086554219937,-36.579622582493336,-13.768723852499162,-24.3879797688876,-8.253848749033075,-17.330676008501165,-8.271465062069295,28.37886360405378,-11.599214316938765,-31.218826178167674
81,-14.395665048220495,-18.138817869158476,-16.47193045550791,-23.036428536646348,-21.45079199209628,-36.381976076543005,-13.637756425704614,-24.18253951108421,-7.859527356519561,-16.184547301637842,-5.101719713387258,25.90762683342372,-11.225331003493752,-30.9146278394725
82,-13.866211708516028,-18.673727774862723,-16.262457145355395,-23.238515291859574,-21.378053900669705,-36.156425706375806,-13.547265392146308,-24.04822654947236,-7.403801421179811,-15.153786572387308,-2.131665991035754,23.48511415384547,-10.830533285522275,-30.438750826063792
83,-13.351107394711185,-19.124222340620157,-16.061183646967468,-23.401057822198187,-21.24641913933155,-35.90423500259792,-13.499808545825031,-23.98959022170579,-6.900309436727766,-14.251993390807105,0.6219028963536671,21.11958544235839,-10.41685784291214,-29.798993536205383
84,-12.846320533462853,-19.472712721429385,-15.864929576009139,-23.513574504071627,-21.049171611712108,-35.619737542765,-13.49290455883369,-24.003842747751307,-6.362273695807368,-13.485124652366444,3.15031912593481,18.820836857449528,-9.984006206551607,-29.002297623238892
85,-12.34333735767899,-19.700101991922526,-15.666219711221459,-23.562639485262476,-20.77675592458053,-35.2907736116448,-13.519037428113114,-24.080762356608254,-5.8020520766282795,-12.851428876871111,5.45228040407195,16.600101170364876,-9.529692562906147,-28.0548167258155
86,-11.830002516901219,-19.78671733998584,-15.453885970701288,-23.532483083928355,-20.417437178360426,-34.8994620997117,-13.565916464927133,-24.20292286403166,-5.230769663557288,-12.341778009651758,7.53275910646077,14.469663032705476,-9.050158900018255,-26.962190237752562
87,-11.291613839258575,-19.71340255908747,-15.213890539966672,-23.405809939297967,-19.958148159988223,-34.42326312933645,-13.616978558066725,-24.346244813284297,-4.658039086914148,-11.940349884343288,9.401690192347067,12.442259943532203,-8.540792046542082,-25.729954094742578
88,-10.71216409397584,-19.462680449420898,-14.930294122742074,-23.164763048905368,-19.38546044344466,-33.83627745974204,-13.652106905934605,-24.480847731762655,-4.091773501861853,-11.62559171402569,11.072558863716571,10.530359439266958,-7.996769707980884,-24.364007217545765
89,-10.075616160715246,-19.019888042688144,-14.586289005685003,-22.791952865927108,-18.686607629293132,-33.110720893249265,-13.648529123149334,-24.572168069368374,-3.538091987290643,-11.371382818668629,12.561006576598192,8.745409809656692,-7.413665231909231,-22.87105148321665
90,-9.367106930199052,-18.374194118804645,-14.165223027756836,-22.271472184942752,-17.85048859399452,-32.21850593105566,-13.581849363905137,-24.58229650584158,-3.0013140331034376,-11.148315503978159,13.883557870210737,7.097153269727906,-6.787953802047698,-21.258936345044724
91,-8.57399743673682,-17.519426677137606,-13.651555229427265,-21.589828445391266,-16.868585568072174,-31.132858999314887,-13.427164635975863,-24.471482742079402,-2.48403737930169,-10.925024239076489,15.056544021494906,5.593069360117941,-6.117383529926952,-19.536864212472484
92,-7.686716698627079,-16.454663479031165,-13.031702755147055,-20.736742528162072,-15.735744049866579,-29.829899348063133,-13.160214600276515,-24.199754046820722,-1.9872912334783588,-10.66950937579796,16.095267959167032,4.237987689047412,-5.4011987675632,-17.71544396868899
93,-6.699378284323229,-15.184566353560275,-12.294757675987453,-19.705783720688636,-14.45077673120559,-28.290105481993518,-12.75851655531467,-23.728593631692465,-1.510754621970794,-10.350417425709583,17.013422804726535,3.0338787972230077,-4.640225058845134,-15.806610764926992
94,-5.610176377219838,-13.719464909251007,-11.433068963414565,-18.49483045083155,-13.016869678258374,-26.49959850646542,-12.202442470233407,-23.022625485061745,-1.053027533023886,-9.938252707545635,17.822747736333007,1.9798053899567893,-3.8368419876726994,-13.82345413792009
95,-4.421587774311972,-12.075213824395389,-10.44269650671943,-17.10636172580211,-11.441784005783182,-24.45118105318611,-11.476201490329565,-22.05125329976163,-0.6119408338174325,-9.406503951184972,18.532883469314793,1.0719981439865862,-2.994879722175206,-11.780009068736812
96,-3.1404149274869764,-10.272857881224404,-9.323748922177066,-15.547592466492814,-9.737858726039795,-22.145085658768224,-10.568697557777792,-20.79020186929575,-0.18488966646217492,-8.732673598265215,19.151378541250967,0.3040136487344365,-2.1194766125391986,-9.691064149177722
97,-1.7777022533910167,-8.338140255885412,-8.080614216729554,-13.830466996435844,-7.921829488376574,-19.589405634116115,-9.474236450733764,-19.22290892074324,0.23082608086405743,-7.8991970086146255,19.683797276153257,-0.33306316282332793,-1.2169295447502053,-7.572028515900117
98,-0.348545680747683,-6.300883816957862,-6.722083222094069,-11.971520370791707,-6.0144829106445785,-16.800201386797376,-8.193059024460778,-17.341713438230798,0.6376717045083569,-6.89423420869351,20.13388852533796,-0.8503962007602758,-0.2945577128690555,-5.438877617275978
99,1.1282016922213485,-4.194265214362306,-5.261353333161668,-9.991609417234583,-4.0401669653400365,-13.801292438916253,-6.73167772816176,-15.148783698145923,1.0375763401838662,-5.712309558975528,20.50378726525559,-1.2611613213745232,0.6394133933603076,-3.308171912952485
100,2.6303408726127624,-2.053991450214976,-3.715889357009002,-7.915507757192718,-2.0261757617801215,-10.623757721459699,-5.10299286228223,-12.656726416054365,1.4316787914049687,-4.354767275572899,20.79423483681259,-1.5802847379547378,1.575954316675902,-1.1971183134842591
101,4.1328768794254644,0.08261716109656356,-2.1071140830621715,-5.771355776892087,-0.002024909546723972,-7.305174171059805,-3.326166358743954,-9.888820840813075,1.8201377072827039,-2.830006689858609,21.004814740671947,-1.8241349317810422,2.505336107796968,0.8763726325056077
102,5.608726350094822,2.177632195453983,-0.45990637472114043,-3.5899604540037013,2.0013659145068705,-3.8886282911481893,-1.4262371672804868,-6.878831619520561,2.2020199614271645,-1.1534635830155857,21.134207655726797,-2.0101439251171778,3.417255892522801,2.8936863451773163
103,7.02958784383984,4.193596078670089,1.1981011049413806,-1.403951296529976,3.9525626983929776,-0.4215393148127688,0.5665250861652735,-3.670373123654834,2.5752755572326156,0.65268617022209,21.180471425817696,-2.156340762807101,4.300999366394881,4.835606694584836
104,8.366958033553397,6.094646806013788,2.8374120960379434,0.7531850847091994,5.820552147444695,3.0456634829033713,2.6175139203682605,-0.31582410676949946,2.9368003296083334,2.560108607999362,21.141349783124948,-2.2807940653136005,5.1456485675655275,6.682551131133214
105,9.593252970076545,7.847646159746118,4.427710689120492,2.848152030614415,7.575687636524356,6.460963607337099,4.688893421777433,3.1251784491849293,3.2825803537247866,4.535168506639317,21.014608558298185,-2.4009776486028804,5.940334173725656,8.414946291732143
106,10.682972526716334,9.423257614113608,5.939005889154807,4.848917643325032,9.190605293017045,9.772232809809282,6.740867019568066,6.587607632572459,3.607905469649523,6.540031314144079,20.798391202690567,-2.5330894797714048,6.674523148797352,10.013729112328095
107,11.613831738406988,10.79691355612776,7.342810061701306,6.725755293423462,10.641066313954331,12.928711264788125,8.73304128025289,10.003192401912635,3.9076343987958966,8.533963627436721,20.491577723163637,-2.6913668053412763,7.338325992366584,11.460938908824826
108,12.367777306399532,11.9496112555556,8.61327723327732,8.452186613016083,11.906683158667452,15.882444783485004,10.625810992681892,13.302736942678493,4.176490783710923,10.47477224551447,20.094123755173555,-2.8874476272456984,7.92280367834663,12.740352180891664
109,12.931811909002283,12.868483826768822,9.728226853925262,10.0057695287313,12.971493622717778,18.589631577512165,12.381692202689296,16.41849864473955,4.409368016508459,12.320312804343365,19.60735110329581,-3.1298299948140307,8.42025308771981,13.838105264574942
110,13.298562732314783,13.547106118191431,10.669985929734011,11.368686070702209,13.824356965646661,21.011831175038044,13.966537471527758,19.286507621938878,4.601620821773263,14.029994841718308,19.034159910539305,-3.4234753580616326,8.824451461937988,14.74325081273086
111,13.466552221978398,13.985514989066083,11.42599725474827,12.528102141584448,14.459158621202247,23.11698953531292,15.350580730225772,21.848717507271505,4.749323482824175,15.566211352481524,18.379137461391906,-3.769590865793043,9.130844661112357,15.44820232279911
112,13.440155628632242,14.189946445058489,11.989161826358437,13.476291735556249,14.874822933376958,24.88023948560484,16.50927554922186,24.05489294822587,4.849478817829283,16.89562815078486,17.64854923422426,-4.16560987350672,9.336670026187482,15.949035337026979
113,13.229257634305615,14.17231505309177,12.357906111928983,14.210538048767743,15.075145449961523,26.284445624149008,17.423908316462768,25.864162650184827,4.900168312151036,17.990281388571,16.850211941786533,-4.605373086799197,9.441011509499448,16.24563159459911
114,12.848645260363684,13.949480268523693,12.535986433976381,14.73284071320095,15.06846647404476,27.320477108545106,18.081984603155473,27.246194530231875,4.900640745929294,18.828448129764336,15.993263138307636,-5.079497405265345,9.444791365135167,16.341669549340022
115,12.317193277189856,13.542357233689836,12.532060980462813,15.049470152506254,14.867214907008428,27.987208008334544,18.477400778758057,28.18197619232534,4.851342381762223,19.39527154246987,15.087854855679822,-5.575906748381778,9.350707969266495,16.244478151842316
116,11.656909600020668,12.97493518291679,12.359073274857442,15.170415720219973,14.487355134832427,28.29126033590816,18.610421979943343,28.664204700292885,4.75389533354125,19.683136336242033,14.144806865146588,-6.080488833673306,9.163132575513103,15.96477887813886
117,10.891911304836308,12.27326521369843,12.033498827831766,15.108773910000831,13.947769721801194,28.24651743501778,18.487491279879624,28.697302702926674,4.611032222835413,19.691800479025602,13.175256540508977,-6.577834118354688,8.887978931835692,15.516343570184862
118,10.04739817738854,11.464472609316337,11.574509769667651,14.88011820076178,13.269608042572589,27.873444522035133,18.120894301056875,28.29708474455089,4.426495253137653,19.428296236395163,12.190337343141765,-7.0520086759261025,8.53255881519283,14.915594252121046
119,9.148682106663877,10.575839228362371,11.003111432857756,14.501885182237821,12.475627059478587,27.198258790602015,17.528300238271235,27.490100680991063,4.204907179527241,18.90661774102534,11.200909219126936,-7.4873125382996815,8.105433522448996,14.181167554918082
120,8.220318684726688,9.633989925210615,10.341300213408108,13.992803433514588,11.589545758930257,26.251992868528664,16.73219560686247,26.312684359204805,3.9516209981295423,18.1472137987276,10.21735415189041,-7.868979495929595,7.616266197240801,13.333461424806842
121,7.285372858203529,8.664204017316864,9.611283181003893,13.37238191374578,10.635429260460585,25.069491883263883,15.759221667953357,24.809735644296378,3.672554664375534,17.176303563183424,9.249439479937744,-8.18378358594163,7.075673340584765,12.39417525920464
122,6.364834056856306,7.689859244952801,8.834787235239775,12.660463267349616,9.637112523923975,23.688377072076477,14.639420873691881,23.03326249472306,3.374016370798439,16.025029741605497,8.306240003948423,-8.420530926110832,6.495067077707673,11.38584681588684
123,5.4771795976490445,6.732003038302164,8.032471184698428,11.87683566861132,8.617667646039703,22.14800077333118,13.405392916730836,21.040708181297177,3.062524577785334,14.72846082003226,7.396098266121706,-8.570431131392812,5.886473907003161,10.331381585706042
124,4.638071697262605,5.80903644132899,7.223441360637176,11.040887467029233,7.59891429969269,20.488411820397555,12.091359487876906,18.893090191081022,2.7446254957353315,13.324453304697156,6.52659439004246,-8.627356379986303,5.262312626825349,9.25356531297073
125,3.8601667373445916,4.9364918244649205,6.424863476420115,10.171285325680758,6.600971509195088,18.74934808379963,10.732141612712054,16.652985897048293,2.4267099855653407,11.852390386856326,5.704497048985082,-8.588004047378517,4.635116407330538,8.174550804624522
126,3.153016775639475,4.126887289794333,5.651661700016669,9.285660604378933,5.641851392241796,16.969273489358315,9.362065731264,14.382417231497236,2.1148325301494495,10.351826155962284,4.935676742046693,-8.451978686868097,4.017192831781515,7.115317480928223
127,2.523050737575256,3.3896474797171603,4.916299311395633,8.400299431581253,4.737100920540834,15.184479235659635,8.013832767002949,12.140709637282761,1.8145369018104442,8.861082598843016,4.224978305691138,-8.221802069515176,3.420229892464152,6.095115143137515
