,AF3,F7,F3,FC5,T7,P7,O1,O2,P8,T8,FC6,F4,F8,AF4
0,-7.2261137058003975,-2.2933426511264785,-6.873489169204058,-4.472761126243228,-1.7274188496025087,-3.385412532132813,-3.586724356009454,-0.07460909990464101,-4.3850863850369945,-3.13187175461825,-1.869183071599491,-3.356525064114533,0.6700909280836675,6.1716013902391476
1,-6.775915295439973,-1.8907003315159088,-4.810084949686846,-4.4110346722959,-2.2671515642426394,-3.786288783717953,-4.16521824600953,-0.1695566102019926,-4.958313824825953,-3.6940946857594397,-2.6931353999897594,-1.8171986728743255,1.5666113513864144,7.251414610287339
2,-6.366879211087472,-1.4944982029247527,-2.7902620961264466,-4.3619375984450315,-2.8039189183550657,-4.183228981326092,-4.7556408471913185,-0.2635484749800522,-5.543206433831279,-4.257963842193046,-3.5111925273380105,-0.3164664836756822,2.436749369778894,8.308547092947196
3,-6.014271346975666,-1.1128206305145947,-0.8338495313997482,-4.326192521788482,-3.334282097884236,-4.552957325880468,-5.342232831409767,-0.3546688144835854,-6.132533416158359,-4.807802481617618,-4.303213825979224,1.1289949369636934,3.2665097470506206,9.336033796617796
4,-5.731409338342845,-0.753348238625613,1.0409723311224806,-4.304131386870282,-3.855267915004526,-4.874166720667989,-5.909491331968021,-0.4410816939326623,-6.718823414937528,-5.328712030149376,-5.049372678349767,2.5036094372252,4.043018302606672,10.327165232969929
5,-5.529199798664601,-0.4231527671865954,2.8179975681962275,-4.2957226543397145,-4.364505360586342,-5.128673479429159,-6.442744165741744,-0.5210932497063255,-7.2945622987261585,-5.807117530701168,-5.730722956818087,3.7930729645666292,4.754893279511328,11.275536571043611
6,-5.415743435582384,-0.12850287858489506,4.483283615405367,-4.300593740026906,-4.860323222253077,-5.302348498329948,-6.928644150685302,-0.593203591445141,-7.85237239392704,-6.231224907896462,-6.329719622471206,4.984543686477012,5.392561139133876,12.175110785311311
7,-5.3960227410921595,0.12531437077758295,6.025395881605806,-4.318047491215148,-5.341804970524179,-5.38577702992035,-7.355565734535275,-0.6561475698521466,-8.385168366067647,-6.591373997596414,-6.8306765499404385,6.066850032448293,5.948504422827652,13.020297203361574
8,-5.471683336834218,0.33415193885927025,7.435602260435121,-4.347072593449272,-5.808800425127597,-5.37461881269291,-7.713894333828014,-0.7089248637302716,-8.886285773531576,-6.880276232236951,-7.2201459012493165,7.030712082106748,6.417434729595952,13.806046993230233
9,-5.640915855584982,0.4951373861100885,8.708013387046174,-4.386348200081232,-6.26189544113485,-5.269660431343532,-7.996206064571958,-0.7508205979987305,-9.349579023505852,-7.093129734395413,-7.487204445927295,7.868969206980037,6.796389413278943,14.527967310636615
10,-5.8984415678350235,0.6067809011184541,9.839665628964056,-4.434243325705095,-6.702341515916436,-5.0765716836935395,-8.197341805826632,-0.7814178334720463,-9.769487366816316,-7.227609042591793,-7.623634818512478,8.576804736564672,7.084755280547104,15.182456005013087
11,-6.235602449958372,0.6690544706521948,10.830543826555026,-4.488812398282448,-7.131947998022735,-4.805396063836426,-8.314384329990693,-0.800602937273529,-10.141070506431623,-7.283732845333891,-7.623995074122967,9.151955769972334,7.2842257359996445,15.7668582411944
12,-6.640555112584465,0.6834391225462664,11.683539613536185,-4.547790114271755,-7.55294147138764,-4.46982033578405,-8.346550414811519,-0.8085643039244657,-10.46001808209294,-7.263620841188077,-7.485577930939934,9.594892908639077,7.398698963562507,16.279643520428415
13,-7.09856773961092,0.6529349748869105,12.404339184405774,-4.608591013459193,-7.967799695330937,-4.086278034332601,-8.295011899975483,-0.8057843868997604,-10.722639042372627,-7.17115921897212,-7.208270481724922,9.908950859720893,7.4341235852937615,16.72059541943294
14,-7.592419223393717,0.5820261145953987,13.001232861835119,-4.6683211681387,-8.379069846952339,-3.6729464184712914,-8.162661042085748,-0.7930247128541988,-10.925838168239856,-7.01160192369361,-6.794333997009272,10.100387359424127,7.398295409174248,17.090998257886064
15,-8.102898605473326,0.47659113754883914,13.484839402399947,-4.723810046021015,-8.789181496036154,-3.248697046925973,-7.9538362694096,-0.7713035659637657,-11.067088150206663,-6.79114023521748,-6.248129645408755,10.17834649073453,7.300606047312427,17.39379798045688
16,-8.609399308244253,0.34375232172579173,13.86774153906842,-4.771669208481254,-9.200263805302594,-2.832058080616739,-7.674024477655178,-0.7418662567265782,-11.144405986687794,-6.516474682941037,-5.575818237800689,10.15470518018579,7.15174310607223,17.633711298624604
17,-9.09059632996055,0.19166162973596018,14.164035198594599,-4.80838124885597,-9.61397502500594,-2.4402423906289883,-7.32955576030076,-0.7061481883589315,-11.156341044948906,-6.194420454445067,-4.785060955257116,10.043788908872314,6.9633428639921355,17.817257824444713
18,-9.525186992335573,0.02922800388055613,14.388801787409873,-4.830418345094793,-10.031351295015476,-2.0882898649203057,-6.927306601660343,-0.6657312624540078,-11.101978843511633,-5.831571313909027,-3.884744977691188,9.861953063955918,6.747599205711405,17.952693332093897
19,-9.892668659219508,-0.1342039404827654,14.557519875334355,-4.8343859822977056,-10.452680918290447,-1.7883651893418522,-6.474428071625479,-0.6222945666591371,-10.980960608417295,-5.4340394147091695,-2.8847536175057593,9.627037952827868,6.516836295166709,18.04982743262698
20,-10.174120995836262,-0.28920903451968544,14.685439065619168,-4.817184137102007,-10.877409126968114,-1.5492440278319877,-5.978115376811852,-0.5775607996968581,-10.793515401044068,-5.0072807086103115,-1.7957943871308162,9.357716929630714,6.283056706376061,18.11971546150248
21,-10.35295624565108,-0.4266520068924135,14.786944542623178,-4.776175626693966,-11.304076896792344,-1.3760109253783526,-5.445432895661628,-0.5332404624879187,-10.540500082395376,-4.556008857301182,-0.6292902533527194,9.072767427717842,6.05748115118938,18.17422210194995
22,-10.415599033397134,-0.5380525200097324,14.874945284579344,-4.709349620500727,-11.73029584572871,-1.2699809672770408,-4.88320393226835,-0.4909763010338049,-10.223442593456253,-4.0841950364451005,0.6026697211233182,8.790303068728372,5.850099858215253,18.22546380749317
23,-10.352057583635148,-0.6159236417124684,14.96032147180702,-4.61546757737081,-12.152759718997112,-1.2288436191915215,-4.2979671574440355,-0.4522906208656461,-9.84458499925799,-3.595146339216777,1.887332729371726,8.527010569599001,5.669258295067929,18.285149752228776
24,-10.156351328927684,-0.654064229573151,15.051466286602057,-4.49417903790341,-12.567291248286809,-1.247011342590307,-3.6959930471378364,-0.41853783198190014,-9.406923038709596,-3.0916507726144276,3.2112571973380817,8.297437223951988,5.521300789713585,18.36385632823305
25,-9.826766329148278,-0.647789489886256,15.153953462421685,-4.346095820274857,-12.968921310758256,-1.3161391949593024,-3.0833452068970586,-0.3908640583194844,-8.914237686293841,-2.576171912788423,4.560285020190007,8.11337292005351,5.410294399984788,18.470283934322417
26,-9.36591974959149,-0.594089707324282,15.270354864808555,-4.172815312920584,-13.351995664548852,-1.425767647310377,-2.4659651927841324,-0.3701751119947006,-8.37111165638505,-2.051071851018259,5.91953728253432,7.983365113662943,5.337851986105529,18.610551688273006
27,-8.780626379260124,-0.4917135538851151,15.400223318073134,-3.9768864781286144,-13.71030345122388,-1.5640323037623574,-1.8497566232486735,-0.35711376560137686,-7.782920904009965,-1.5188378543694967,7.273457422646491,7.912396761404684,5.303068316542419,18.7875838118771
28,-8.08157177992909,-0.34117749426300015,15.540246271319372,-3.7617154471183545,-14.037221161492035,-1.718382895000961,-1.2406454306448376,-0.35204701719672316,-7.155789529665704,-0.982286561032467,8.605920528882725,7.901747195893762,5.302577288261296,19.000633069489233
29,-7.282807042417615,-0.1447054571548747,15.68456641451121,-3.531411051348048,-14.325865662881968,-1.876259721702219,-0.6445978706369279,-0.3550638020906537,-6.496497601132171,-0.4447200106402306,9.90042051950869,7.949045237112396,5.330732942920942,19.2449756673095
30,-6.401089149768176,0.09389642128625925,15.825255837216282,-3.290574393013971,-14.569250024073646,-2.0256867386260287,-0.06758565598310491,-0.365983300284533,-5.81233603543374,0.08998894479868864,11.140339167443752,8.04851287820571,5.379911936442056,19.511801297605
31,-5.455098647840741,0.3694252470797786,15.95292043560614,-3.0440406344456026,-14.760436341678915,-2.155754057645719,0.48450318032542095,-0.38437356345153384,-5.110910322345458,0.6173979168972392,12.309292444622196,8.191386737109918,5.440929514374199,19.788312213535654
32,-4.464572906044053,0.675521679167356,16.057401203267897,-2.7965855799019335,-14.892681072292902,-2.2569766682968035,1.0060000314574862,-0.4095795512686571,-4.399903712738003,1.1325896260260762,13.391540389179188,8.366493062447603,5.503553595117117,20.05803509674606
33,-3.449399041238446,1.004957564424059,16.1285297876308,-2.552614207808455,-14.95957087278372,-2.3215291938989404,1.4916228749595344,-0.4407588695689769,-3.6868180375627913,1.6303549958565946,14.372436937373708,8.56094073076733,5.55709195496575,20.301337664268658
34,-2.428714858337697,1.3499599009242405,16.156889056111613,-2.3158521566218813,-14.955149943289257,-2.3433671384171255,1.9366549714393535,-0.4769228229539326,-2.9787143472956163,2.105447940338397,15.238887511694996,8.760887172315527,5.591017673903817,20.496129209053546
35,-1.420066716178146,1.7025572158942857,16.134527401351434,-2.0890624932393935,-14.874041693287714,-2.3182520525392616,2.337114709960724,-0.5169801515576423,-2.281975160453469,2.5528859560695247,15.979777578932973,8.952327662940519,5.595591668364019,20.618713512419436
36,-0.43866842485524055,2.0549336864514753,16.05557905918638,-1.8738077609664632,-14.711567288816237,-2.243701249232728,2.6898997883593205,-0.559781068652905,-1.6021063449945245,2.9682661852095684,16.586337194796837,9.12186082865621,5.562441045208848,20.644756139821713
37,0.5032036547727234,2.399777523282092,15.916750785775212,-1.670272260444698,-14.463862080520842,-2.118883402181455,2.9928944921894343,-0.604159647762681,-0.9435920660884484,3.3480663417444516,17.05241407097229,9.257390866381602,5.485057512073426,20.550325406412377
38,1.3966538842528118,2.730611608532977,15.71764551611181,-1.4771541552860212,-14.127989451218228,-1.944480742701541,3.2450335932409016,-0.6489728264169367,-0.30981286508583905,3.689901806101195,17.374637611038118,9.348735733131573,5.359188007424131,20.312964721502446
39,2.2364314728404584,3.042094655396291,15.460904167524971,-1.2916331037012219,-13.70205081468573,-1.7225366331687644,3.4463189634410925,-0.6931342142786545,0.29696546752673525,3.9927130457563487,17.552465324140137,9.388117088915768,5.183097336444987,19.912751949423264
40,3.0210036358331678,3.330280106160197,15.15215699792557,-1.1094167756633069,-13.185290097445012,-1.456303615392376,3.5977861968220726,-0.7356408621313715,0.8755280557049325,4.2568617783981395,17.588109848773325,9.370511741102908,4.957689274709656,19.333299301057682
41,3.7524309942337397,3.5928187464699084,14.799786299795743,-0.9248677944750723,-12.578190754846782,-1.150101868687142,3.701420212740627,-0.7755915918716322,1.4255739748632026,4.484121126894624,17.486350513541243,9.293847744736189,4.686479113957871,18.56264652527521
42,4.43604492091735,3.829091084601898,14.414513192851166,-0.7312102375288473,-11.882563029369566,-0.8091922398450939,3.7600222678542905,-0.8121964441832932,1.9475156323691556,4.67755459716072,17.254239561271913,9.1590336029909,4.375417844691961,17.594001883591513
43,5.0799360536908065,4.0402579585350535,14.008832919119678,-0.5208110649993192,-11.10161835923401,-0.43966241673067424,3.777036015729184,-0.8447778803302658,2.4422309828449116,4.841289871384677,16.900720487313645,8.96981760227965,4.03257654167283,16.42629019325728
44,5.694275806608658,4.229222802302497,13.596334654415113,-0.2855264612299019,-10.240026163638476,-0.04831989378669867,3.756346159275719,-0.8727652042026055,2.910790073946111,4.980204751745705,16.436183590347657,8.73248604987855,3.6677090352314385,15.064475695298444
45,6.290506609669067,4.4005056043118636,13.190951615996015,-0.017096836605406507,-9.303945946712817,0.35741823956925184,3.702068118082217,-0.8956841971684232,3.3541802742521174,5.0995528403250425,15.871990088187827,8.455422095364018,3.2917206477950507,13.519639568149005
46,6.880448785470767,4.5600349171956704,12.80619275474465,0.2924310718571394,-8.30102590476688,0.7696499674451649,3.6183491459682084,-0.9131442589888361,3.773055114529786,5.204563883509686,15.219998968197599,8.148557747249248,2.916078387574917,11.808805819164972
47,7.475380075353032,4.714868745962458,12.454407368955714,0.6502793412825257,-7.240359003248777,1.1801372014105513,3.5091997563379778,-0.924825426413467,4.167529655302815,5.300056393084057,14.492128721609909,7.822758316543929,2.5522013261791967,9.95452243095193
48,8.08514725315569,4.872857611380137,12.146129532622451,1.062535513343939,-6.132389002945807,1.5804847312685106,3.378370151871419,-0.9304675313426737,4.537041098348301,5.390097923309206,13.699979741218868,7.489180885762075,2.210868763275295,7.984215672369597
49,8.717368152607818,5.0422642924078165,11.889542055695767,1.5337927236571693,-4.9887620310181555,1.9623501509225365,3.2292811614379167,-0.9298635526767627,4.880287799432891,5.477742119517791,12.854534669022955,7.158647828465587,1.9016797055835561,5.929344735076014
50,9.376776520167704,5.231355172949775,11.690090656501404,2.0668513749714608,-3.8221239226353774,2.317679979543319,3.0650136121301155,-0.9228588416333174,5.195252975016436,5.564862065802075,11.96594539491777,6.841073273979376,1.632591215094224,3.824391574421181
51,10.064751348077458,5.447977947077221,11.55026831457579,2.6624953112049097,-2.6458689830149678,2.638961480958978,2.8883540751538117,-0.9093571287866535,5.479310951605944,5.652087321366569,11.043407332124056,6.544974162582072,1.4095553426894483,1.705726311742484
52,10.779057922154932,5.699140049039653,11.469577981932458,3.31934959634432,-1.4738504617655652,2.9194751586281096,2.701888869650361,-0.8893329960048196,5.729404564164811,5.738839304990469,10.095114261372558,6.277088598546937,1.2362652603761317,-0.38960855069079836
53,11.513811828034278,5.990601954518925,11.444670017504556,4.0338210930603,-0.3200655515621517,3.153530930674559,2.5081330166852,-0.8628491073559249,5.942274302680937,5.823449193934012,9.128281491981113,6.042114694209271,1.1140127836751075,-2.425150441867681
54,12.259661765617473,6.326499488460651,11.46963976765384,4.800118086846717,0.801672047598562,3.3366719449776054,2.309677337317519,-0.8300753399699916,6.114715151397289,5.903336386117098,8.149222384034577,5.842575116640222,1.0416535988348172,-4.366259481666709
55,13.004174020816663,6.709009424191654,11.53646142900457,5.610342338601464,1.8780603271110903,3.465833205405717,2.109335453134684,-0.791306309803795,6.2438367412753415,5.9752243598028665,7.163463166591984,5.6788066365371375,1.0156735360699434,-6.181303871335659
56,13.732391795758451,7.138073053761988,11.635527594715285,6.454646568211306,2.896628368563048,3.539446724371484,1.9102732560238416,-0.7469737851235358,6.327305891297741,6.0353735177474555,6.175882189517401,5.54906941411442,1.0303481908659258,-7.842739103258806
57,14.427535961586633,7.611192727184514,11.756259960242348,7.3214514863578835,3.8460393704615954,3.557489974022804,1.716106386472051,-0.6976511045370588,6.363556261404522,6.079815292094373,5.190861075244556,5.449766388348606,1.077987530654721,-9.328033626908587
58,15.071809030182585,8.123315600480563,11.8877545752497,8.197717448934966,4.716370827054416,3.521479000798381,1.5309554749748575,-0.6440477669196171,6.351955964584658,6.104576157556479,4.212436302368229,5.3757578829141375,1.1492554340206584,-10.620398936703427
59,15.647260732639204,8.666816372608515,12.019423763756272,9.069265800509056,5.49936541200126,3.4344107939589095,1.359452899702305,-0.5869936462928359,6.292929504258427,6.105883478775647,3.2444410815241596,5.32075044227807,1.2335513933708364,-11.709291184497216
60,16.13667223174454,9.231587281250258,12.141596824990284,9.92114437773266,6.188645762317891,3.3006612162067714,1.2066978347236317,-0.5274137099889565,6.188034916043098,6.08034846512111,2.2906298489178907,5.277733710299226,1.3194395822353233,-12.590662474825095
61,16.524417170807258,9.805240022717703,12.24604401971433,10.738030862087538,6.779886277916603,3.1258453380335074,1.0781585763710622,-0.46629542238812915,6.0400000302371994,6.025125728774367,1.3547812977971878,5.239436651612392,1.3951105222668359,-13.266951174273903
62,16.797260354741617,10.373420348889457,12.32639318190428,11.504666316326325,7.270934960101484,2.916646218760565,0.9795226796623387,-0.4046517666361795,5.852722389907166,5.938052397357468,0.4407791261472235,5.198774436809149,1.4488617162430668,-13.746812075834619
63,16.94505720295993,10.920230867196564,12.378414503786745,12.206308722364081,7.661877648840421,2.680615878196224,0.9164962956727648,-0.3434828992860413,5.631235154403965,5.8177698947158225,-0.447329088245278,5.149258458427149,1.4695835424612738,-14.044600445380473
64,16.96131909240958,11.428750613272117,12.400156000678603,12.82919274675296,7.95503631523758,2.4259495785257426,0.8945549722393176,-0.28373921627130533,5.38163760509586,5.663828182152492,-1.3052954701260815,5.085343710427741,1.4472343904210812,-14.179638838137594
65,16.84361274208495,11.881631770540938,12.39192017703634,13.36097806539037,8.15489367749718,2.161233663178997,0.9186504072689442,-0.2262883322508549,5.110986134196543,5.476767910772435,-2.1286605149714735,5.002691009674564,1.373285590526247,-14.17530994758934
66,16.59376719588562,12.261745711939746,12.356081735440583,13.791165337185708,8.267939014121271,1.8951690012405202,0.9928820265193111,-0.17188804207062877,4.82714175513079,5.258173120682625,-2.9127712597190363,4.898327251162012,1.2411143427784672,-14.058029560280467
67,16.21787032036953,12.552844491246024,12.296756362315417,14.111457144000298,8.302434220544944,1.6362756701108638,1.1201483346463903,-0.12116657536509481,4.538573505945574,5.010686760962566,-3.652833755235384,4.770695215611009,1.0463232974245265,-13.856158445526637
68,15.726048052484026,12.74020200606909,12.219340802148238,14.316041451041007,8.268104194216061,1.3925884939983142,1.3017992287737878,-0.07461053113756268,4.254122317827984,4.737983090096953,-4.34400256972154,4.619594431421095,0.7869689314472751,-13.598909835121763
69,15.132033004334225,12.811201109620642,12.129953503227107,14.40177765324615,8.175761070551623,1.1713566512918312,1.5373149422851191,-0.032560150057758586,3.982734833476191,4.44469409874261,-4.9815056980219214,4.446024216034692,0.4636861443049701,-13.315301417199999
70,14.452542720253586,12.755837020613695,12.034812001030106,14.368270242964854,8.0368772936697,0.9787634038579622,1.8240387433125147,0.004788758287688322,3.7331795900543536,4.136290365391631,-5.5607985313511055,4.2519470762809775,0.07970194859967988,-13.033190470263763
71,13.706500322489111,12.567112318252411,11.939587202045715,14.217822563532554,7.863127584987109,0.8196836269230279,2.1569890223483195,0.03737701682171801,3.513758708763613,3.818919394225959,-6.07773741848678,4.039994251439422,-0.3592638649659906,-12.778420498022662
72,12.91414048789612,12.241304852893228,11.848775628511259,13.955272237423094,7.6659240050381445,0.6974965218075269,2.528772741899635,0.06526934746173985,3.3320275599694513,3.4992064721171108,-6.528762154752131,3.8131362120171834,-0.8452082042100634,-12.574098460870326
73,12.096050789097683,11.778097085420788,11.765128680013188,13.58771904974435,7.455970608951265,0.6139680450753473,2.929616872997043,0.08863791275985432,3.1945334091148654,3.1840249011456265,-6.911076685706581,3.574340843862839,-1.3681559408727662,-12.440013465818799
74,11.272201792051478,11.180563091018978,11.68917384958387,13.124163747696219,7.242863799049176,0.5692121783941358,3.347527625072717,0.10774353784994489,3.1065819714865817,2.88024444632442,-7.222817678908832,3.326241797527904,-1.9165588045177364,-12.392200418845707
75,10.461019189761583,10.455017359344414,11.618857884590218,12.575081634725048,7.034761118646075,0.5617329513487209,3.768579447978777,0.12291601613851108,3.07203848193446,2.5944689679579658,-7.463200875825746,3.070839419908754,-2.477762001093358,-12.4426450722712
76,9.678548386394977,9.610737303406646,11.549336941385619,11.95195785489485,6.838135368462655,0.5885413978018489,4.177327679332445,0.13453481568741113,3.0931679456757166,2.3327762405181733,-7.63263503067551,2.809256673441423,-3.0385135168175674,-12.599119489884576
77,8.937756430198625,8.659578226218116,11.472933401111293,11.266811905842804,6.657623498147974,0.6453350931415007,4.557331082385368,0.1430113873978458,3.170517914668254,2.100474270179146,-7.732793392630843,2.541571607544131,-3.5854875758326292,-12.865129951167802
78,8.248007599085255,7.6155046599221965,11.379271988492418,10.531737466252721,6.495972080468128,0.726724340570793,4.89176390678339,0.14877400354938214,3.302845943768679,1.9018877954297382,-7.766634458082645,2.266744789827986,-4.105793220464287,-13.239955099546481
79,7.614737604140393,6.494065690507633,11.255598588163023,9.75848067454347,6.354074702821674,0.8264889765453133,5.164091552531664,0.15225557201734782,3.4870921286426904,1.7401849649571426,-7.738367897835283,1.982653629356527,-4.5874421347556025,-13.71875294473858
80,7.039338991078902,5.3118446470384475,11.087274443970419,8.958076123773507,6.231091918463732,0.9378517054387586,5.358779212452279,0.15388431091866528,3.718394855421857,1.6172478937528587,-7.653367365207367,1.6862363051165639,-5.019755818903155,-14.292721170999181
81,6.519258891011035,4.085915149216425,10.85842779164045,8.140555434964243,6.124641244565664,1.053755785169211,5.461999360455617,0.1540767035790453,3.990146311534806,1.5335845029730437,-7.5180372934551984,1.3737379229158753,-5.393698984038109,-14.949303485708057
82,6.048300696209903,2.8333350546088627,10.552735559133252,7.314738755938663,6.031042798477576,1.167136011822139,5.462302566983972,0.1532319289603726,4.294084955080632,1.4882759337447686,-7.3396436896035775,1.041042404860393,-5.702131410361978,-15.672442040548546
83,5.617112988106117,1.5707065103093918,10.154299622711253,6.4881151986181,5.94560545131354,1.2711727955645111,5.351217070276879,0.15172705121387864,4.620425197080132,1.4789552275449065,-7.1261185319103735,0.6840663556588841,-5.939973725894402,-16.442880432103774
84,5.213840889248376,0.3138237266275883,9.648574591386263,5.666813706631296,5.862938486714778,1.3595202133963333,5.123744853961661,0.14991254609660776,4.958028203466009,1.5018174198252185,-6.885844989784257,0.29918580156644314,-6.104284810663431,-17.23852394368027
85,4.8249061385308165,-0.922579500692225,9.023297018695368,4.855660347055542,5.777274166504008,1.4265007347146474,4.778725093617864,0.14810803618272061,5.294619725502642,1.5516658490238766,-6.627428669910259,-0.11633679590247348,-6.19425156397828,-18.034864954161286
86,4.4358732029265076,-2.124981705153461,8.269360329827194,4.058311562553472,5.682787269359617,1.4672624454944903,4.319040556828949,0.14659832289694305,5.617060461154189,1.6220023526301746,-6.359459719256803,-0.5639591568505855,-6.211095978202861,-18.805482351878002
87,4.032351571511094,-3.281134782147683,7.381577533291888,3.2774468446554033,5.573898817560279,1.4778986924528705,3.7516497531310162,0.14563000095660913,5.9116721605093545,1.7051695876873887,-6.090271402341992,-1.0435320181855063,-6.157908865369329,-19.522623482766743
88,3.6008809287020087,-4.3800517627745235,6.359276701497675,2.5150000741443765,5.445552710130151,1.4555333696218997,3.087436871154843,0.14540914569259772,6.164618895059906,1.7925518662492443,-5.827701721242327,-1.5530667425786677,-6.039423160118576,-20.15787409706536
89,3.129746865825309,-5.411943878711575,5.206682740591108,1.7724068343657435,5.293455438664153,1.3983761139046376,2.3408816299338158,0.14610068480122237,6.362337684286376,1.874836617654096,-5.578865248506064,-2.0886196209647045,-5.861741761917353,-20.682914888597413
90,2.6096798397623866,-6.368131543017904,3.933052123539628,1.0508451023360608,5.11427043273999,1.3057506570721198,1.529561257666272,0.14782997311226903,6.492006501917099,1.9423327399335095,-5.349942453646833,-2.6443057142180524,-5.632034821400116,-21.07035302677225
91,2.0343985932050734,-7.240953217275539,2.5525432706806357,0.35144885838566703,4.905760268342696,1.1780976842448685,0.6735063246080598,0.1506867509234995,6.542031398223956,1.9853361916362984,-5.145993472765142,-3.2124442915904603,-5.358219575847002,-21.294605839628662
92,1.400970401765909,-8.023693124480452,1.0838225932232837,-0.324521616295081,4.666872343184993,1.0169520724367334,-0.20555939186154853,0.15473119004741706,6.5025289129365875,1.9945281744243868,-4.970802786866241,-3.7838269509648046,-5.0486338859678614,-21.332804258472738
93,0.7099733119663283,-8.710543980750161,-0.45057609523106235,-0.9755630935045617,4.3977666594582985,0.8248944197145207,-1.085057754986578,0.16000127838115566,6.365776236324588,1.9613874282079047,-4.826760925665172,-4.348089958899498,-4.711713939302774,-21.165677044053442
94,-0.03454092000405643,-9.296614618089375,-2.0251039970215756,-1.5998700795819052,4.099787623148506,0.6054783523733486,-1.9424313681857979,0.1665205055809573,6.126600942717927,1.8785955791699005,-4.714789115069796,-4.894165225384734,-4.355687294148615,-20.778372901321053
95,-0.825271083486783,-9.777984726670844,-3.6122118423304017,-2.195330187306354,3.775384611542714,0.36313668740860683,-2.7560101234364547,0.17430473696134074,5.782684984288117,1.7404130739738903,-4.634312547039254,-5.410780080843246,-3.98829384366523,-20.16117630793447
96,-1.652053907031721,-10.151800772128349,-5.183465690567784,-2.75956665999287,3.4279880272625247,0.10306945539908238,-3.505825665732959,0.1833671881037577,5.334763273723298,1.5430029828803982,-4.583287299909745,-5.886974577709539,-3.616548312344237,-19.310074985340442
97,-2.5023814245386458,-10.416399916301087,-6.710696778830822,-3.290017517642833,3.061848727230412,-0.1688850802520583,-4.174334776034552,0.19372042368411327,4.786704373566762,1.2846813249790288,-4.558284291840915,-6.312605601700174,-3.2465572286300204,-18.227142640221405
98,-3.362009585437582,-10.57144395045481,-8.167116268842443,-3.784039500017539,2.6818494928949193,-0.4463976677444284,-4.747019349261541,0.2053744240756075,4.145468285770068,0.9660760435937821,-4.554630631838965,-6.678808702158184,-2.883400272941427,-16.920709028486943
99,-4.215617264694601,-10.61804355917265,-9.528328394760308,-4.239024934627197,2.293297929801899,-0.7228161250232978,-5.21283832606058,0.2183302145778669,3.4209430796694944,0.5901820871908916,-4.566604744582038,-6.978391072088241,-2.5310811101290414,-15.405299669367215
100,-5.047475734446816,-10.558854284041635,-10.773182986897233,-4.652520488795858,1.901710988940244,-0.9913555723326113,-5.564514818381982,0.2325692950551753,2.625667804868811,0.1623065214460571,-4.58767768701682,-7.206132980227512,-2.19254731723097,-13.701339299720093
101,-5.842092098184323,-10.39812830677574,-11.884420496912805,-5.0223381444729815,1.512602102682733,-1.2453081861552828,-5.798649518893824,0.24803989021281217,1.7744542033143136,-0.3100953105395081,-4.6107898228311575,-7.358980361733692,-1.8697733044545701,-11.834625871979839
102,-6.58479564596914,-10.141709888448032,-12.849078773045031,-5.346650498404847,1.1312823236944185,-1.4782645000986983,-5.91565977408609,0.2646417392233194,0.8839244228103995,-0.817684282166042,-4.628649372638129,-7.436117946814159,-1.5638945395051307,-9.835594483930551
103,-7.262243097371444,-9.79696683483695,-13.658649760133853,-5.624064737451289,0.762686190299775,-1.6843343248843805,-5.9195529270812415,0.28221173327125765,-0.028014225738379497,-1.3495875273105058,-4.634037138640858,-7.4389199051850365,-1.2753767734089336,-7.738401863212549
104,-7.8628266639472795,-9.372655548616317,-14.30899412327295,-5.853672355025006,0.4112307893741259,-1.8583544324213432,-5.817552263449452,0.30051297395250254,-0.9427341648432158,-1.8938132617280827,-4.620100393642697,-7.3707830658646,-1.0042013865165333,-5.5798710190829555
105,-8.37697684543105,-8.878722593969304,-14.800039951526381,-6.035074429175343,0.08071283137215579,-1.9960716995258254,-5.619602659774128,0.31922947499109466,-1.841468322781798,-2.437705468962814,-4.5806192091811395,-7.23685565751513,-0.7500478235165917,-3.3983421703379806
106,-8.79735894889761,-8.326050807910857,-15.135305971407272,-6.168384583017912,-0.2257554570212935,-2.0942927888342067,-5.3377892094672275,0.337967815303978,-2.705883965839931,-2.9684114544299494,-4.510230641705703,-7.043681631803669,-0.5124559073035158,-1.232480253722834
107,-9.11896811912792,-7.72616269429188,-15.321299165642483,-6.254213442503685,-0.5057740299360538,-2.150993663248642,-4.985704925473672,0.3562659484973719,-3.5186288235269623,-3.473336234435417,-4.404600342913586,-6.798786827170164,-0.29095412664915116,0.8799092426614045
108,-9.339132228867733,-7.090897790036845,-15.36684141063519,-6.293639465378527,-0.7576507560093172,-2.1653843299950633,-4.577803537533229,0.37360838082638137,-4.263831627548769,-3.940562192457164,-4.260537251328268,-6.510238276517734,-0.08514482009257586,2.9030070906907413
109,-9.457435225661886,-6.432082951911141,-15.28237973324522,-6.288171222165964,-0.9803707235914384,-2.13792643587047,-4.128771288977964,0.38944615160833473,-4.927542395289869,-4.359219024832108,-4.076053742434955,-6.186210787549148,0.10525665454654304,4.804007966872241
110,-9.475575293230056,-5.761214213245482,-15.079330011720353,-6.239705445255657,-1.1735449653236127,-2.070303486255028,-3.6529479229226456,0.40321959398195656,-5.498100661292086,-4.719795200156563,-3.85037865650021,-5.834593984946212,0.28042528991609317,6.554016396124971
111,-9.397172635431403,-5.089166407016563,-14.769495417698952,-6.150483830055214,-1.3373441401972017,-1.9653451624986173,-3.1638218863734666,0.4143818434935772,-5.9664222472832265,-5.014386557075341,-3.583932870085449,-5.462667859354775,0.4404635519635434,8.128786114834826
112,-9.22754142022186,-4.425943592310146,-14.364590699274958,-6.023050391931384,-1.4724221665259778,-1.8269085246358339,-2.673618656269563,0.4224214736135063,-6.326197543195397,-5.236880734409313,-3.27827746049046,-5.076866910504166,0.5854597380750796,9.509282215479113
113,-8.973439873994804,-3.7804803408049383,-13.87589288418516,-5.860210553275466,-1.5798343720046044,-1.659720318153697,-2.192994670653573,0.4268832744426948,-6.573997136363946,-5.383078805552601,-2.936044135053108,-4.682644072911573,0.7155530721134683,10.68204761834148
114,-8.642811503256551,-3.160500805865255,-13.314027722020462,-5.664992910772904,-1.6609544195571966,-1.46918659778266,-1.730843006901741,0.42738680319545647,-6.709284014909284,-5.450757878609523,-2.5608562592707975,-4.284436553762654,0.8309913245505858,11.639358772232287
115,-8.244528490222562,-2.5724387390018735,-12.688888695488137,-5.44061449994395,-1.7173939245187508,-1.261178503196093,-1.2942107617785898,0.42364273456114926,-6.734335199221792,-5.439680078851758,-2.1572460202272903,-3.885726586117904,0.9321694984102263,12.379162376747981
116,-7.788145704313225,-2.021417553995489,-12.009673093367486,-5.190450228232373,-1.750928266862024,-1.0418058439005806,-0.8883220701498614,0.4154671442524263,-6.654079179170524,-5.351554098793673,-1.7305696037489986,-3.4891817020421128,1.0196423712254168,12.904794865277829
117,-7.283671520153197,-1.5112858627742933,-11.285009877538599,-4.918007015339316,-1.763431650322988,-0.8171920371236087,-0.5166949000870212,0.40279366987914733,-6.4758585539181075,-5.189955504411676,-1.2869190847201635,-3.0968528651889335,1.0941079630617037,13.224497588669127
118,-6.741360175603914,-1.044700914461737,-10.523148125673982,-4.626902890864724,-1.756823851257921,-0.5932634057158497,-0.18133423134655924,0.38568311584800646,-6.209129219407606,-4.9602109752572385,-0.8330277202855115,-2.7104052125852194,1.156362802519818,13.350752864974172
119,-6.171528606452224,-0.623249868029222,-9.732172264066826,-4.320850470192648,-1.7330300880061842,-0.3755624373208247,0.1170208139402357,0.3643297595747931,-5.865108017232899,-4.6692491800127565,-0.3761639571153881,-2.3313545315709483,1.2072338952675676,13.299479810962602
120,-5.58439715486985,-0.24759664090742003,-8.920210373108695,-4.003642717218172,-1.6939539841354774,-0.16908997150097674,0.3786219213052484,0.33906359173646555,-5.456380706786012,-4.325417610344099,0.07599200805629466,-1.961282479957571,1.2474970509319612,13.08914218421204
121,-4.989948779492925,0.08235953703564405,-8.095604428662064,-3.6791371918424343,-1.6414620969129614,0.02182189729909968,0.604435202273583,0.3103478812654936,-4.9964829122610395,-3.938262390941245,0.5154962670929955,-1.6020059028541267,1.2777955128761243,12.739829218300818
122,-4.397797820488552,0.36732816879249375,-7.2670166869624,-3.3512339036780374,-1.5773774420908053,0.19360494125256283,0.7958867670852753,0.27877150591097394,-4.49946860113936,-3.518268612604434,0.9343199093059068,-1.2556817430918585,1.298574413637494,12.272371703762898
123,-3.8170590798824797,0.6084872392796334,-6.4434544548869885,-3.023841973581214,-1.5034789275169345,0.34351609903382063,0.9546475881949453,0.24503538281077478,-3.979481865319815,-3.0765618222066693,1.3245607015181626,-0.9248386719934448,1.3100442960012566,11.707549124275774
124,-3.2562111223736148,0.8073689458648493,-5.6342054246912365,-2.7008315358454347,-1.4215033174741565,0.4696639655510381,1.0824685672842693,0.2099323260024709,-3.450346253305961,-2.624575062943049,1.6786848450891778,-0.6123372680756147,1.312181671492058,11.065430954464864
125,-2.7229529137029633,0.9657775808331249,-4.848686191323581,-2.3859694851984505,-1.33314625933557,0.5710025726778764,1.1810709701242328,0.1743199497024343,-2.9251817643103593,-2.173688917581587,1.9897910178197014,-0.3212694252582376,1.304768082791502,10.36487845717536
126,-2.2240582829434006,1.0857408615585205,-4.09621583795362,-2.082840513248083,-1.240059387099903,0.6472981105614843,1.2520921586757625,0.13908682428851601,-2.416055331798359,-1.7348546976649972,2.2518849585587297,-0.05481294206536798,1.2874629243139746,9.623215188331322
127,-1.7652364405186973,1.1694911852590086,-3.3857330938359884,-1.7947577770111411,-1.1438417829519525,0.6990756321369351,1.2970816476133131,0.10511297075259829,-1.9336691386251308,-1.3182143820873682,2.4601496427680307,0.18394144333588253,1.2599006624558942,8.856057684817467
