,AF3,F7,F3,FC5,T7,P7,O1,O2,P8,T8,FC6,F4,F8,AF4
0,-0.36480210244741235,-0.30829529210988943,1.1418473820165282,2.112223629252658,3.3657998119241386,3.804810238125708,4.1362173206379405,1.9271003546240053,3.179999182954691,-0.13482626740933676,0.576918308762822,0.11876725290909956,-1.6006153004390127,1.631739146920081
1,0.3621055972756736,1.3528386891195792,0.7064013326856824,2.7040385704292222,3.9173677638640525,3.762336242714214,4.7765703175491465,1.4857539518635179,1.4920313953036197,0.18262666967049623,0.8713572858012744,0.08462916470088976,-0.674733177164463,2.3106339130694398
2,1.0776996841857744,2.9966422736008957,0.26808651851267074,3.2869280658016935,4.4521060320766335,3.714719015870711,5.4083400814087135,1.0620540038933632,-0.14932222765065542,0.5041587798256506,1.1758857830257454,0.05515816452513486,0.22931873727661775,2.9925725443906113
3,1.7695070258972685,4.596945122790364,-0.1703935211781255,3.8494798668414165,4.95356439533235,3.656531952388784,6.016309649071843,0.6660293441613352,-1.7114911286159566,0.8284631167982438,1.4865171611009127,0.0277234461333578,1.091208821060867,3.666439211433141
4,2.425670955644803,6.1292837525117925,-0.6065067324311926,4.380972244703,5.406217256078828,3.582710526662658,6.585979692968089,0.30681303184153425,-3.1644269397599754,1.1539124780009071,1.7989498301807976,-0.0005737335581501891,1.891713591552837,4.321007104335267
5,3.0352774067814443,7.5716734722238686,-1.0379565221518343,4.871652018314935,5.795892368467087,3.488747361932578,7.1040332842003515,-0.00767278186763472,-4.48154456398609,1.478452283618938,2.1085985168023953,-0.03284734281205991,2.6131975660785143,4.945184877387513
6,3.5886311000279485,8.905230040115768,-1.46274723355212,5.31295948720969,6.110148906155084,3.3708634785646865,7.5587480694782805,-0.2710011031826943,-5.640551663716202,1.7994832497808433,2.4106004037934454,-0.07238626599833065,3.2400105697278834,5.528207598736996
7,4.07747032205472,10.114612939913354,-1.8792496027331684,5.697691318810757,6.3385937351834905,3.2261483244294213,7.94033958305886,-0.4784800434721597,-6.624130318349095,2.113742752162256,2.6997996543787854,-0.12262636662832498,3.7587922927339914,6.0597708057990936
8,4.495114675224281,11.188277454919845,-2.286262288101619,6.020097454361554,6.473127869326516,3.052661169396805,8.241222039748616,-0.6273347687521919,-7.420437149541307,2.417202312197018,2.970722581805168,-0.18712882422163016,4.1586857447261965,6.530117837640924
9,4.836546108878414,12.118537977098327,-2.683063526166108,6.275913325604364,6.508118050307742,2.849487431107042,8.456176636695936,-0.7168191552149524,-8.023395066466216,2.7050045735664936,3.21756238933127,-0.26955375612495563,4.431470730028334,6.930098959567248
10,5.098428362986848,12.901458673087935,-3.0694462079040905,6.46233342134882,6.440491118915717,2.6167464408361516,8.582421919243437,-0.7482480134064012,-8.432760351076206,2.9714640023213374,3.43419482522278,-0.3736164737482001,4.5716334840419215,7.251224405324844
11,5.279072917377769,13.536598164219475,-3.4457308240781037,6.577935493352541,6.269751255012016,2.3555516171890396,8.619585486620233,-0.7249457061568026,-8.653961556201734,3.210150288802955,3.6142433516559533,-0.5030163050125713,4.576388496827524,7.485731421119373
12,5.3783602067481135,14.026640980607775,-3.8127537008021655,6.622565658994264,5.997922169759116,2.0679283307475615,8.56958066789815,-0.6521134990537794,-8.697720603165426,3.414062610151449,3.751204771424797,-0.6613342795315771,4.445663702950448,7.626678209499889
13,5.397623763998596,14.376950377272998,-4.171831504053705,6.59719396873072,5.629417941937561,1.7566973370179317,8.436395802099256,-0.5366249945012391,-8.57948046137757,3.575889101673775,3.8386351741366656,-0.8519039593061236,4.182052354625492,7.668068044557475
14,5.339504099641471,14.595076500315614,-4.524705062925415,6.5037495413497775,5.170847587810758,1.425331928656563,8.22580785412082,-0.38676467715976043,-8.318675546327409,3.688333321876556,3.870384808330555,-1.0776658474319463,3.790727541711077,7.604998747436794
15,5.207780529803368,14.69025265614851,-4.87346472302287,6.344945423192357,4.630759898109711,1.0777954255949582,7.945036599520361,-0.2119271293010195,-7.9378877845953895,3.744481990972256,3.8408631959779926,-1.341017224635192,3.2793124541703658,7.433828962877139
16,5.007192723865203,14.672910686137476,-5.22045635935108,6.12410541516064,4.019336788467896,0.7183635486051477,7.602360133661983,-0.022293246529931535,-7.46193233847139,3.7381870189311632,3.7453147359306147,-1.6436657747438213,2.657702602265732,7.152353235506934
17,4.743267162192694,14.554243153717977,-5.568164201715734,5.845006683026971,3.348045478407988,0.35143489636727526,7.206715892572298,0.1715041514330429,-6.91691409471276,3.6644381018400147,3.5800887523248472,-1.986489645787374,1.9378430282005203,6.759980493582373
18,4.422164393206519,14.345834357040502,-5.919065980741634,5.511751559428523,2.62926205992344,-0.018666986403095526,6.767312664407002,0.35871761819903764,-6.329292093007174,3.5197067735772958,3.342892571388814,-2.3694022115834796,1.1334697711775794,6.2579124547626925
19,4.050559661749926,14.059373742750733,-6.2754585800820175,5.128678703229408,1.8758809370615666,-0.3878942313818701,6.293277939898108,0.5288211922774876,-5.724985858790387,3.3022459687552805,3.03301848745645,-2.7912192362247272,0.2598270347470737,5.649317752960342
20,3.6355623340353,13.706454342599379,-6.639258207281865,4.700317769618963,1.1009254262431456,-0.7526685525747052,5.793361424546475,0.6718423161047984,-5.128555071876627,3.012329919035435,2.6515346749102906,-3.2495300906562514,-0.6666312946412128,4.93949353989214
21,3.184669986385572,13.29844684694564,-7.011786786651596,4.23138417494946,0.3171737964997537,-1.1100556147121003,5.275709353974814,0.7786845759546985,-4.56248104032145,2.6524187522225677,2.201427715099758,-3.7405818913735556,-1.628553163733839,4.135999512098608
22,2.7057437190889546,12.846429730198615,-7.393563353419288,3.7268034768017713,-0.4631875812724336,-1.4579058152450377,4.747715643384036,0.8414323325985494,-4.046573544812443,2.227232913882936,1.6876827849734277,-4.259192903456486,-2.6080161191261713,3.248742070705244
23,2.206985457962924,12.361150390762623,-7.784122880217627,3.1917504303224002,-1.2288750597745517,-1.7949489613269634,4.21594659495359,0.8536249359800069,-3.5975184946601453,1.7437266202625106,1.1172888424028935,-4.798715593756566,-3.586876876327081,2.2899824845699497
24,1.6968977255732522,11.852992818177933,-8.181883690404721,2.6316871146197482,-1.9697750542278776,-2.1208339491685844,3.6861283762144534,0.8104875075093383,-3.2285709741113813,1.2109573888120169,0.49916134591628064,-5.351068045259071,-4.547145532338961,1.2742456475602009
25,1.184211112113465,11.331932866984092,-8.58407906342912,2.0523873382455196,-2.677160738508617,-2.436109581492498,3.1631821908245374,0.7091072031592164,-2.9493878621952074,0.6398582884994182,-0.1560170579722367,-5.90684559757828,-5.471380282213583,0.21811522051909377
26,0.6777722185525872,10.807470376401705,-8.986760969399036,1.4599391995589246,-3.3438516264758458,-2.742148576724997,2.651290726075229,0.5485467282757177,-2.7659881404455327,0.04292747706482224,-0.8360301701690082,-6.455515502658315,-6.343090133933581,-0.8600866419252647
27,0.1863927375324944,10.288535442593536,-9.384876328781544,0.8607221702533877,-3.9643117764430245,-3.04102250866768,2.1539801586955667,0.3298893373155202,-2.680827983581153,-0.5661465750152505,-1.5274248439894353,-6.985689270007722,-7.147127089449354,-1.9407251992457513
28,-0.28133327859050805,9.78337209221054,-9.772410142859746,0.2613580509871129,-4.5346857252828485,-3.3353391640249566,1.6742041626091932,0.056211886233242726,-2.6929785098124395,-1.1729057316903606,-2.2158592845579674,-7.485461599518418,-7.870047856363939,-3.003366551661294
29,-0.717233061067677,9.299405643381146,-10.142585752256924,-0.33136360683054494,-5.052774594673681,-3.6280546457162592,1.2144196544169088,-0.267514369577663,-2.798393011513825,-1.7625719367320827,-2.8864931252105306,-7.942800926433591,-8.500427912913077,-4.027355515340774
30,-1.1137675093603117,8.843100749173786,-10.488110323447147,-0.910584958623483,-5.517957453996697,-3.9222710731994743,0.7766478609590367,-0.6345915063573253,-2.990247181803866,-2.3205110272264298,-3.524409976363377,-8.345973938491987,-9.029115583876303,-4.9924322435249175
31,-1.4642407287598609,8.419816811803749,-10.80145295900912,-1.4695037469484606,-5.931065111105773,-4.22102828654398,0.36251802440986347,-1.0368232924154757,-3.2593327269455385,-2.832696987467269,-4.115062826799116,-8.683984706385255,-9.449418804170374,-5.879360590321487
32,-1.7629965939302794,8.033667261326075,-11.07514274211235,-2.0015205998425674,-6.294215206148738,-4.527095589545816,-0.02670572739185034,-1.4647928819718417,-3.594484260205559,-3.2861641885361896,-4.64473176597596,-8.947007987631732,-9.75722134252473,-6.670540614397376
33,-2.0055939409117896,7.687389462936259,-11.302074007804551,-2.500407002762153,-6.610618606687578,-4.842768100203662,-0.39011141317187015,-1.9081766549600123,-3.983022358541566,-3.669436163648979,-5.100981815293261,-9.12679564888515,-9.95102804017668,-7.350577640854455
34,-2.1889539520061687,7.382232334157951,-11.475806328265065,-2.9604888164759187,-6.884367433419888,-5.1696726873021905,-0.7271361245470431,-2.356080973647264,-4.411201426319614,-3.972920208942308,-5.473106118587953,-9.217035697815886,-10.0319403879204,-7.906781896506287
35,-2.3114756192265133,7.117868548313041,-11.590847471146313,-3.376838085682372,-7.12021462159232,-5.508591155132447,-1.037569498909264,-2.7973900843198924,-4.864657611108361,-4.189257328907422,-5.752536801102755,-9.213646137340431,-10.00356504825397,-8.329577158973622
36,-2.373117523644347,6.892337572538778,-11.642908909443022,-3.7454642858021283,-7.323353849052598,-5.859312146399325,-1.3215623392781726,-3.2211153168163222,-5.328856756010532,-4.313616554447129,-5.933203227645939,-9.114990531524777,-9.871858820351303,-8.612803740629163
37,-2.3754455969505672,6.70202557539875,-11.629124802759234,-4.0634947461712185,-7.499207040498298,-6.220525936060759,-1.579640936314593,-3.6167368837248866,-5.789542836867714,-4.343921357582871,-6.0118159155801765,-8.922007002162953,-9.644913690984344,-8.753907910448277
38,-2.3216460302338042,6.541689028947331,-11.548226001766201,-4.329332565899406,-7.653224802113374,-6.589776181273974,-1.8127283968466759,-3.9745291486097694,-6.233182432435852,-4.280993754656833,-5.988054199883698,-8.638245481096888,-9.332684792991627,-8.75401376815291
39,-2.2165001532961672,6.404529914335898,-11.400660363158819,-4.542779362801844,-7.790703566796588,-6.963479461417479,-2.0221733244625937,-4.285858419613531,-6.647391412399067,-4.128599406128172,-5.864636827796047,-8.269809203247583,-8.946662837493669,-8.617874258144388
40,-2.0663157403010293,6.282330028925486,-11.188650524571868,-4.705110663179039,-7.916622251281419,-7.337017671068523,-2.2097836999223675,-4.543440446306831,-7.021319486151605,-3.8933766820198596,-5.647258024722869,-7.825197359756793,-8.499492472911529,-8.353698118929918
41,-1.878809054667792,6.165648785486566,-10.916181727640051,-4.819094389152413,-8.035500678092223,-7.704900872349149,-2.37786042328623,-4.741544584834096,-7.345961412678468,-3.5846367176231624,-5.344379210503281,-7.31504877315021,-8.004540824416184,-7.972852525523533
42,-1.6629344860799873,6.0440839140576985,-10.588915501257373,-4.888947299811371,-8.151281475598383,-8.060990285504374,-2.5292217449849423,-4.876134019810869,-7.614364394316515,-3.2140304254052237,-4.966878534152425,-6.7517920954329025,-7.475426239659613,-7.489448012007318
43,-1.4286622249411787,5.906589644898134,-10.214028828302157,-4.920228933674837,-8.26723640699866,-8.398764523506427,-2.66720803347949,-4.944936104785186,-7.821709974883595,-2.7950900877749274,-4.527573654337212,-6.149214701875509,-6.925523755996919,-6.9198208701304935
44,-1.1867073666119523,5.741843271230062,-9.799981796720637,-4.919676287102976,-8.385897299634554,-8.711608920283117,-2.7956572078333584,-4.947442635759586,-7.965263200535078,-2.342664352566763,-4.040644160626868,-5.521967614516294,-6.367468516539584,-6.281935586437301
45,-0.9482159250136741,5.538647926464494,-9.35621991257815,-4.894984869399996,-8.509011386735704,-8.993108730728103,-2.918845030028255,-4.884845639063305,-8.04419868221536,-1.8722742009589082,-3.5209873784965278,-4.885026431430126,-5.812680692832274,-5.5947343773980265
46,-0.724415219820887,5.286356396891497,-8.892821153714316,-4.8545435693262675,-8.637521003825704,-9.237331049811784,-3.041390136533606,-4.759919244305622,-8.059329607200908,-1.3994239148514689,-2.9835456340102917,-4.25312966431498,-5.270936211499385,-4.877462761518891
47,-0.5262384789529656,4.975298125722727,-8.420102866942484,-4.807132945330442,-8.771567603120626,-9.439085166961124,-3.1681290335380488,-4.576861595293413,-8.01277848173996,-0.9389062663533956,-2.4426451535239218,-3.640217918050382,-4.750007079708728,-4.149000451349481
48,-0.3639360766890366,4.5971899460154075,-7.948208923320262,-4.761599440023517,-8.910519295583086,-9.594154487165815,-3.303969486804566,-4.341111670557235,-7.907633977883814,-0.5041447210519832,-1.9113865311336358,-3.0588999837224318,-4.255392747548899,-3.4272262976277017
49,-0.2466881204757553,4.1455112876370865,-7.486701381744171,-4.726520650930411,-9.05301968439299,-9.699493937490171,-3.453731312973326,-4.059153985956457,-7.747634812167174,-0.10661556339106536,-1.4011234757828537,-2.519973356210154,-3.7901593304230032,-2.728444461476038
50,-0.18223486713790069,3.6158272228575767,-7.044181805224043,-4.709877776952854,-9.197054406852995,-9.753385293394253,-3.621982269760494,-3.7383201335631533,-7.536910596708965,0.24461157843727918,-0.9210604074429795,-2.0320255422066174,-3.354897567805296,-2.0668962058712235
51,-0.17654275797144092,3.006047180108488,-6.627965226625652,-4.718750406898978,-9.340031345948814,-9.755540863221906,-3.8128748459038966,-3.3865916650152648,-7.279795306979517,0.5431847348110538,-0.47799147790965824,-1.6011391108222859,-2.9478047938564846,-1.4543778576737652
52,-0.23352454866734723,2.316611624217271,-6.243825559738709,-4.759046804398296,-9.47887117768645,-9.707145624625724,-4.029988458126106,-3.0124058140681376,-6.980715840000312,0.785613161527242,-0.07619474675319605,-1.230718729113071,-2.5648915398337135,-0.8999810010324442
53,-0.35483142828214587,1.5506020369772313,-5.89582598430365,-4.835280618405201,-9.610106426256937,-9.610830436484465,-4.276181535854207,-2.6244649126642052,-6.644148755479961,0.9712369271681233,0.28251442121079806,-0.921452693259657,-2.2003083943815698,-0.40996590763147134
54,-0.539732608293953,0.713771328871817,-5.586242057050977,-4.950402648957187,-9.729988668808511,-9.470573963882872,-4.553459075380566,-2.23155157843474,-6.27463298354756,1.1020283591116258,0.5985776925551675,-0.6714142792505542,-1.8467816242491681,0.012227023789226781
55,-0.7850935252076707,-0.1855066618688909,-5.315579331946943,-5.105693693104985,-9.834604063657464,-9.291536915870115,-4.862862573345912,-1.8423534552875391,-5.876823485131086,1.1822429043293232,0.874354977845156,-0.4762993003707728,-1.4961365750869347,0.3658311848945164
56,-1.0854575573941874,-1.1363681259209866,-5.082681136100022,-5.300721426372234,-9.919996544244796,-9.079837681240397,-5.204389747619507,-1.4653023270035581,-5.455569070980477,1.2179477596639585,1.1136831308238793,-0.3297861975073188,-1.1398780012943597,0.6524859822437796
57,-1.4332282133173748,-2.1256679997819306,-4.884915711958309,-5.533360834633243,-9.98229613713615,-8.842282958150314,-5.576950625717175,-1.108432333767218,-5.01599711372777,1.2164652818079487,1.3213706351295873,-0.22399541939060913,-0.7697891774893576,0.8758694152343379
58,-1.818940300715114,-3.138260963120687,-4.7184256767574,-5.799874302373807,-10.017847764092734,-8.586070342646817,-5.97836457790739,-0.779260677503692,-4.563589643054319,1.1857728495481348,1.5026692114721016,-0.15001754013034466,-0.37850905960719894,1.0412596049450733
59,-2.231601682949325,-4.157346028639365,-4.578417911779913,-6.095044568957763,-10.023334421447014,-8.318481280806173,-6.405399940198156,-0.48469158885108216,-4.1042382974238,1.133900983146994,1.662760574871145,-0.09847543405479713,0.03995079169588099,1.155057054719676
60,-2.659083271779581,-5.164862850443496,-4.459469542076335,-6.412351549781816,-9.995888137406252,-8.046581372660244,-6.853853968085471,-0.23094074560783132,-3.644267296063095,1.068368371059274,1.8062908409705136,-0.06008473889571885,0.4897814999058392,1.2242996601184875
61,-3.088533796232359,-6.141925252784526,-4.355825624125238,-6.744182356981994,-9.933182449366495,-7.776941167937785,-7.318666120294811,-0.023473575217345822,-3.1904130491707607,0.9956875288070143,1.9369788201479812,-0.026178095715353504,0.9730677744905435,1.2562005011970279
62,-3.5067968278973827,-7.069275901985022,-4.261666265901384,-7.082062830614984,-9.83350127224801,-7.51538639320084,-7.794053261763044,0.13305186189027893,-2.7497482221790044,0.9209688043203658,2.0573190198114126,0.010838273528593711,1.4896084158511744,1.257734591052979
63,-3.900810052756344,-7.9277458819665165,-4.171325210711529,-7.416899062629432,-9.695781068011156,-7.266784085409066,-8.273653298543016,0.23484720014030816,-2.329540034588619,0.8476434852357825,2.1683951115268516,0.05712213676517481,2.036871329631723,1.2352951386227233
64,-4.2579706935035215,-8.698704348669935,-4.079448347106685,-7.739219318456609,-9.519625806244221,-7.034870641808999,-8.750665209868014,0.279068764842998,-1.9370388523541309,0.7773190232629997,2.2698133524724695,0.11714623219226296,2.6100798760046344,1.194432813034247
65,-4.5664559891432175,-9.364486292622443,-3.9810884542103007,-8.039410165774845,-9.30529652941905,-6.822127895676385,-9.217977618839177,0.2639082227073944,-1.5792027172044205,0.7097711892741109,2.359757187870931,0.1935726571638284,3.2024202631194307,1.139683553958224
66,-4.815493098470871,-9.908790220634243,-3.8717405360761323,-8.307944160804709,-9.053679090183637,-6.629712681621943,-9.668282979880505,0.1886968765373024,-1.2623733976039622,0.6430697200440155,2.4351551492595185,0.28725078860762193,3.8053533017998946,1.0744826369070724
67,-4.995577856224132,-10.317041458614332,-3.747328942799673,-8.53559860706666,-8.766234973921796,-6.4574438362757896,-10.094178658704223,0.05401728792153711,-0.9919268160827929,0.5738261886978518,2.491946458861506,0.39733023155785296,4.409008501876335,1.0011564918267357
68,-5.0986456413250405,-10.576719994296486,-3.6041619109156002,-8.713665302365573,-8.444940858205268,-6.3038485194642915,-10.488259092573774,-0.1381875852909468,-0.7719240097630152,0.4975458437377152,2.5254237725688307,0.5214739548897448,5.002635001255338,0.9209805366740479
69,-5.118199822028745,-10.677653844997852,-3.4388707236605627,-8.834150663150254,-8.092222200601604,-6.1662671562403855,-10.843204901335355,-0.3845204161530669,-0.6047887789771934,0.40905921567218495,2.5306296904613887,0.6561525734470408,5.575082598770066,0.8342909232145566
70,-5.049404125193915,-10.612279635743082,-3.248350018315354,-8.889965083067112,-7.710884707786669,-6.041013224966923,-11.151875645768781,-0.6800651848913173,-0.4910363100998277,0.30300443749921824,2.50278167034354,0.7969978304653765,6.115286767059392,0.7406388708121312
71,-4.8891455182579895,-10.375871399072903,-3.029714039638305,-8.875100081098394,-7.304045712355101,-5.923580890678793,-11.407413104865864,-1.0183670337822852,-0.4290744226648586,0.17432762458614504,2.437698074809596,0.9391908560728488,6.612732929399868,0.6389762952929938
72,-4.636074147426336,-9.966736771473823,-2.780281496755512,-8.784791466551495,-6.875066105617143,-5.808890351957072,-11.603360979622108,-1.3914689190027951,-0.4150960958124702,0.01876676364708829,2.332196591216003,1.077858599784006,7.0578767421676165,0.5278603773953535
73,-4.290626139228587,-9.386377053189907,-2.4975986413100673,-8.61566595670941,-6.427482956507423,-5.691557740691036,-11.733804077315845,-1.7900141489329515,-0.4430783612389915,-0.16671485540174322,2.184436298010111,1.2084510231051866,7.442499024154933,0.4056640099989116
74,-3.8550328581517177,-8.63960433371667,-2.1795053421317125,-8.365867067771546,-5.964943025515105,-5.566173790124962,-11.793525387568048,-2.2034192523265688,-0.5048978921642856,-0.3835757619284702,1.9941776714766664,1.3270736751549232,7.759977807177567,0.2707803908688246
75,-3.3333163305492675,-7.734605634455226,-1.8242423075858265,-8.03515386647609,-5.491137515666692,-5.4275742209483715,-11.77817431235665,-2.6201164503889776,-0.5905670404515011,-0.631446887542067,1.7629416735845473,1.4307555258729474,8.005466878685546,0.12181352126049974
76,-2.731265981050547,-6.682941653341129,-1.4305905866863642,-7.624964225131728,-5.009738404223153,-5.271085957822113,-11.684435297366507,-3.0278600348697227,-0.6885857185063594,-0.907999412015925,1.494058826746608,1.517639133329481,8.175979288098755,-0.04224933330016838
77,-2.056388223082031,-5.4994670083534425,-0.9980288351138793,-7.138433589151595,-4.524336703317266,-5.092736963327012,-11.5101841711218,-3.41408674460031,-0.7863956299354775,-1.2089348528236497,1.192609358421812,1.587087547415362,8.270382970323295,-0.22188355717076513
78,-1.317819066976306,-4.202160347075521,-0.526890632692695,-6.580361585041433,-4.038383015743071,-4.8894222182447225,-11.254619410303162,-3.7663168536559675,-0.870915644182254,-1.5280950041898826,0.8652636678052804,1.6397086905982141,8.289321535267597,-0.4168898551750959
79,-0.526191174922136,-2.8118566401976985,-0.018503708025521464,-5.957122272198572,-3.555130745655122,-4.659022147681854,-10.918356416718083,-4.07257985789812,-0.9291312702734609,-1.8576828177038005,0.5200377316216648,1.6773030487337492,8.235075823142825,-0.6262723857237334
80,0.3065495546996434,-1.3518804211006734,0.5247047813421625,-5.276518984132783,-3.0775824967581245,-4.40047161350178,-10.50347417331714,-4.321846273075573,-0.9487067665861745,-2.188578876982453,0.16598132999410362,1.7027442338509542,8.111381927563913,-0.848133756966246
81,1.1673774228623535,0.15241327652753056,1.099148218382625,-4.547590096349442,-2.608440721102989,-4.113778051824159,-10.013505609812563,-4.5044453551908585,-0.9185853900037638,-2.510732349846018,-0.18718107098150177,1.7198040161932122,7.923220040458642,-1.0795925140145581
82,2.042463802950315,1.6741758182980726,1.7000712295301033,-3.780376122388928,-2.1500643267903383,-3.799987691104181,-9.453366208321047,-4.612447746316637,-0.8295427726146235,-2.8136015435869597,-0.5294364934480728,1.7329335601470663,7.676585991747141,-1.316733222447687
83,2.91748512517361,3.1856592929285377,2.3215907052924187,-2.985660725914398,-1.7044332760325875,-3.461100179751083,-8.829220117443617,-4.639992410610073,-0.6746616436343263,-3.0866181227365583,-0.8508781134948458,1.7470111609165193,7.37825371204696,-1.554602946810536
84,3.7779456032142913,4.65884423434185,2.956781919731532,-2.1746989861427637,-1.2731230763597328,-3.0999350273658264,-8.148289217266663,-4.58353933172885,-0.44970287751483046,-3.319650579952945,-1.142093341513306,1.767064767481949,7.03553262326389,-1.787269763016341
85,4.609497187369129,6.066075862174213,3.5978018372283427,-1.3589458828416803,-0.8572906864440266,-2.71995755648552,-7.418617332031189,-4.442033549719504,-0.15335603483422003,-3.5034459714974404,-1.3945336159056752,1.7979765353189285,6.656020880615042,-2.0079573785337406
86,5.398241389804736,7.380686389264696,4.23604154736635,-0.5497961612323645,-0.45767288496079833,-2.325075969698793,-6.6488072642401495,-4.2169713004533955,0.21264058636788363,-3.630032508755893,-1.6008555892213652,1.8441779287528615,6.247355454607935,-2.20926369937961
87,6.131002314139361,8.577586236292866,4.8623016672479755,0.24165674669393966,-0.07459751067060416,-1.9194233053499867,-5.847750623292683,-3.9123639041528167,0.6435159128384665,-3.693067420241624,-1.7552223884972153,1.9093476068918207,5.816963755282037,-2.383460609019038
88,6.7955659087715405,9.633813383917003,5.466987312831361,1.004839544669102,0.291992994171874,-1.507138502478637,-5.024369164226344,-3.5345994048311904,1.1316197304408768,-3.68811461856698,-1.8535514092821443,1.9961290880785425,5.371827047407025,-2.522859599645778
89,7.38088571903503,10.529035558326468,6.040321642105123,1.7298964001748194,0.6425075350910858,-1.0921602434249325,-4.187382818304766,-3.0922067171072016,1.6667094096119086,-3.6128374439006707,-1.893693532875467,2.1058888801309785,4.9182704111517115,-2.620216580576255
90,7.877259208179505,11.246003068018036,6.5725781887245365,2.4078676159561794,0.9776645494896737,-0.6780459508477539,-3.3451152682688026,-2.595532666144614,2.2363553742947553,-3.467095431971542,-1.8755295802995142,2.2385365656505933,4.461795399252616,-2.669142135363666
91,8.276480228466724,11.770949965049809,7.05433177822567,3.0308521994298836,1.298445145149051,-0.26782603518940934,-2.5053434499221345,-2.0563479716562028,2.826439631406699,-3.252941229898361,-1.8009743427512261,2.392425258682727,4.006969083686799,-2.664482226854473
92,8.571972017034788,12.093937687165417,7.476725469912816,3.5921546617593116,1.606042778656934,0.13609986469297847,-1.6751929053687364,-1.4874025315833423,3.421712759349179,-2.974523179826522,-1.6738862925590523,2.5643439976089906,3.5573771963482477,-2.602638853375429
93,8.758901795107736,12.209130045537124,7.8317468284504965,4.086413184140511,1.9018093013958046,0.5320218157782638,-0.8610767453210583,-0.901952489027864,4.006372028316476,-2.6379079053844885,-1.4998899505605439,2.749604459045224,3.1156412002390566,-2.481809077655473
94,8.834274291720444,12.11498421118347,8.112501912974366,4.509703272005256,2.1871956532735553,0.9189343517311882,-0.06867267184034133,-0.313281699863412,4.564627978970071,-2.2508421656270405,-1.2861249722922217,2.9422153709487078,2.6834920659387005,-2.3021315995978675
95,8.796998742097323,11.814341392435658,8.313471379640218,4.859609161809784,2.463684948126383,1.2965098587105883,0.6970690682659302,0.26576081085845926,5.08123624470654,-1.82247282124428,-1.0409396114275107,3.1351313056979535,2.2618891577074107,-2.065739670067329
96,8.647922707606005,11.31440357085518,8.430731509284458,5.135255214494863,2.732716572326937,1.6650338443864263,1.4318931195476425,0.8231871803300673,5.54198097664485,-1.363039617933192,-0.7735466680500441,3.3205586985759776,1.851170795491051,-1.7767255831200865
97,8.389826753298474,10.626588217392706,8.46212437385314,5.337291604810426,2.9956020003092823,2.0253045129753784,2.1321855830141834,1.3482420214220212,5.93410253978103,-0.88355061334838,-0.49365862308782316,3.4903004435514142,1.4512228095858013,-1.4410245861943711
98,8.027376912412205,9.76626029364527,8.407365370400964,5.467832423138871,3.253435663480298,2.3784981296483605,2.7949012663893447,1.8317019423418042,6.246664926144559,-0.3954463767068906,-0.21111635086683495,3.6361208127098132,1.0616527408118588,-1.0662255334868538
99,7.567036245454726,8.752348837058964,8.268081863113567,5.530348662352556,3.5070065300331237,2.7260022324039728,3.4174734918741287,2.266090295140338,6.470859273565456,0.08974285394444159,0.06447679386124597,3.750114272968056,0.6819605834933002,-0.6613140346866997
100,7.016940601969236,7.606862637364341,8.047782188553802,5.529521968956781,3.7567171818280842,3.069221648906152,3.997711273806959,2.6458003394683427,6.600240550838459,0.5607428364727252,0.3241057659454472,3.8250639838693066,0.31170096711302514,-0.23635380221080876
101,6.3867452107406155,6.354324634987589,7.751758633049685,5.471066693361573,4.0025166817094116,3.409366543250378,4.5336924392691405,2.9671274774367506,6.630895399956358,1.006877567844359,0.5596703540365611,3.854777246003808,-0.04936584063556585,0.1978852870043226
102,5.687448151843736,5.021147010481612,7.386930905821767,5.3615281337758525,4.243851858411292,3.7472355205554173,5.023663904160709,3.22821798204517,6.561540231083729,1.4183987958103914,0.7642773952170773,3.8343858575960614,-0.40113673296435315,0.6303391158053074
103,4.931195363679904,3.6349688032806977,6.961638433601955,5.208064836880292,4.479639741956516,4.083009146702481,5.465961057322482,3.428946583425991,6.3935497982805645,1.7867911464911697,0.9324873229252253,3.7605999582571465,-0.7430464602028647,1.0500831845777092
104,4.131070195203139,2.2239763544769064,6.485390700352671,5.018222424532756,4.708262263502438,4.416070051668943,5.8589570886400555,3.570738465009195,6.13091734586625,2.105040549256042,1.0605031159244314,3.6319046775493016,-1.073972108404323,1.4467667110232503
105,3.3008684374535924,0.8162248515091629,5.968584811074352,4.799705101032972,4.927582823920752,4.74486500030929,6.201050206495077,3.6563526795266768,5.780147479738867,2.367853709002033,1.1462900486548948,3.4486892116240826,-1.3921692695954437,1.811022518785221
106,2.4548574871151496,-0.5610227966399509,5.4221987437356844,4.56014922596062,5.1349829433232825,5.066821786461606,6.49069225715339,3.6896434178159883,5.35008198507898,2.5718158490244085,1.1896157720480265,3.2132979833694364,-1.6952499390985813,2.1348265446014616
107,1.6075168352225253,-1.8819253436504153,4.8574682308075605,4.306902669817039,5.327416550212738,5.378329933023225,6.726456971898909,3.6753132013021985,4.85165746783993,2.7154733221034912,1.1920027821997907,2.929994720759159,-1.9802131757932864,2.4117817621244333
108,0.7732574546882727,-3.1226477845508405,4.28555576330933,4.046814910892231,5.501479978410658,5.674789673982768,6.90714064748071,3.6186688164096354,4.297593065872166,2.799328954459834,1.1565899321616426,2.6048338271661007,-2.243537785702258,2.6373064771718058
109,-0.033879827610386166,-4.261888902038289,3.7172219418891266,3.7860451885908297,5.653496990347276,5.950728978343566,7.031883025892854,3.5253874798350404,3.702007872533657,2.825742563565608,1.0879061025785592,2.245439155935111,-2.48134094005648,2.808715722316011
110,-0.8005427045713643,-5.281339999160667,3.162511567479493,3.5298981898598347,5.779619354282185,6.199983725575142,7.100292430927184,3.401297984936076,3.07997238701521,2.798737078125595,0.9915668757247965,1.8606973588606939,-2.6895982183073945,2.9251947648957746
111,-1.5143933359513655,-6.1660631937695145,2.6304684698422136,3.282697791150137,5.875944184024572,6.415932193246683,7.112558356847384,3.2521802800457738,2.4470065640084937,2.7237213122807633,0.8739135532628619,1.4603805923942457,-2.8644106159158698,2.9876736376453707
112,-2.1644282627384683,-6.904777896640552,2.1288933399986854,3.0477086087921585,5.938649239614907,6.591772665545662,7.069537522137619,3.0835874860119885,1.818547139942527,2.607151691450054,0.7416217845098474,1.054720596106314,-3.0022949368502903,2.998619922606063
113,-2.7412757563706918,-7.4900452194347515,1.6641573840309865,2.8271121461720736,5.964146542316823,6.720832468969815,6.97280506063072,2.9006957910927538,1.2094151849827066,2.456163611480998,0.6013119126549108,0.6539615666746231,-3.1004683143017373,2.961773004594943
114,-3.2374530184788006,-7.918342499716396,1.2410816979610877,2.6220398346615115,5.949252768078302,6.796897019833473,6.8246691277117195,2.708188137284367,0.6333175385906991,2.27820559837448,0.4591931354567168,0.26792164282846553,-3.1570967330780473,2.881846434710808
115,-3.647566123707619,-8.190023479028316,0.8628886844142153,2.4326607700264242,5.891372001016785,6.8145468892961825,6.628152919615576,2.5101761994283978,0.1024114480364221,2.08070572375366,0.320769358386229,-0.09440795322972001,-3.171480695286121,2.7642261787913824
116,-3.9684374684808237,-8.309163602701274,0.5312281146666796,2.2583182980476235,5.788683040312896,6.769488827911893,6.38695162800918,2.310162422107045,-0.3730479872170964,1.8707918282585403,0.1906278029095744,-0.42520059160793416,-3.1441574410138995,2.6146911795482928
117,-4.199149547832798,-8.283294974545466,0.24627614014996485,2.097706205770068,5.640320114365811,6.658864084220577,6.1053726418602015,2.1110408574959374,-0.7849692319036263,1.655077188512419,0.07232231492049092,-0.7180494666230449,-3.0769084020669837,2.4391776486041485
118,-4.341000867001068,-8.123042089087669,0.0068999696389514895,1.9490713645927489,5.446532933500512,6.481515756602923,5.788265866533426,1.915132850617651,-1.1275951722819655,1.4395129146253591,-0.03164839288555869,-0.9681301884636938,-2.9726728023459055,2.2435990421217396
119,-4.3973787782284175,-7.841676476550532,-0.1891255940707827,1.8104258418745591,5.208809991648296,6.238197194731576,5.440948438511817,1.7242514224743442,-1.3975884635090874,1.2292992018842748,-0.11978006005181291,-1.1722712563590154,-2.8353815199310453,2.0337212671867637
120,-4.373562446714882,-7.454613550782274,-0.3448693534442873,1.6797494593530087,4.929948777326502,5.931705307602064,5.069125133379529,1.5397864205744043,-1.594036823562679,1.028841423484125,-0.19144253610456374,-1.3289427830464273,-2.669735981601821,1.8150810122240302
121,-4.276474292946656,-6.978876276900381,-0.46398528327296346,1.5551649800172205,4.614059058192221,5.566925232938651,4.678802800140716,1.36280095644827,-1.7183820386723576,0.8417353480441232,-0.24672742716359117,-1.4381801445115663,-2.4809619905886326,1.5929281495282022
122,-4.114398669089889,-6.432547363289117,-0.5504661652700533,1.4350728194022415,4.266491045808802,5.150775844312292,4.276194990596432,1.1941284884065,-1.774274661681509,0.6707686871500452,-0.2862899226644989,-1.501460484897228,-2.2745667230104467,1.3721731875903915
123,-3.896682547871217,-5.83422592353592,-0.6084263379866203,1.3182393834276482,3.8936881527932146,4.692049308387214,3.867612689709064,1.0344598261913651,-1.7673556746745698,0.5179323812386335,-0.31120415266402157,-1.5215465466182119,-2.0561194446802618,1.1573272603865161
124,-3.6334266915229367,-5.202498360899776,-0.6419238651640238,1.203840809984514,3.5029721830164378,4.201142730366735,3.4593389910195,0.8844108924228297,-1.7049673549079465,0.3844420019537008,-0.322841606862045,-1.5023062872960828,-1.8310657472945129,0.9524319739879665
125,-3.335170193039249,-4.555429049665144,-0.6548257596673981,1.091469628368974,3.1022749765577866,3.6896860248526178,3.0574887021792803,0.7445650364014513,-1.5957988741361278,0.27077457742292915,-0.3227727642730546,-1.4485113617408285,-1.6045753775349998,0.760985277819786
126,-3.012569235022015,-3.9100759658117186,-0.6507149374070043,0.9811139852730841,2.699833688162819,3.170077692848659,2.6678569112494683,0.6154874138873064,-1.4494779782559228,0.17672707418691141,-0.31268635222642527,-1.3656154285933335,-1.381418110651698,0.5858740984274298
127,-2.6760734741018006,-3.282039918269713,-0.6328348201023632,0.8731177008304755,2.3038674192398436,2.6549492828229257,2.2957630050905564,0.4977129198988272,-1.2761270032184149,0.10149950940982845,-0.29432000325636976,-1.2595151764713963,-1.1658614955403952,0.42932382562164517
