,AF3,F7,F3,FC5,T7,P7,O1,O2,P8,T8,FC6,F4,F8,AF4
0,0.04033474162538283,-2.071051429483147,-1.020937450616174,-0.5661074874955199,1.6842158031470555,-0.2532747449602049,-0.981305773664321,-2.233670194840565,-2.8100150294659274,-2.305331339805182,-3.3176760189781076,-1.728375572796535,-4.620709925647223,-4.355728783133625
1,1.9933765239789885,-0.937893007280831,0.8411124560895978,-0.5725645578308532,1.7407972232691074,0.058191925562136426,0.18061074821148027,-0.3569664411334904,-2.2211912737793105,-2.7526103775474033,-2.1276584340595526,0.2816260507019684,-4.029571198294174,-1.5193539235568867
2,3.8982413374633125,0.1580579341988348,2.6533341040990055,-0.5903417451167557,1.8010632438072034,0.35302275841835484,1.3050392406711002,1.467012005107946,-1.6698774598626924,-3.211265583689655,-0.9801968233868538,2.2267293133205626,-3.4795158106366646,1.2414719821074311
3,5.733430325335636,1.1973026734424814,4.390954892681691,-0.6207793764581893,1.8627649737670289,0.6210183032768187,2.3677762526596253,3.2083142029392713,-1.1622940665202455,-3.67322174764363,0.10386523034061705,4.078230302655879,-2.982857804028206,3.8881276868640806
4,7.478841925018206,2.1617771058016153,6.030925555364614,-0.6651512643878742,1.9233671634512417,0.8526350444259698,3.3459753690466476,4.839207000544478,-0.7035775239897725,-4.13080611740207,1.105500655257619,5.809760844185554,-2.5504170442304575,6.385075812169791
5,9.11609715946892,3.035328243749337,7.552442086480768,-0.724684498008262,1.9801126726282121,1.0393458750117188,4.218834653659251,6.334940037113755,-0.29772384707346544,-4.577118369747794,2.0079807139439643,7.397943142984084,-2.191280602668905,8.700712185633794
6,10.628807026743143,3.8041013050415255,8.937393123476832,-0.8005807702729316,2.0300816355823454,1.1739560552436759,4.968221911948537,7.6743921296466455,0.052440748460840764,-5.006328541998315,2.79727494195111,8.822943763088647,-1.91260269885376,10.808077767391183
7,12.002773816347775,4.456822723064924,10.170715618505922,-0.8940360113553311,2.0702471422816786,1.2508627248742799,5.5792161630120765,8.840574932369664,0.3452690788982672,-5.413879191076544,3.462362062561898,10.068905001363131,-1.719447279759031,12.685405895528072
8,13.226124077964965,4.984973962587443,11.24064783494667,-1.0062528981019507,2.097532080200791,1.2662504805114205,6.04054805670775,9.820980474434867,0.5802947493947599,-5.796570108011003,3.995452502948575,11.12424025982369,-1.614674574542831,14.316488025231438
9,14.289377857640229,5.3828608338119555,12.138876218823512,-1.1384390371203412,2.108873033727928,1.2182204416401021,6.344926907259165,10.607770408439757,0.7582423722117574,-6.152508472394169,4.392127641992541,11.981790123936834,-1.5988704327616765,15.690853250971225
10,15.185465781649029,5.647591821319177,12.860580413915441,-1.2917826281695541,2.101296876591908,1.1068552433067578,6.4892471830149105,11.197815317688724,0.8810618092025894,-6.480915527945825,4.651402522260733,12.638846045331887,-1.6703157223720935,16.803769120461745
11,15.909710463611871,5.778984999756511,13.404387166817164,-1.4673982368998444,2.0720138500050216,0.9342259566626051,6.474671912658838,11.592600487634341,0.9519963206549832,-6.781794154243362,4.775718233939347,13.097056690050975,-1.824993185892104,17.65608151471062
12,16.459790135910254,5.779425807353884,13.772248408475184,-1.6662381508793376,2.0185278796613257,0.7043480585083195,6.30659436272979,11.798018678351266,0.9756831039373736,-7.055479577016129,4.770868399834399,13.36223684169974,-2.0566303870881297,18.253918888763643
13,16.835700707228924,5.653697898721129,13.969261513626646,-1.8889686151546303,1.9387615235598499,0.4230927844059595,5.994483044760925,11.824070387521035,0.9582701448673402,-7.3021141660741895,4.645862025511866,13.444100182342249,-2.3567784931712095,18.608291124339562
14,17.039728775792515,5.408807148956833,14.003450805715353,-2.1358138232853823,1.8311900943879498,0.09805869251722844,5.55161897838614,11.68448929651259,0.9075202895580282,-7.521101460647287,4.4127228316078835,13.355935846413374,-2.7149271934424704,18.734615141235263
15,17.076443046307848,5.053814666222771,13.885528340349502,-2.4063737443298985,1.69497752679182,-0.26159316585313735,4.994737660183392,11.39630706594354,0.8328663331264493,-7.710600465313674,4.086223072333279,13.114244855907339,-3.118656878576593,18.65219687632588
16,16.952704714892473,4.599687867964685,13.62864778068008,-2.699425784058836,1.5301052434662645,-0.6453381700359431,4.343590149997049,10.979368264131699,0.7453816099787057,-7.867118783927492,3.683548139048562,12.738346654542111,-3.5538312869917927,18.383691568288533
17,16.677688418956873,4.059169154632752,13.248157327795171,-3.012725619855433,1.3374842125939514,-1.0415195683742546,3.620437259341694,10.455802917081956,0.6576382111989072,-7.9852547594237135,3.2238879522422934,12.24995844220751,-4.004836768255568,17.954552905330505
18,16.262895448990374,3.446650988931163,12.76134781110741,-3.3428280182122947,1.1190396002549043,-1.4376111394147622,2.8494885910633276,9.849461512068673,0.5834373567265663,-8.057626320141807,2.72795311426753,11.672742401028396,-4.454876127700883,17.392469837801652
19,15.722132480200564,2.7780371180337227,12.187183221255776,-3.684951649023825,0.8777573399680262,-1.8205096651592334,2.0562956214182564,9.18531628262435,0.537411224364499,-8.075007764736576,2.2174179750096186,11.031810589823214,-4.8863239748057685,16.72678121415208
20,15.071424456865255,2.0705647675181087,11.545995561192695,-4.032911590492293,0.6176829812375932,-2.1768554159699396,1.2671062410242322,8.488833424209673,0.5345100519769108,-8.026675558980212,1.7142986011595698,10.353176153867487,-5.281146724261147,15.987854969957903
21,14.328831125367657,1.3425631716778974,10.859124934357858,-4.379139537315734,0.34386560418951456,-2.4933781042866205,0.508187636719335,7.785322947285253,0.5893999953493212,-7.900942859226083,1.240280739885369,9.663143032444543,-5.621384942726089,15.206420943021884
22,13.514143879274492,0.6131299252219409,10.14848972577529,-4.714805181530472,0.0622434008044954,-2.7572642857053697,-0.19487464993424616,7.099275754334355,0.7158047485286674,-7.685843783092659,0.8160204693457177,8.987633791609047,-5.889689066895063,14.412853836662686
23,12.648452436142797,-0.09828284028966909,9.436080439562334,-5.0300435824487515,-0.22052786811547218,-2.9565398433411185,-0.8178911781807104,6.4537010153885985,0.9258277488703216,-7.369915446928487,0.4604466824014635,8.351465172516898,-6.069891951527171,13.636413619194874
24,11.753587269041997,-0.7723678396565703,8.743382935523028,-5.314283874952392,-0.49729788823443755,-3.0804584580126826,-1.3387826055836407,5.869480603976057,1.2292929756911517,-6.9430193950184815,0.1900983674581993,7.777592019253572,-6.147594265494644,12.90446241877968
25,10.851460820136085,-1.3905305573817448,8.090750161972492,-5.556665612143653,-0.7606869923794045,-3.119884498379383,-1.738274905605228,5.364760812217298,1.6331417061830744,-6.397143359585474,0.018530694282998042,7.2863511831945695,-6.110732679388323,12.241687996474141
26,9.963345408363372,-1.9354981420838717,7.496753410316978,-5.746521092459306,-1.0033816745527497,-3.067656923021779,-2.0005530151457602,4.954404571003282,2.1409206397198832,-5.727127932041872,-0.0441772416731487,6.894746151057738,-5.950096993070539,11.669373086479661
27,9.109135774773712,-2.391934276543663,6.9775522624198345,-5.87389568840136,-1.2184470807978676,-2.918919649227729,-2.1138462469321753,4.649529661714027,2.7523936873057684,-4.931269968367982,0.008216317972942385,6.615818303402761,-5.659761850977926,11.20475584843399
28,8.306647812602476,-2.7470217334424225,6.546325249626576,-5.930074087570332,-1.3996424349624552,-2.6714034057237233,-2.070916285837155,4.457159125995549,3.463304800535491,-4.011765109679418,0.17790805666412146,6.458150132091874,-5.237402615640644,10.86052720755076
29,7.571002110787373,-2.990975493137805,6.212800504270687,-5.908079058971946,-1.5417245900830139,-2.325644358801674,-1.8694181455260035,4.380008059118386,4.265311594607352,-2.974964687757594,0.4630077498724758,6.4255390905578516,-4.684473457017947,10.644504299586245
30,6.9141324261572565,-3.117454148761916,5.982918115570488,-5.803111027098745,-1.640723573308435,-1.8851258163174416,-1.5121067646528086,4.416425359723376,5.146099461681007,-1.8314355807556568,0.8576630712649652,6.516868875799366,-4.006237064060597,10.559505909632072
31,6.344446706016155,-3.123844181284106,5.858644941081478,-5.612900707949301,-1.6941725435587238,-1.3563310754061302,-1.0068674517833163,4.5605001014869115,6.089674978732772,-0.5958236468819239,1.3523412190319897,6.726189482557984,-3.2116467909651134,10.603438147397638
32,5.866654083273324,-3.011399075514828,5.837950040846601,-5.337952170924495,-1.7012741290487736,-0.7486979388160315,-0.3665571558238394,4.802331386540146,7.076827153212491,0.7134682372982407,1.9342492822649366,7.043000731038913,-2.3130914733182455,10.769580072005006
33,5.481757652119227,-2.7852227580097058,5.9149364025144155,-4.9816593482992495,-1.6629868085854493,-0.07446854171434539,0.39134516389868146,5.128449544394071,8.0857358006687,2.0747676405671625,2.58786889401824,7.452718759429713,-1.3260202096135427,11.047042513051096
34,5.187201203498686,-2.4540946689853147,6.080113742410009,-4.550285589339259,-1.5820192773825308,0.651568113111745,1.245268616100552,5.5223668424423416,9.092698225782266,3.463758661182273,3.295575865498215,7.937292932307655,-0.26846934799950983,11.421360602311392
35,4.977148874718761,-2.0301419649431605,6.32078919875286,-4.052803782963292,-1.4627270385857527,1.4124392092742717,2.17023963918338,5.965228731973668,10.072939144679744,4.854215386147021,4.038312586432369,8.475932378740696,0.8394833744104496,11.87517229381956
36,4.842869948136972,-1.528372813103636,6.6215482804204315,-3.5006035389226335,-1.3109128923373483,2.1894503680622224,3.138701289388484,6.4365328880428345,11.00146529199937,6.218809803495389,4.79628019167296,9.04589706434837,1.9763119004774288,12.388932023865317
37,4.77319723398429,-0.9660932819232042,6.964797182898533,-2.9070810142682695,-1.1335409560245386,2.9627356951114736,4.121428351464097,6.914882776053057,11.853925201827632,7.529960826655894,5.549618054851571,9.623307851091628,3.119656607270902,12.941611154185875
38,4.755027379943524,-0.36223793250320635,7.331339042334177,-2.287134978421787,-0.9383816799986149,3.711878852348877,5.088500803705361,7.378744154511127,12.607435200015551,8.760690022326804,6.27903941946713,10.183933298074173,4.24693527055321,13.511344973336199
39,4.773835558922185,0.26335091582689585,7.700960810225271,-1.6565981732744193,-0.7336117706492856,4.416582878628186,6.010296062164554,7.807175786990235,13.241334504721893,9.885448071245563,6.966394922139683,10.703918236865707,5.335925776990845,14.075999277086582
40,4.8141845266828405,0.8906592861812073,8.053013790845444,-1.03163499739996,-0.5273966622985405,5.057361539852613,6.858459915355021,8.180509380542004,13.737836903014003,10.880876829756414,7.595142537092099,11.160430495870049,6.3653002948224895,14.613646395885786
41,4.860216696116867,1.5002194286929866,8.366977787613814,-0.4281355878108476,-0.3274838123624159,5.616221481490512,7.606818122984404,8.480958418055009,14.082554912702879,11.726477636988509,8.150713516664075,11.532215934221716,7.315098748488132,15.1029576286409
42,4.896124801483922,2.0737800925947596,8.62300403494161,0.13886589489892467,-0.1408333428073889,6.077303057657746,8.232195704307294,8.693140761337434,14.264883384535054,12.40516619839454,8.620776201247388,11.800064613451857,8.167139293582888,15.52353195616046
43,4.906600205091652,2.5949044419333656,8.802434597944067,0.655723534634019,0.026690729779129747,6.427448847350451,8.715118098924957,8.80450492818819,14.278239980142672,12.90370421660444,8.99540863061832,11.947199102297933,8.905370845646084,15.856186722491806
44,4.87725809412915,3.049475361325542,8.888296109662354,1.1106402861152558,0.17054997344471043,6.656672577294814,9.040375924766431,8.805654185688857,14.120167303234343,13.213004874213823,9.267194210114887,11.959598400078116,9.51617457338245,16.083234602880538
45,4.795036991996216,3.4260921798086086,8.865764362191104,1.494038756841978,0.2876688579341674,6.758506874503695,9.197441496959986,8.690565907396103,13.792305248574522,13.328312838132073,9.431252862780834,11.826268655238556,9.988618188278387,16.188764470196524
46,4.6485673091154505,3.7163472157065245,8.72259387840956,1.7988287971538532,0.3764738746157834,6.730215013048126,9.180729844087772,8.456706143838616,13.30024363583243,13.24926106588245,9.485215623691415,11.539466552416659,10.314662022428566,16.158934334492862
47,4.428500816123452,3.9149753737999387,8.449503679531013,2.0205638617786295,0.43683559082167506,6.572858775161609,8.989699733038227,8.105041224149062,12.653266048674634,12.979808017680906,9.42914661756755,11.094875157836265,10.489312032651632,15.982275054325534
48,4.127790812755122,4.01987555680187,8.040507824707827,2.1574836224561063,0.46992158733951134,6.29122125676007,8.628792361022786,7.639949780820622,11.86399724999761,12.528060932866536,9.265415376346049,10.491727437865103,10.510713004309645,15.649996100258916
49,3.7419124615138664,4.03200897535748,7.493177740354877,2.210445937188578,0.47797425465987187,5.893589803782602,8.107208741503985,7.0690404212659725,10.947969271268144,11.905993910300248,8.998525072029702,9.732871038516299,10.380175697979226,15.156280275797098
50,3.2690144791026414,3.9551860799392804,6.808823234625324,2.1827567703240187,0.46403227088518934,5.3914102681080465,7.43853236402228,6.402882559494049,9.92312487159716,11.129073175414852,8.634906459080007,8.824768840661514,10.102134544781853,14.49855242754531
51,2.709995759907941,3.7957594318371344,5.992580156243882,2.0799114893473756,0.43161769240362613,4.798829054490867,6.640210600066465,5.654660078760203,8.80927972971861,10.215804933094244,8.182689946355774,7.777431239366583,9.684036408420468,13.677705811563523
52,2.0685017677209925,3.5622429293362683,5.053394408160209,1.9092644640747514,0.3844115030688773,4.132143344592208,5.732915019727527,4.839758825529872,7.62756462794408,9.187222492750575,7.651467331029233,6.604276160669131,9.136163511369903,12.698267412635369
53,1.350835574619852,3.264878129439342,4.003894277681372,1.679645554255198,0.3259394204616338,3.4091823661831175,4.739806635232425,3.9752996538061307,6.399866029737418,8.066328849294424,7.052051009609518,5.321911781508044,8.471393776269364,11.568481441315917
54,0.5657791757634717,2.9151669796424944,2.8601460874450173,1.4009421464049598,0.2592877204303704,2.6486444587927083,3.6857371953130893,3.0796297118644,5.148279500570012,6.877509346935243,6.396234158234701,3.949836819012914,7.70490085101454,10.300291492991002
55,-0.27567584250275723,2.5253884924198706,1.6412923100594148,1.083665013012471,0.18686668284476354,1.8694167284413816,2.5964215634129024,2.1717861365962006,3.894586724882364,5.645927047484528,5.696552056614111,2.510055522592531,6.8537961065543875,8.909207414924008
56,-1.1606832370871458,2.108115571741675,0.3690761698655435,0.7385161857589041,0.11023678021485256,1.0899058742754697,1.4976175717909623,1.2709474159759633,2.6597635688571737,4.39691127035708,4.966042417727514,1.026608357729816,5.936716545016109,7.414050307711877
57,-2.0749716429251928,1.6757472155257334,-0.9327387005901316,0.37597648613562157,0.030008783076537295,0.32740885686867893,0.41434715555686713,0.39588725265232644,1.463523440958849,3.155347771764123,4.21800043102009,-0.47497717179999205,4.973364176259756,5.8365748887274895
58,-3.0033342338063544,1.2400701558396339,-2.2390416293851425,0.005928048951741723,-0.05417711993200291,-0.40245070068662747,-0.6298143179818618,-0.435556301638666,0.32389735979382117,1.9450775745282178,3.4657221238848717,-1.9683091067796588,3.9840023674472196,4.200971529643795
59,-3.930162940357873,0.8118626584359522,-3.5241267442010513,-0.3626765640518415,-0.1435952713505563,-1.0861997286105223,-1.613363208380973,-1.2069859398466665,-0.7431492355324606,0.7883112458137452,2.722229136903049,-3.4268189184627027,2.988914475059953,2.533252639200508
60,-4.84001072049284,0.40055214259583277,-4.762505315997739,-0.7220903541524639,-0.24030985717202002,-1.7128918653039698,-2.5173989507413705,-1.903914548224436,-1.724061484818752,-0.29493256439424054,1.9999710788199085,-4.824503043394132,2.0078334690514916,0.8605328024930987
61,-5.718163178651716,0.013937452299649131,-5.929755611799909,-1.0659864772348613,-0.34699380635312166,-2.274373049677952,-3.3260588663616204,-2.514187823849568,-2.6079964228129553,-1.2873511401126232,1.3105081358097128,-6.136700006500406,1.0593592838861523,-0.7897797023589095
62,-6.551198183607468,-0.34201478600600405,-7.0033813025044,-1.389606123336742,-0.46670540605784755,-2.7654310650131206,-4.026855365057281,-3.0283471926443823,-3.3870707177064654,-2.1748259552545304,0.6641836619881037,-7.3408774975193625,0.16038960189659127,-2.3908525501123523
63,-7.32751051590715,-0.663292862585244,-7.963643945211923,-1.6898360183402474,-0.6026374597024114,-3.183826772707573,-4.6109136004363735,-3.439919603531759,-4.0565424084732715,-2.9468130459317807,0.06980123109341678,-8.417397699812582,-0.674404941759161,-3.9173239147244696
64,-8.037778248853751,-0.9478784366949196,-8.794331019809038,-1.9652138227909581,-0.7578535760894229,-3.530207595851593,-5.073105802608989,-3.7456213430011265,-4.614913499801519,-3.59663178995738,-0.4656768787355529,-9.350225910286328,-1.43303000812498,-5.34617943754115
65,-8.675347924032115,-1.1957013888294967,-9.483419305757272,-2.2158615106259814,-0.9350249657923665,-3.807906610016912,-5.4120770782146455,-3.9454641493355385,-5.063940236853673,-4.121629044693071,-0.9373906325063435,-10.127546780395528,-2.1065135887872515,-6.657566133926751
66,-9.236516525510517,-1.4085157114650122,-10.02359481535924,-2.443348985595086,-1.13617946662743,-4.02263403727571,-5.630158021390554,-4.042753808605035,-5.408538793240503,-4.523198872390747,-1.3427810120849817,-10.742253833588588,-2.689126262771152,-7.835498314006291
67,-9.72069025048621,-1.5897047610564452,-10.412595071913024,-2.650493284213129,-1.3624733330110803,-4.182072735941683,-5.733163141666703,-4.043974670237043,-5.656577232773407,-4.806644301658213,-1.6817036631695246,-11.192280935278808,-3.178459033177811,-8.868414475371756
68,-10.130403249368145,-1.7440269306366045,-10.653346214329359,-2.8411020746872584,-1.6139958221269661,-4.295395328827242,-5.730080186888489,-3.958558146857522,-5.8185501962101585,-4.980875921455644,-1.9564358335687262,-11.480748709200272,-3.575348781755471,-9.749550369270237
69,-10.471183811593175,-1.8773141677212077,-10.75387526419018,-3.0196726557170823,-1.8896161646380878,-4.372726546585029,-5.632661478156677,-3.7985387964951616,-5.90713996310949,-5.0579513250465755,-2.171559797614383,-11.615904539623086,-3.8836489777757337,-10.477101413276099
70,-10.751261518240842,-1.9961361382750595,-10.726987286764412,-3.191059210933792,-2.1868816262001185,-4.424578391289101,-5.454932265741529,-3.5781075791138997,-5.936675650330499,-5.0524693018869105,-2.333714357896007,-11.610842788546169,-4.109852153831503,-11.054157772055818
71,-10.981117573610911,-2.1074430307089744,-10.589709445265209,-3.360122658236756,-2.501974098324562,-4.461286917288749,-5.212632894480673,-3.313077836042155,-5.922510793758077,-4.9808435253777885,-2.4512175875808806,-11.483003326038522,-4.262581118685118,-11.488408279276388
72,-11.17289179144751,-2.2182004400312136,-10.362519416074177,-3.531379621214595,-2.8297309767422223,-4.492477995590399,-4.922612730462936,-3.020284690302853,-5.880347082890303,-4.86049131316503,-2.533577016243239,-11.253461145092158,-4.3519771096175255,-11.791624204212836
73,-11.339672104424428,-2.335030328089028,-10.068392281448613,-3.7086690921321517,-3.1637336064364847,-4.526586130595008,-4.602195205572864,-2.716942048735167,-5.825536502547922,-4.708981266552944,-2.5909154003569954,-10.946035635035274,-4.389022647047389,-11.97894896976753
74,-11.494703755023677,-2.463872253450906,-9.731714471032918,-3.8948557545360307,-3.496463053240139,-4.570445999245268,-4.268534571211417,-2.4199827048292537,-5.772394199599156,-4.54318672887109,-2.633348648590122,-10.58626203746091,-4.384842019300031,-12.06803354244383
75,-11.650563363958966,-2.6096784360084944,-9.37712321932435,-4.091586793822186,-3.8195186157086787,-4.628971469909062,-3.9379855337353415,-2.1454066036882695,-5.733550886994625,-4.378489526328616,-2.6703561278047947,-10.20027719512286,-4.350022318430342,-12.078067684830684
76,-11.81834682904015,-2.776154662657463,-9.028335017021217,-4.299114843286695,-4.123889760848349,-4.70493184633129,-3.6255070966596623,-1.9076615023737322,-5.71936951508598,-4.22807237610248,-2.710182984354777,-9.81367614241608,-4.293994474491556,-12.028763253227332
77,-12.006919901904807,-2.965556913316056,-8.707027195978844,-4.516194866337379,-4.4002676716598375,-4.79883036785569,-3.3441219741613466,-1.7190800997392324,-5.737449035426733,-4.102331568391633,-2.7593109545247887,-9.450396379816539,-4.224509071587761,-11.939346989220425
78,-12.22227716981539,-3.1785513557954475,-8.431833253347506,-4.740058423513928,-4.639379384599447,-4.908886065337083,-3.104452653339678,-1.589397617198032,-5.792238354662289,-4.0084353689224415,-2.822029714701058,-9.13168418931946,-4.1472365908831454,-11.827617574868837
79,-12.467049364871702,-3.414143223081925,-8.2175049385118,-4.966465433430921,-4.8323267663807155,-5.031117310748744,-2.9143541651572096,-1.5253723607111696,-5.884783654430032,-3.950047408165792,-2.9001355945980323,-8.875192665123222,-4.065515332567228,-11.709115954094587
80,-12.740190551229984,-3.6696779340366152,-8.074283365830892,-5.189831230527548,-4.9709146290009825,-5.159523721577073,-2.778661737262487,-1.5305287053922934,-6.012630074818844,-3.9272276184901997,-2.992778602810179,-8.694254310101805,-3.980262032539705,-11.59644984476716
81,-13.036866128118813,-3.9409152937831355,-8.007508587939524,-5.403424868521074,-5.047955913939403,-5.28636172890129,-2.699068620402514,-1.6050379355945656,-6.1698939259168455,-3.9365167503520793,-3.096472090505833,-8.597362012572527,-3.8900505504880747,-11.498803924382896
82,-13.348550021912319,-4.222174288359235,-8.017482743979082,-5.599632035179125,-5.057545164401156,-5.402506948982022,-2.674144916453047,-1.7457474348941149,-6.347514382806675,-3.9712044631876022,-3.2052713950041327,-8.587880701013,-3.7913536678256317,-11.42165661859227
83,-13.663325402213179,-4.506541815317207,-8.099586447289312,-5.770271847681286,-4.995293242472825,-5.4978926521489875,-2.6995013562137595,-1.946362052803596,-6.533684125413987,-4.021774216056174,-3.311117947830085,-8.663998112219645,-3.678932365263292,-11.366711972012615
84,-13.966369286725481,-4.786134375444986,-8.244632473236306,-5.906952007479988,-4.858516786202399,-5.562008118284373,-2.768092590465451,-2.197772923309107,-6.714446965788646,-4.076509387011697,-3.404334170917146,-8.818908393896146,-3.5463466551575866,-11.332040857943836
85,-14.240589826736482,-5.052398443103263,-8.439426651484519,-6.001443246550978,-4.6463765645950845,-5.584434569325435,-2.870643981431172,-2.4885193609333753,-6.874438139112538,-4.122234618070122,-3.474243524530872,-9.041209019143334,-3.386553620316143,-11.312411982964068
86,-14.467377272924292,-5.296433559649218,-8.667494700424614,-6.0460528008930785,-4.3599604344416045,-5.555391297363226,-2.9961761432174407,-2.8053596734074007,-6.997730744881715,-4.145155885634882,-3.509880485202157,-9.315481194828848,-3.1925530331938914,-11.299781914521143
87,-14.627425284111533,-5.509321808860889,-8.90992658713819,-6.033977267425898,-4.002308518087179,-5.466261907055366,-3.132594178524317,-3.133917929834426,-7.068740893867827,-4.1317536021805195,-3.5007473712999966,-9.623016691574088,-2.9580388135566613,-11.283904976239597
88,-14.701577653600346,-5.682447722513573,-9.146287258727702,-5.959616680442214,-3.5783797213180417,-5.310070937321399,-3.267304724940865,-3.459367580964393,-7.073136003337773,-4.0696761436813365,-3.4375693154702622,-9.942649508427625,-2.6780148410370193,-11.253018117738481
89,-14.67165681894486,-5.807793978577241,-9.355543999641052,-5.818833753409175,-3.0949597996908107,-5.081884557435146,-3.3878243346820676,-3.7671108650030183,-6.998687335669086,-3.948577659521784,-3.3129965516423208,-10.2516490783836,-2.3493357216484503,-11.194553681668772
90,-14.521235069587842,-5.8782008965395445,-9.516965426825285,-5.60914526116484,-2.5605123696420713,-4.779114865389253,-3.4823474100106537,-4.043415374883391,-6.836010444763787,-3.7608448635854623,-3.1222055408814064,-10.526633070013576,-1.9711371108767757,-11.095835392428329
91,-14.236316812993184,-5.887581696049628,-9.6109543911742,-5.329836779373224,-1.9849758977476522,-4.401714303645624,-3.5402495627673716,-4.275975012433762,-6.579145422330767,-3.5021631246182183,-2.8633572590443883,-10.744462299855003,-1.5451267526969032,-10.944719653946112
92,-13.805909588442212,-5.831090448539741,-9.61978615460462,-4.98199751738091,-1.3795118432060298,-3.9522536888110764,-3.5525105381825357,-4.454370542877279,-6.225941735723906,-3.17188252821815,-2.537881559933011,-10.883087433458785,-1.0757171291722594,-10.730154291918055
93,-13.222471451376503,-5.705244933341751,-9.52823330763201,-4.568478231373626,-0.7562114698203266,-3.43588365096748,-3.5120476252395956,-4.570413956366385,-5.778228599838906,-2.7731594079357174,-2.1505699785849095,-10.922325791723758,-0.5699930298187351,-10.442639100892567
94,-12.48223137642493,-5.508010817971063,-9.324068626033409,-4.093780950641801,-0.1277707418371863,-2.860184641026857,-3.413954882368049,-4.618369747298862,-5.241768937060083,-2.3128669114699663,-1.709474035303872,-10.844554717296738,-0.03752020193831287,-10.074585360683498
95,-11.585386092159366,-5.238855388382552,-8.998445129518345,-3.563893433641217,0.4928562200651501,-2.2349152364693734,-3.2556461761081636,-4.595054192495804,-4.626010468607333,-1.8012867933283672,-1.2256200564790773,-10.635313854038017,0.509988157947199,-9.62058224486453
96,-10.536180842609596,-4.898778523511975,-8.546158393002333,-2.9860838057872936,1.092814077722692,-1.5716726284380642,-3.036902417515453,-4.49982037143641,-3.9436597462765692,-1.2516108616327621,-0.7125634767633595,-10.283811779749605,1.0591229524731876,-9.07758424453204
97,-9.342883354588622,-4.4903268600259425,-7.965799364911568,-2.368672014973085,1.6597019227373109,-0.8834829990164286,-2.759826394006332,-4.334441828534148,-3.2101133741743264,-0.6792926229307319,-0.1858149144519482,-9.7833329616506,1.595319705876731,-8.445034547601011
98,-8.017659949880455,-4.01759454884517,-7.259805959973323,-1.720794116579459,2.1819154201946316,-0.18434250054884313,-2.428711789971535,-4.102911153866716,-2.442785003215344,-0.10129700189651616,0.3378240433107369,-9.13153909503761,2.103456035067137,-7.724935503751159
99,-6.576360029868914,-3.4862099090420866,-6.434418288035007,-1.0521719717084137,2.648963857072891,0.5112691679780906,-2.0498352331301817,-3.8111712327717058,-1.6603671889905365,0.4647019000315261,0.8409767411811304,-8.330654722091019,2.568474174477045,-6.92187027816121
100,-5.038210608282952,-2.903301463965548,-5.499536947511711,-0.37289476076671907,3.051752917144279,1.1888816332794307,-1.6311810495131824,-3.4667966781403945,-0.8820650989265278,1.001128332944325,1.3064246232361072,-7.387522151230918,2.9760006179104144,-6.042971594028177
101,-3.425418293416665,-2.2774311447855107,-4.468479325634813,0.3067882519219226,3.3828273582679746,1.834515008027793,-1.182108615222877,-3.0786414491868506,-0.126835763896563,1.4912786460024035,1.7178299861777129,-6.313508237236599,3.3129410947864706,-5.097826834731461
102,-1.762674795861347,-1.6184795181862057,-3.3576282649291804,0.9766692132608144,3.6365703317133504,2.4351340288557037,-0.7129729840452297,-2.6564667335444625,0.5873371178232928,1.9200316843830563,2.0604265834918074,-5.124248477669506,3.5680344662456958,-4.098306197493865
103,-0.07656531789541993,-0.9374691784163458,-2.1859720245037266,1.6267840336852515,3.809356946449255,2.979061365396822,-0.2347116482849429,-2.2105620312953516,1.2441066913336245,2.2744748447693874,2.321658953097996,-3.8392229841144077,3.732351707475091,-3.0583032679014224
104,1.6051127375540575,-0.2463180849902516,-0.9745433834296973,2.2476192934681394,3.8996593520925167,3.456336646660725,0.2415861252574482,-1.7513726788605881,1.8293426116573286,2.544430501059573,2.4917500587602217,-2.4811727838886983,3.7997254954699233,-1.9933851855159042
105,3.2541017126452894,0.4424759909671328,0.2542231149001286,2.8303217558102807,3.9081000681333244,3.859008477476017,0.7051068284202747,-1.2891481799333755,2.331608578089893,2.7228699032175423,2.564173375487039,-1.0753807292602562,3.767092821985101,-0.920360898709091
106,4.842475291653807,1.1162076581135216,1.477186294611501,3.366902304852831,3.8374499690145996,4.181349022513079,1.1457135173847612,-0.8336262795763529,2.7425229263719473,2.8062019393389086,2.536003188636775,0.3511447510445329,3.6347299125954144,0.1432125580279844
107,6.343430621676703,1.7623711095793198,2.6712097948480555,3.8504218418850753,3.6925672444743607,4.419984135320941,1.554295961095703,-0.39376650077640263,3.0569904997257304,2.794424634661978,2.4081185647143526,1.7705365984859436,3.406359046906807,1.1795584590791799
108,7.732040684235821,2.3690759392645866,3.8138533488431343,4.275146152370021,3.4802741384609313,4.573935071032711,1.9230496068911156,0.022456631136937917,3.2732972578757202,2.6911299530078923,2.185242755962902,3.1549399939390477,3.0891124814521014,2.171215186568164
109,8.985932491889946,2.9254455047656873,4.884012897657409,4.636659899360271,3.2091700368069964,4.644570331585535,2.245670096221065,0.4081958522257715,3.393063681756743,2.5033577759253998,1.8758089429226916,4.477347050246887,2.693347904034754,3.101553490228384
110,10.085866452578593,3.421975409819589,5.862487228812688,4.93193474927077,2.8893824015641214,4.635469455677683,2.5174598674287614,0.7578103660711493,3.421059422857267,2.2413016608073923,1.4916531288128765,5.712365462108639,2.232319123636651,3.9552582054051135
111,11.016201948806188,3.850834058584996,6.732457413019606,5.159350945448958,2.5322598557070095,4.552205206330159,2.7353529501867646,1.0668893085810276,3.3648888696802586,1.9178756749302308,1.047544676578633,6.836901319985692,1.72171273387207,4.718760571242944
112,11.765241581103973,4.206091128459391,7.479872101275283,5.318674497602158,2.1500136467350943,4.402055586330173,2.8978706959905707,1.332231127127606,3.2345641514746886,1.5481579553553004,0.56057413449459,7.830744298389304,1.1790667177025256,5.380609110162319
113,12.32545188763661,4.48386391060167,8.093737089627288,5.4109940690211875,1.755315624287606,4.1936613217001835,3.0050241161604676,1.5517926601702197,3.0419881589533935,1.1487331786528898,0.049426340792709286,8.677049532884766,0.623092197261183,5.931768729965113
114,12.693562811514594,4.682376741619586,8.56631218175112,5.43862331827792,1.360863855127491,3.9366476466942726,3.0581786426750015,1.7246212103156817,2.800374883705538,0.7369625448969135,-0.4664263106627708,9.362715352321386,0.07292540418863346,6.365841211685967
115,12.870552016529112,4.80193488984637,8.89322193325812,5.404975875814958,0.9789308290718602,3.6412309892082844,3.059895584288169,1.850779756536804,2.523636423089409,0.3302146258424497,-0.9675711512942192,9.878659287212985,-0.45265794428560185,6.679204858190197
116,12.861522791782498,4.844820082880656,9.0734884326777,5.314420948300203,0.6209127374169784,3.3178307394159536,3.013761931184548,1.931270743210253,2.2257650377685727,-0.054907502988342086,-1.4355024403010286,10.219995592269274,-0.9360307809849979,6.871074666630634
117,12.675485359958897,4.815119316244585,9.10949352356681,5.172127581735172,0.2969007444697041,2.976703918174616,2.92421705997541,1.96795979354546,1.9202367761184103,-0.4033069794705967,-1.8534286900543857,10.386116025874582,-1.361469082436166,6.943485966365148
118,12.325050965363937,4.7185009342272295,9.006875091293692,4.9839046907658,0.015296356262245518,2.6276175310744248,2.7963819945116195,1.9634987768327754,1.6194627634043515,-0.7020653989479966,-2.2070016143744082,10.380672939515575,-1.715835465705576,6.901204565716727
119,11.826046332042576,4.561951844771336,8.774357770276396,4.756041804648826,-0.21750725592868897,2.279570407143289,2.6358943759785403,1.9212473894477111,1.3343148582358992,-0.9410102058685952,-2.4849298152574377,10.211460836569405,-1.9891547616129448,6.75156565123602
120,11.197053732635432,4.35348770315211,8.423513908036824,4.495152567595416,-0.3973581668640318,1.940572971264027,2.4487498961153324,1.8451920262233743,1.0737511971528515,-1.1131434132604743,-2.6794440385949074,9.890190251516012,-2.1750466663394388,6.5042423861832335
121,10.458880919848626,4.101845826098676,7.968448092460964,4.2080208794353124,-0.5224768050703402,1.6174893822406724,2.241148869503746,1.7398593115071885,0.8445620968573522,-1.2149042834610575,-2.7865879079451803,9.43214734533415,-2.2709865948498673,6.170944661361721
122,9.633967319447576,3.8161704309683815,7.425399978274805,3.9014494232246726,-0.5934740786920346,1.31594220333194,2.0193458328380705,1.6102199912487885,0.6512479756280021,-1.246248177684028,-2.8063175369501963,8.855735227691413,-2.2783749911294233,5.765050497521779
123,8.745737994052375,3.50570168231507,6.812265584917623,3.5821119427538837,-0.6132510710756763,1.040275700936575,1.7895009928539947,1.461578304040822,0.49602978016854504,-1.2105351794710162,-2.742403543366571,8.181898692698848,-2.202406223368335,5.301177456391388
124,7.817923100189769,3.1794819716189022,6.148044953503107,3.256412658938497,-0.5867819507335474,0.7935701368749777,1.5575341396142202,1.2994430634984993,0.3789807261735503,-1.114234564022607,-2.602139105115806,7.433441678064623,-2.051739691426545,4.7947074473602935
125,6.87386591713025,2.846092629247385,5.452232052727451,2.930357428658774,-0.5207901642667122,0.5776965078056557,1.3289832352810054,1.1293792924829609,0.2982583260189624,-0.9664638683361962,-2.395868122492638,6.634255218037423,-1.837987240108412,4.261283431764584
126,5.9358457808895295,2.5134314242835387,4.744169819999585,2.60944121798362,-0.423336345353452,0.3934001789601445,1.1088711003707512,0.956842885571353,0.25041004698596425,-0.7783927138707027,-2.136358235952777,5.808482357157928,-1.5750422293401707,3.7162994742168625
127,5.024442919914559,2.1885370091221694,4.042398531575071,2.298555449194982,-0.3033429012075474,0.24040360032669425,0.9015846716542006,0.7870047858741512,0.23072570490025082,-0.5625500333302703,-1.8380538020680481,4.979654872919968,-1.2782868007214976,3.1744061710022877
