,AF3,F7,F3,FC5,T7,P7,O1,O2,P8,T8,FC6,F4,F8,AF4
0,-7.085505528859348,-4.739271725816345,0.44700399788301104,0.1675035132267916,-2.4464717089318997,-0.3670127254006945,-1.1698177903324856,-1.9244054893836202,-2.065797573991368,-4.074459270781974,-1.1241819504396569,-1.665163174348557,-1.4180262329004683,-3.614410338863743
1,-7.524565470133207,-5.94700938523939,0.30693383757738424,-2.345157186444503,-3.000294846386367,-0.4231777918562138,-1.2222774465501711,-2.560731931420221,-1.9895985781935739,-3.941075796225961,-2.263200407840546,-3.0772043653203336,-2.4411240716388596,-5.5611544702684865
2,-7.980326208539277,-7.154844512270829,0.17016712689521743,-4.823957601791163,-3.5720451774748887,-0.4867335114012412,-1.2826769785445904,-3.194162351639206,-1.9291090718134682,-3.833539611301831,-3.4088065279865662,-4.484655992602352,-3.484097950018672,-7.4963428025967245
3,-8.454662560623433,-8.34785551285518,0.038588419514053174,-7.233396337659254,-4.161446245563018,-0.5601026683146527,-1.3490506283005883,-3.8154284204116924,-1.8891536494308367,-3.75680989489485,-4.55116183782465,-5.869229046580081,-4.538560779372572,-9.389825746869473
4,-8.94940858622186,-9.5113896156193,-0.08613515108472748,-9.539966207730028,-4.767266464584266,-0.6452755136270563,-1.4196315848906773,-4.416244069828394,-1.8745764794743824,-3.7154118792299835,-5.680963237917395,-7.213674212121495,-5.595943933464802,-11.213118900575715
5,-9.466380140297527,-10.631362243910576,-0.20260900882281288,-11.712971759886662,-5.387197845064822,-0.74367270637652,-1.4930210623774731,-4.989677569173628,-1.8902495756871218,-3.7134536649397636,-6.789771949657609,-8.502304343117498,-6.647745666093325,-12.940290359928005
6,-10.007293552883503,-11.694477730092048,-0.30975602037951633,-13.72518549963717,-6.017747615905862,-0.8560203410566798,-1.5682826782754653,-5.530385628080196,-1.940996933169092,-3.7545688983698713,-7.870209007558794,-9.72135116005754,-7.685692458095438,-14.548648494503258
7,-10.573580321252877,-12.688370134089647,-0.40684811152170103,-15.553324876200687,-6.654152331957769,-0.9822448852997815,-1.6449547236761766,-6.034692412356182,-2.0314290250478155,-3.841781206330294,-8.916006853359772,-10.859140141554727,-8.701804985360399,-16.019202522405106
8,-11.16611481819691,-13.601674515200829,-0.4935222170270168,-17.178350250717493,-7.290327496838892,-1.1213963917000422,-1.7229851985090527,-6.500513667448123,-2.165694947991827,-3.977299178678839,-9.921925924366755,-11.906091199438588,-9.688375843389169,-17.336892054339117
9,-11.784884444073207,-14.424046148291627,-0.5697793027153761,-18.585597967380956,-7.918866265990092,-1.271607292279402,-1.8026038448607313,-6.927140846171952,-2.347169633673842,-4.162260641879583,-10.8835598176609,-12.854571085101604,-10.637877977390762,-18.490601286619928
10,-12.428639123866093,-15.146148655911649,-0.6359664061277748,-19.76477171890844,-8.531098864940683,-1.4300919939659644,-1.884150693431674,-7.314911454802371,-2.5781007761323624,-4.396452139074913,-11.797062647711755,-13.698635571117675,-11.542830681178426,-19.472987965290613
11,-13.094560519111926,-15.759633057653083,-0.6927426600866585,-20.70982031224747,-9.11722092535561,-1.5931898237949038,-1.9678829656311623,-7.66480085667451,-2.859245695444313,-4.678034869133077,-12.658839040281794,-14.433707172058718,-12.395655490505233,-20.28016790559462
12,-13.777990886984952,-16.25712846912434,-0.7410311508278133,-21.4187312090073,-9.666494612620161,-1.7564506783008118,-2.0537828055157434,-7.977978237320755,-3.189532929605678,-5.003311751865533,-13.465241075660147,-15.056238548314388,-13.188557389741213,-20.91130322086947
13,-14.472256265647834,-16.632261012403372,-0.7819593726516487,-21.89326704507692,-10.16752153964862,-1.9147594786421145,-2.14138726646232,-8.255374455830655,-3.565786242467414,-5.366570680329927,-14.21231613401769,-15.563411347090636,-13.913465857842068,-21.368145264074442
14,-15.16860844551681,-16.879710415079114,-0.8167918985859852,-22.138667210391745,-10.608581516488293,-2.0624933479267495,-2.2296585454841122,-8.497309624706,-3.9825482226064044,-5.760035068615075,-14.895643619933152,-15.952912926871193,-14.562064104258182,-21.654580116141958
15,-15.85629692298387,-16.995305146680394,-0.8468593615488612,-22.163329545899025,-10.978026550211883,-2.1937049643510087,-2.3169066692966265,-8.703220990523906,-4.43203466266467,-6.173943633180745,-15.510286717034939,-16.222818910649583,-15.12592355499479,-21.776215277059567
16,-16.52276871247329,-16.97614880577786,-0.8734877082364103,-21.97847986035605,-11.264715084731847,-2.3023261801481945,-2.4007701261277705,-8.871517108196283,-4.9042385963504875,-6.596767485864884,-16.05086909327203,-16.3715904670659,-15.59674570694281,-21.740032871729113
17,-17.153982640503642,-16.8207642480707,-0.897931114719252,-21.597831047424503,-11.458467221810407,-2.382386535649862,-2.4782541843473886,-8.999566099829625,-5.387186200430513,-7.015556649896713,-16.511768914785367,-16.398176267914984,-15.966697518388143,-21.5541198941163
18,-17.734816516136597,-16.529238240490994,-0.9213113125731215,-21.037230338091412,-11.550518319283807,-2.4282410368621807,-2.5458226962050015,-9.083809115555743,-5.867330182757192,-7.416393880052472,-16.887407433706997,-16.302194686393566,-16.228812993707987,-21.227472533719844
19,-18.249540983784232,-16.10334856099201,-0.9445655814160414,-20.314292766663378,-11.533946804761976,-2.4348004309752955,-2.5995366691647934,-9.119978427543252,-6.330054022829041,-7.784924397739336,-17.172599739825802,-16.084164232320184,-16.377425379306366,-20.769861815564685
20,-18.68233317264347,-15.546657453933518,-0.968405308461718,-19.448020458653172,-11.404052348817615,-2.397755387523032,-2.6352310854755063,-9.103393564168698,-6.760254063108936,-8.106927000612988,-17.36293194618182,-15.745748969335454,-16.408592197384284,-20.191742846337366
21,-19.017805710367913,-14.864559639661872,-0.9932867549016452,-18.458409969079884,-11.158662374457947,-2.3137839751759794,-2.648719980315532,-9.02930741444292,-7.142964772140661,-8.36889384992404,-17.45513105493202,-15.289988677661325,-16.320477967307365,-19.504189323038325
22,-19.241530553261267,-14.064278593376406,-1.019395466372519,-17.36605301646195,-10.798348254504967,-2.180730590521814,-2.636018557028373,-8.893275572624503,-7.463993306165529,-8.558590434399386,-17.44739874929414,-14.721488777831782,-16.113664768926785,-18.71883684069636
23,-19.340540449527207,-13.154810044780556,-1.0466454548271094,-16.191738964060143,-10.326537399412343,-1.997744855755165,-2.593570038541077,-8.691524604236179,-7.71053104414705,-8.665571019866592,-17.339686029424083,-14.046551104006983,-15.791366834505633,-17.847821235329988
24,-19.303792486272386,-12.146815105544048,-1.0746936307795933,-14.956069411795431,-9.749513066535268,-1.765370834325994,-2.518463890069218,-8.421297209675785,-7.871711388264832,-8.681627111599017,-17.133890731661484,-13.273232645900222,-15.359531152899914,-16.90370092218864
25,-19.12257839300142,-11.052466663293222,-1.1029689716470812,-13.679095507038644,-9.076299351365602,-1.4855795163137748,-2.4086311340751636,-8.081154341222243,-7.93908533766789,-8.601148030768654,-16.83396477440714,-12.411325095243031,-14.826811968734033,-15.899355033423284
26,-18.790866483175602,-9.885252584105082,-1.1307148515139347,-12.379987061089935,-8.318434225223733,-1.1617405735156514,-2.263002423907479,-7.6712168951519715,-7.906990328758402,-8.421375442124855,-16.445923077657987,-11.472253579911397,-14.204413772916155,-14.84785247399087
27,-18.305561237577212,-8.659738937979341,-1.1570421123064771,-11.076740041674542,-7.489638733516265,-0.7985330257464316,-2.0816162674641436,-7.193333074932792,-7.772794009608725,-8.142538148531209,-15.977751251851705,-10.468898038478251,-13.505804602030864,-13.76229050768565
28,-17.66666839645311,-7.391296311704982,-1.1809899041345833,-9.785926199804665,-6.605395498485721,-0.40179857486876225,-1.8656685578290912,-6.651161424671576,-7.537001834010194,-7.767858680885273,-15.439213360957824,-9.415344228558347,-12.74630801859564,-12.65560413500799
29,-16.877355894227385,-6.095792493277983,-1.2015909830330413,-8.522485703414391,-5.682454314850369,0.021654742821036303,-1.617499644072588,-6.050163128697321,-7.20322405723929,-7.303428368344793,-14.84156406945289,-8.326572933482902,-11.942587640921273,-11.540348930558714
30,-15.943904843482821,-4.789255987251204,-1.2179379069600114,-7.299561185829908,-4.738286705786805,0.4642879043587624,-1.3405204959292158,-5.39750054381165,-6.77800372729535,-6.75795339470463,-14.197172619458591,-7.2180968814219835,-11.112043605552559,-10.428461464987308
31,-14.875550862571261,-3.487517474077597,-1.2292463529678415,-6.128370736873439,-3.7905144020795527,0.9180923254600833,-1.0390844725061346,-4.70184307240537,-6.2705137790526715,-6.142381835078001,-13.519071106116892,-6.10555708702546,-10.272146959306912,-9.331004605945283
32,-13.684223714632148,-2.2058401499930085,-1.2349116450938724,-5.018118727653134,-2.8563381983099445,1.3748625051014405,-0.7183156495915896,-3.973087318734725,-5.692139044713606,-5.469430220931852,-12.820446540423179,-5.004293841678831,-9.439745074077244,-8.25790957887646
33,-12.384200472540531,-0.9585537640257183,-1.23455466903473,-3.9759460044056634,-1.9519932817426005,1.8264635228776869,-0.3839082617708197,-3.2220058438341095,-5.0559669521042965,-4.753035772793153,-12.11410331942854,-3.928910597854462,-8.630376649525095,-7.21773048956795
34,-10.991692323083415,0.24129015632076076,-1.228053796552708,-3.006923114317607,-1.0922552021097298,2.2650771181779095,-0.04191365923390192,-2.4598462239264784,-4.3762169911913595,-4.007765306149501,-11.411927627068897,-2.8928499685851063,-7.85763682669762,-6.217428349273096
35,-9.524387273896705,1.3822236228582898,-1.2155603418681031,-2.114090882736143,-0.2900173571872881,2.6834130946074692,0.3014696499948441,-1.697907150587549,-3.6676421162961925,-3.2482134593444223,-10.724386725820754,-1.908000155309827,-7.132630941865127,-5.262200634257344
36,-8.000971630560931,2.4546106565934704,-1.1974963536183172,-1.298552155679355,0.44404373955409077,3.0748786119782054,0.6400905336915432,-0.9471191931398273,-2.9449347308543725,-2.488421892845951,-10.060094330159318,-0.9843485892616067,-6.46355038322669,-4.355370259744974
37,-6.440653344012459,3.4508234795785935,-1.1745349087378818,-0.5596173935371997,1.1017045776658112,3.43370447193828,0.9680161345312112,-0.21765473749643613,-2.222166667838581,-1.7413484002937891,-9.42546933609639,-0.1296984584058999,-5.855397019308504,-3.498345430043306
38,-4.862709579166425,4.365334347733154,-1.147564206598639,0.10499521384539184,1.6773268498466463,3.755032211760492,1.279674870461236,0.4814138091130055,-1.5122879442633115,-1.018410859731643,-8.8245097653882,0.6505370134036392,-5.309874136373552,-2.6906589097485343
39,-3.2860772971843453,5.194716693470331,-1.1176376184428787,0.6989082308223896,2.167885819007652,4.034967802743268,1.5699713402508342,1.1423947757346486,-0.8267037840826105,-0.32912535997861664,-8.258696783888738,1.3534494436901245,-4.825451576956326,-1.9300908723783057
40,-1.728998813894942,5.937557320718544,-1.085912562699888,1.2267908086512405,2.5729002016001847,4.270607931799224,1.8343773128791327,1.759190552513143,-0.17494391576470306,0.3191490950608897,-7.727035331401594,1.978650070564978,-4.397601511705688,-1.2128734769781442
41,-0.2087262871260244,6.594289703088124,-1.0535817053645056,1.6940363000631335,2.894273459318422,4.460044054522694,2.0690062402174343,2.327442113655435,0.43556662751313074,0.9213535358286882,-7.226229553952292,2.528180364619833,-4.019191020813492,-0.5339693407575397
42,1.2587173124016398,7.166964284479281,-1.021800505504572,2.1064294152078897,3.1360592503091165,4.602347537501082,2.2706790590633386,2.844605249892142,0.9996291931905872,1.4747585048243936,-6.750984195034827,3.006318984610939,-3.681009947930435,0.11258793433356028
43,2.658726809198722,7.658973856166965,-0.9916155384542028,2.469820888297159,3.3041647349123733,4.6975365857855085,2.4369863131294633,3.309957577792221,1.5142818036382057,1.9788817101932692,-6.294417482210585,3.419288811092883,-3.372406821181331,0.733305001852441
44,3.97826044014492,8.07475155676464,-0.963898274801488,2.7898258810078724,3.406005379528079,4.7465237064793095,2.566347303879693,3.724532853094567,1.9786970455270068,2.4352981333264894,-5.848565806723246,3.77487104738135,-3.082000374945735,1.334807299636471
45,5.205949947484686,8.419457952965491,-0.9392889497720954,3.0715600142432065,3.450125115007709,4.751042209959997,2.65806249126535,4.090978413644915,2.3939718820769214,2.8473511154031317,-5.404954606885878,4.081938380416939,-2.7984284447021373,1.923403353233814
46,6.332181933632038,8.698673457289573,-0.9181547680145352,3.319424382501791,3.445796642081043,4.713551210417822,2.7123514293068407,4.413334368137391,2.762821918248172,3.2197795222439023,-4.955203410758047,4.349926055204454,-2.511090430618877,2.504657415102111
47,7.349156150053818,8.91811253246974,-0.9005658983081944,3.536947869920213,3.4026177597148295,4.637119779179302,2.7303658407264995,4.696739239755475,3.0892022720692665,3.5582841160220418,-4.491627441577558,4.58826702425195,-2.2108361043815155,3.082996463856397
48,8.250924774477628,9.083374872314629,-0.8862913781429579,3.7266912960251766,3.3301200312429082,4.5252921209610095,2.7141669915596585,4.947074501634872,3.3778854847395197,3.869063370258637,-4.007795571364233,4.80582321900261,-1.8905543973312784,3.6613783156017505
49,9.033414275636277,9.199744682252017,-0.8748152246991153,3.8902135169673975,3.237405548970055,4.381937148921297,2.6666587954909344,5.170567489544104,3.634031091797408,4.158352561212955,-3.499006214341848,5.0103477246200265,-1.5456220833925998,4.241044328594086
50,9.694427979336503,9.27204263815381,-0.8653712247289002,4.028095044178251,3.1328258293206273,4.211087392724245,2.5914724054001494,5.3733768521820116,3.8627803424816256,4.431998770515961,-2.9626494589259407,5.208011132004785,-1.1741837912829338,4.821373055441338
51,10.233623380699035,9.3045278167628,-0.8569935640478016,4.140010532585224,3.0237137168032846,4.016773184339222,2.492803244636783,5.561186637281851,4.068903811824288,4.695098799806027,-2.3984345663159257,5.403019868302672,-0.777250196534431,5.399841522942162
52,10.652454947987907,9.300841114866817,-0.8485796804382503,4.224838322185558,2.916174919624785,3.8028585634730474,2.3752067284150855,5.738834579291225,4.256521002397211,4.951718341255478,-1.8084747359032642,5.597346504019409,-0.3586179382837651,5.972090652298747
53,10.954072478792682,9.263979214165852,-0.8389611725090146,4.280794144495369,2.814941755031827,3.5728859987635917,2.2433640459353152,5.90999709017896,4.428900989726166,5.204700827935055,-1.1972329301868807,5.790583855926734,0.0753705734154801,6.5320830164962995
54,11.143168247520086,9.196289437079107,-0.8269781174095195,4.305577938854788,2.7232892457134237,3.3299381133182018,2.101834015156785,6.076947924300849,4.588343020724148,5.455564799120286,-0.5713414845088047,5.979927562828443,0.5161993440176555,7.072336437728802
55,11.225772926523446,9.099479743517753,-0.8115518599179593,4.296526845139709,2.643013103068041,3.076525795804308,1.954810752870249,6.240400902233583,4.736127603949306,5.704480762516783,0.0606863435846561,6.160286414771013,0.9536501893157999,7.584216090714125
56,11.209008756795184,8.974642890698107,-0.7917514380021896,4.2507717869435195,2.57446924170356,2.8145128884046655,1.8059091618141125,6.399441871662606,4.8725243860855185,5.950313838053381,0.6888319824929644,6.324515876524477,1.3763399330729722,8.058269465128657
57,11.100816346342029,8.822298074871314,-0.7668494542298048,4.165397811789943,2.5166738746434643,2.5450873293907432,1.658000081513874,6.551552560421331,4.996844171864004,6.190717898428284,1.302012098126909,6.463766768921769,1.772291688885933,8.48459092738758
58,10.909676939210128,8.642456319579228,-0.7363643801931391,4.037609233550434,2.467461408429704,2.268786250560846,1.5131132975306383,6.692727848279687,5.107527355431884,6.422269949535154,1.8885613918373771,6.567936618255982,2.12951143765758,8.853204465035951
59,10.6443539733934,8.434716718250668,-0.7000877465323385,3.864900265082861,2.423694704255,1.9855778898426562,1.37241918123539,6.817685478079431,5.202266298561476,6.640637837884789,2.436735324057782,6.6262054971539595,2.4365448568151775,9.154454070084764
60,10.31367601250138,8.19839904212898,-0.6580960578518116,3.6452307053445065,2.3815192731816976,1.6949971926072627,1.2362897731501146,6.920161765504972,5.278161675742082,6.840777473302869,2.935211670080401,6.627632304314556,2.682993537231912,9.37939130306878
61,9.926378514838797,7.932714785644059,-0.6107483496534674,3.377204688382475,2.3366499029342367,1.3963259025952048,1.104430177496314,6.993279658999516,5.331911813476965,7.017156779946306,3.3735719451151516,6.561782947421883,2.859974074259181,9.520149494803384
62,9.491015878026593,7.636974609240805,-0.5586710244280847,3.060249030745591,2.284675547191647,1.0888027445839217,0.9760638755530194,7.029969301135535,5.36003120634205,7.164003552606605,3.7427470777208516,6.419359940939645,2.96050810517654,9.57029442549733
63,9.015948897494754,7.31082616562957,-0.5027319244168578,2.6947867289478284,2.221366604831392,0.7718455907412235,0.8501520077154245,7.023417614658067,5.359091524056007,7.275574211400176,4.0354159318581875,6.192803535312204,2.9798361068799073,9.525142236664403
64,8.509406539246937,6.954512634757196,-0.4440055010908025,2.282400618491551,2.1429682741806406,0.44526565128384443,0.725625592930029,6.967521796702839,5.325975967453474,7.34643966363108,4.246348930127031,5.876836730995058,2.9156520412964784,9.382036268897314
65,7.979614580413868,6.56913881708119,-0.38373063974225197,1.8259816192482365,2.046464643035238,0.10945397873967382,0.6016093366672911,6.85732074921224,5.258135276678743,7.371782144719397,4.372690674483657,5.46892926578088,2.768258909873985,9.140574958858325
66,7.434976788181099,6.156928104947968,-0.32326255287250505,1.3298544900954357,1.9298004459852207,-0.23447693506521602,0.4776159663531973,6.689378081634654,5.153830750671113,7.347692816067495,4.4141747467484365,4.9696580645996695,2.540646284769362,8.802782595891397
67,6.884286619577211,5.721449901648242,-0.2640203171453227,0.7998708714353657,1.7920501314525898,-0.5846091517690591,0.3536920323996033,6.462090924091258,5.012346657240535,7.271454752432508,4.373261341424419,4.382943396469704,2.238489473107479,8.373213357824968
68,6.336939523330864,5.267793410927999,-0.20743195966114505,0.24345493095105453,1.6335258546382645,-0.9381997239350361,0.2305004394159344,6.175901133772947,4.834152352851921,7.141790978532989,4.255184949596048,3.716141482480427,1.870066219719891,7.858976408832506
69,5.803109419094632,4.802661182996062,-0.154879337412079,-0.33041720633027416,1.4558169456965577,-1.2917264326574895,0.10933112442049721,5.833390258964744,4.620994705927385,6.959053943974538,4.0678964156179624,2.9799766483367724,1.446082106415017,7.269666667315577
70,5.293849955380039,4.334355887447819,-0.10764530221285037,-0.9113245540958463,1.261754388294128,-1.6409943958796334,-0.0079615729708414,5.439247312731057,4.375905299699041,6.72533292004188,3.8218835852238375,2.1883009329776293,0.9793930308258267,6.61718454854926
71,4.8210838030645995,3.872638202046269,-0.06686564767240931,-1.4876120582210812,1.055296546097475,-1.9812948448147738,-0.11908883840998352,5.000108680380851,4.103114544077936,6.444460365041109,3.529859590177236,1.3576777599167782,0.4846157142488598,5.915431693241226
72,4.397452640036363,3.428443570355239,-0.03348792103765308,-2.046713873237417,0.8413376938278558,-2.307604060075681,-0.2215114890529692,4.524280745785002,3.8078748943311598,6.12190693482343,3.2063176705150482,0.5067987779508133,-0.02237382235672678,5.179879640982831
73,4.03601560832763,3.0134601056619275,-0.00823839410064413,-2.575585631364384,0.625448346092382,-2.6148081941389947,-0.31265947020832924,4.021365677764298,3.496205522947731,5.764565604009738,2.866963872532651,-0.34424281320340877,-0.5250410903894885,4.427022329567126
74,3.7498019683666195,2.6395862095294964,0.008402327551483199,-3.0612286113305003,0.4135643442309919,-2.897938732215016,-0.39016488665656013,3.5018172705640627,3.174578643219037,5.380436007018571,2.528050862423299,-1.174786145671246,-1.0068681797488135,3.673737091543282
75,3.551241380999675,2.318301227563559,0.016215028812280426,-3.49127598831137,0.21164819936811397,-3.152403709639918,-0.45208660670595924,2.9764562286983853,2.8495718648916912,4.978229044753991,2.2056458094281597,-1.9644976418092035,-1.452068301497785,2.9365897891922152
76,3.451510566551057,2.059993644375662,0.015248940266283222,-3.854600903950023,0.02534973168021218,-3.374201079335488,-0.49710645706383644,2.455974136547567,2.527512001860096,4.566918710306136,1.9148728467999727,-2.6942746131766535,-1.8462980492697574,2.2311276466668173
77,3.459846250901861,1.87329795050855,0.0058200024011127605,-4.141899418242303,-0.14030699648166306,-3.560102137923323,-0.5246797530319883,1.950454777023628,2.214135551878004,4.155273363856568,1.669176241879765,-3.3471020100399573,-2.177320719326162,1.5712084267677935
78,3.58287960916465,1.764492608799856,-0.011499765380830258,-4.3462002155452755,-0.2811866697825434,-3.707794302221738,-0.5351258931168408,1.4689413491521992,1.914290739331972,3.7514021452677113,1.479653212520132,-3.908807333084047,-2.4355723978388384,0.9684157843688227
79,3.824046014091132,1.7370070559790058,-0.035901665079353814,-4.463258098022088,-0.3942373671412354,-3.815973987346722,-0.5296487035280879,1.0190769219884694,1.631704549069793,3.3623526040998812,1.3545036654978955,-4.368663772775277,-2.614585895394993,0.4316063053212776
80,4.183116150037916,1.7910756953217868,-0.06636795046747312,-4.491799202952828,-0.4776057316627912,-3.8843825840196216,-0.5102820472418765,0.606840793449878,1.368833651080255,2.9937916200201737,1.2986368867675795,-4.719802085961113,-2.711237064867598,-0.03337678707413013
81,4.655881494511429,1.9235623091364036,-0.10170658473131103,-4.433600888115073,-0.5306698753829104,-3.9137823886403225,-0.47976387171408286,0.23639458645410097,1.126809776136108,2.649792867032705,1.313462438076962,-4.959407430808782,-2.725793604022041,-0.423804486274511
82,5.234010859909976,2.1279613100133234,-0.14059142308758557,-4.293405846961578,-0.5539961140098125,-3.9058748952881035,-0.4413502167940374,-0.08995940337491211,0.9054794189720541,2.332741468680302,1.3968757122501436,-5.088696568343861,-2.66176648300242,-0.7399783942618875
83,5.905079036106265,2.3945665067443858,-0.18160571712693116,-4.0786848840970915,-0.549233434970355,-3.863169816851251,-0.39858795743198727,-0.37171583907880223,0.7035278447652327,2.0433528974888597,1.5434311052173306,-5.112689728034713,-2.5255844407980734,-0.9849825143502198
84,6.652757705249717,2.710787311433448,-0.22328678623541534,-3.7992729774242346,-0.5189643432468739,-3.7888176007502197,-0.35506938525277687,-0.6100157277264849,0.518671070694964,1.7807921341868587,1.7446815648503038,-5.03980583837795,-2.3261272709299443,-1.1643034093640543
85,7.457153863005805,3.0615874550720914,-0.26416986621170985,-3.4669081363677066,-0.4665314680650002,-3.68642003530616,-0.3141922130133352,-0.8074270411217118,0.3478972653166202,1.5428725108358587,1.989654277427001,-4.881318055584986,-2.074161203935924,-1.2853571585938341
86,8.295279825229443,3.430020387025385,-0.3028293167240713,-3.094703660366255,-0.3958566741302962,-3.5598333119704093,-0.27894586539175764,-0.9676772829992252,0.18773911142071048,1.3263109190853133,2.265427601485517,-4.650710034531081,-1.7817207564102402,-1.3569613783532328
87,9.141639061639694,3.797836548979026,-0.3379156175964896,-2.696583292942167,-0.31126467648793676,-3.4129766788633398,-0.25174043392102524,-1.0953589437007436,0.03455929483927484,1.1270160169704306,2.5577729428677007,-4.362973936957124,-1.4614781235016694,-1.3887873532409847
88,9.968912894357183,4.146139908961026,-0.36818710071237143,-2.286705793283334,-0.21731744725340535,-3.2496582160308205,-0.2342892156194065,-1.1956278485291716,-0.11516794783255141,0.9403886537895817,2.851827278861874,-4.0338886029662575,-1.1261344820576198,-1.39082177959809
89,10.748734597292579,4.456074078079568,-0.39253598994885947,-1.878900680763706,-0.11866020964488133,-3.0734273429390595,-0.22754936969745992,-1.2739111726751828,-0.2645947794598305,0.7616189475037168,3.132767357412727,-3.6793100502119613,-0.7878583024279427,-1.372859923955102
90,11.452538340372286,4.70952056861584,-0.4100086331459749,-1.4861317242780276,-0.019875974939160754,-2.8874612801854354,-0.23171836159005227,-1.3356365501699743,-0.4162703096337786,0.5859705950188003,3.3864630289531994,-3.3144982036967683,-0.45778636337849327,-1.3440440050066447
91,12.052468036325651,4.889791317006512,-0.41981974703367936,-1.1200015374523868,0.07465545762981078,-2.694489841419463,-0.24627800659293067,-1.3859884548853454,-0.5719540831885747,0.4090471575264322,3.6000914589714412,-2.9534972715395327,-0.14559671675203892,-1.3124554183572652
92,12.52232401158073,4.982293890737817,-0.4213605201838768,-0.7903106325165775,0.1608963043641474,-2.4967599650457406,-0.27007486752175613,-1.4296951568969731,-0.7324806577564816,0.2270354460545452,3.762694320042968,-2.608585295678067,0.14083928644714463,-1.284768725505923
93,12.838515526368186,4.9751427221366455,-0.41420091848377816,-0.5046861923206365,0.23528627598654625,-2.296038702545695,-0.30142617517947495,-1.4708494281663032,-0.8976819877244296,0.03691852485915847,3.865657489741628,-2.2898105020963584,0.39571793801466537,-1.265977766502352
94,12.98097851163973,4.859686388251092,-0.39808736477715967,-0.2682971462262209,0.2948703551643033,-2.0936510548909806,-0.338243151351754,-1.5127675304811863,-1.066373139916878,-0.16335231735832106,3.903090202432241,-2.004634690991369,0.6154678075342147,-1.2592067064188641
95,12.934013202042706,4.630921334377505,-0.3729376770018687,-0.08367139254560325,0.3374123147951837,-1.8905469285355174,-0.3781663280686583,-1.5578923234399626,-1.2364051042422939,-0.37473891665479775,3.8720806622610366,-1.7577037037064096,0.7988089079255277,-1.2656188805331638
96,12.686995965925934,4.287766361667811,-0.33883543954218903,0.049371786398171115,0.3614861338570637,-1.6873894124667408,-0.41870833874178603,-1.607746235251703,-1.4047852828948892,-0.5970622697128979,3.7728087867608164,-1.5507610498415993,0.946699452916566,-1.2844333552776859
97,12.234922840319411,3.833178412225941,-0.2960257567133698,0.1336653251323691,0.36653677090082726,-1.4846546227722393,-0.4573985249428151,-1.6629374389777454,-1.5678611287276352,-0.8290207545289379,3.608503511368183,-1.3827142432137258,1.0621676436784067,-1.3130538948939139
98,11.578748618391353,3.274097705591615,-0.24491361161758715,0.17451038106575648,0.35290200319698894,-1.282732073824565,-0.4919220652678583,-1.723218301261257,-1.7215560561835919,-1.068281743103063,3.3852408715336746,-1.2498557155652297,1.150032135419803,-1.347308652079179
99,10.725494855423214,2.6212188887928183,-0.1860649493268142,0.17936702404853092,0.32178885619148556,-1.082014897170033,-0.5202460526308834,-1.7875908564698504,-1.8616411890871158,-1.3116409378256697,3.1115889183901055,-1.1462318523399835,1.2165222293858307,-1.3817920351794402
100,9.688112883161626,1.8885946996489367,-0.12020938579762651,0.15742889115280953,0.27520163601829034,-0.8829717519172267,-0.5407263691869044,-1.8544512093548782,-1.9840235170812652,-1.5552381340776695,2.798115959223072,-1.0641443091585077,1.268816608178913,-1.4102926509753955
101,8.485103275086384,1.093089577194152,-0.04824246787620621,0.11909986087140365,0.21582329919451243,-0.686196137626595,-0.552190754059179,-1.9217629778237957,-2.0850305499741704,-1.794813750619809,2.456789679825792,-0.9947566931658507,1.3145269681937026,-1.4262826365143022
102,7.139909776360683,0.25371189263245747,0.028775054983600393,0.07540084932085797,0.1468572960154095,-0.4924324350468654,-0.5539934679049018,-1.9872474900921928,-2.16167199404872,-2.0259861077311263,2.100305979062281,-0.9287673198969126,1.3611596735835572,-1.4234347705427048
103,5.680121204503041,-0.609136615682332,0.10962342807016194,0.037343715052885425,0.07184231331946722,-0.30258036066286687,-0.5460356942677418,-2.048574720266796,-2.2118589485463045,-2.244524843074831,1.7413958138821908,-0.8570976004928852,1.4155934341641903,-1.3961267383492497
104,4.1365263691766545,-1.474449342255458,0.1929376500108853,0.015313818468653331,-0.005543881985643559,-0.11768073298181163,-0.528745406088771,-2.1035355113303664,-2.2345609210860813,-2.446592972820439,1.3921628581949546,-0.7715397025108586,1.4836121230705335,-1.3398897477195837
105,2.54207247324522,-2.321395740584577,0.2772303015943265,0.018501271433014315,-0.0816744944332634,0.06111384109958116,-0.5030131310864864,-2.1501755395832527,-2.2298825300359884,-2.6289316231750988,1.0635020312256267,-0.6653096199232752,1.569527784972918,-1.2517632233131648
106,0.9307766606670802,-3.130054492469703,0.3609241244991501,0.054413983184978476,-0.15314317328902927,0.2325790135931205,-0.47008650055452805,-2.186876639489285,-2.1990471969415606,-2.7889684858984958,0.7646389430832193,-0.5334631097953451,1.6759199609119302,-1.130528128676275
107,-0.6633646547965677,-3.8820682218515588,0.44239388267786467,0.12849565732360346,-0.21690329064410926,0.3954642584451113,-0.4314349000846137,-2.2123806492877462,-2.144284829954572,-2.924842233539466,0.5028150668249549,-0.373149802888443,1.8035055300283618,-0.9768061204420211
108,-2.207430642225007,-4.561199661040574,0.5200157035084785,0.2438616669624593,-0.27037304273925383,0.5485380603662358,-0.38860266226862966,-2.225761718382766,-2.0686325370986065,-3.035347689491539,0.28312612014846544,-0.1837011965085886,1.951140579730435,-0.7930268923681967
109,-3.670563134038723,-5.15377832827466,0.5922209199692656,0.40115718798105027,-0.3115074501700226,0.6906270071879783,-0.3430721535090133,-2.226361527740648,-1.975668650675956,-3.1198177331763404,0.10850503641528979,0.03343322288792988,2.1159442116037717,-0.5832787998055683
110,-5.024858589917957,-5.649033368862354,0.6575507759140824,0.598535913675362,-0.33884180675496534,0.8206447059987788,-0.2961557567322112,-2.213706088685387,-1.8692082851866187,-3.1779658698540567,-0.020171564923804355,0.27487427806947645,2.293525019827999,-0.35306652082106477
111,-6.24614071626401,-6.039312358953959,0.7147083305761668,0.8317539897753167,-0.3515124970242838,0.9376094827354383,-0.24892917520562055,-2.1874230924517275,-1.7529926218328904,-3.2097175938526803,-0.10388240712701648,0.5355919724028662,2.4782851032718343,-0.10900367055751996
112,-7.3145915411158695,-6.320188090854777,0.7626043747020611,1.0943719111073027,-0.3492604161070369,1.0406530221763337,-0.20221008402312102,-2.147177060928637,-1.6304049076323206,-3.215059545611135,-0.1451983970670526,0.8092410492695028,2.663774153196717,0.14153191666464532
113,-8.215220273875408,-6.49045617423766,0.800394943190333,1.3780563663629015,-0.33241987150601054,1.1290240010616057,-0.15657827095216276,-2.092636746503048,-1.5042442904071807,-3.1939329857795995,-0.14798824357354806,1.088524383043872,2.8430670391935804,0.3907565247677277
114,-8.938151474264972,-6.55202652033294,0.8275088229230659,1.672973478109452,-0.3018925580354578,1.2020911008104203,-0.11242713405569982,-2.0234842861960436,-1.376583188038668,-3.1461914518075336,-0.1171179632728915,1.3655637529395845,3.009141608946681,0.6308351806143018
115,-9.478718727697562,-6.5097129333708255,0.8436640213905436,1.9682629132545248,-0.25910338776965613,1.259349350023887,-0.07003194802743945,-1.9394675530973287,-1.2487237995604838,-3.071631635394571,-0.05816053343931814,1.632266746435906,3.155238101727372,0.8542216782767349
116,-9.837358445920582,-6.370928490815098,0.8488724575231632,2.2525774761905346,-0.20593426757717326,1.3004330701988276,-0.02961823235507239,-1.8404875510132255,-1.121255363581636,-2.970093670000516,0.022876959952147502,1.8806852396835105,3.275186484400988,1.0539773681316251
117,-10.019310003359053,-6.14529975444542,0.8434325081551108,2.5146654950666107,-0.14463397088091215,1.3251375902648137,0.008585032487749984,-1.7267050132501922,-0.9941987795882361,-2.841615383535768,0.11980742746282122,2.1033627875136536,3.3636920013941496,1.224063139214713
118,-10.0341411520018,-5.844218068769541,0.8279097346037304,2.743965821161309,-0.07770623172070745,1.3334501004137287,0.04431727611459132,-1.5986471035770455,-0.8672128141045192,-2.6866170728500043,0.2264997485084112,2.2936652835477296,3.4165715498816294,1.359597424489766
119,-9.895129504922316,-5.480349712630213,0.8031069703268647,2.9311796949668527,-0.007782615704766039,1.3255877335309794,0.07728548859022143,-1.4572964763568035,-0.7398291206981324,-2.506089913941681,0.3370952697918259,2.446083413970501,3.4309341930151245,1.457070135782791
120,-9.618540275636192,-5.067128400832719,0.7700257860118098,3.0687811858522482,0.0625098472118257,1.3020387086168255,0.10718558868452165,-1.304149600349781,-0.6116829798137305,-2.3017620336225066,0.44619967786970377,2.556489686103246,3.4052990127205875,1.5144996879334092
121,-9.222845882129898,-4.618253892282456,0.7298220956514279,3.151429193662149,0.1306749390753429,1.263600605957881,0.1337366283206948,-1.1412374007249706,-0.48271222855778567,-2.076220483612814,0.5490421349674478,2.622329997000482,3.339643890368162,1.531519269822656
122,-8.727933309651796,-4.147219178543639,0.6837590593383558,3.1762497540602364,0.19445718567244738,1.2114088284755686,0.1567176096106947,-0.9711070170371044,-0.3533055205137029,-1.8329731008469017,0.6415936015066479,2.6427316115558477,3.23538116074687,1.5093807099081802
123,-8.154340392569363,-3.666885794216366,0.6331601769820198,3.1429672376479467,0.2519281186991659,1.1469481340462775,0.17599830517267914,-0.7967670840646209,-0.2243894413184806,-1.5764397631783855,0.7206397984412802,2.6185162443104506,3.0952612173218585,1.4508702478128843
124,-7.5225538380108565,-3.1891222230713843,0.5793647521428829,3.053875518047469,0.30154537027085515,1.0720408160893566,0.1915581766905078,-0.621599864115307,-0.09745019397638793,-1.3118672414933608,0.7838100129085591,2.55211714662735,2.923212160468172,1.3601392951719122
125,-6.8523918066760805,-2.7245144791372033,0.5236871985847663,2.9136535736413176,0.3421849650910376,0.9888068404893152,0.20349035583507444,-0.44924308451122913,0.02551007523428781,-1.0451663888323002,0.8295686030797217,2.4474098435388334,2.7241300254591625,1.2424624859971756
126,-6.162484203793671,-2.282151917584114,0.46738106211805547,2.729042502625772,0.3731502144885633,0.8995944110495526,0.2119903365748162,-0.28344458676228185,0.1420782655283257,-0.7826758985459991,0.8571793135377447,2.3094743863283234,2.5036375624500495,1.1039422206724077
127,-5.469856244091485,-1.8694869130355947,0.41160806635008595,2.5084106967339244,0.39416190953613217,0.8068839467487443,0.2173314598700829,-0.1278950380792032,0.24958806383707355,-0.5308639796656672,0.8666520546269307,2.144310631635175,2.2678289622813144,0.9511816795022983
