,AF3,F7,F3,FC5,T7,P7,O1,O2,P8,T8,FC6,F4,F8,AF4
0,9.191212809747155,3.6530238482347404,-0.6311643542211128,6.501817360623527,0.6314354208154495,-1.725804608833093,-2.020947879163752,0.27017521228786956,1.6474427385085681,3.6551097349945385,5.727838188827921,7.042986736867192,-1.316180856988117,1.4029885904980515
1,8.677679146468728,2.418873589666188,-0.5763672072279368,5.908449541893874,1.2812298245045022,0.608172899702421,0.11658797764914673,1.866882236938235,2.0980828042527953,3.8500025138740157,4.8370875258637325,7.012387443272426,-2.8729060390803975,-0.08097653105855918
2,8.17193766544594,1.1985036443169002,-0.526409904682021,5.330099882453299,1.9166236868385687,2.8912964419251277,2.235070503452152,3.447832364451525,2.547594894969421,4.051178425795543,3.9702477880501252,6.974590602664525,-4.428987895336778,-1.5596227297880578
3,7.65701609048679,-0.00966014051039154,-0.4821925785830442,4.761000185467086,2.5191761774911607,5.080459087870816,4.291194592755932,4.968600354189092,2.9761981227493,4.240033906754182,3.1219944955242145,6.9053507145044675,-5.98676921072714,-3.031542417391311
4,7.117044176787958,-1.2073200918245013,-0.4444746439395168,4.195470610151305,3.0715137953650107,7.13536427131785,6.24385123241888,6.387088714580701,3.3651579993956635,4.398833488826481,2.2870332969767895,6.781997028905427,-7.547401922269443,-4.494627829729767
5,6.537919896915924,-2.39616576603975,-0.4138879758769393,3.6281218494531986,3.5578487182729632,9.019617188670594,8.05537281783263,7.664817256827878,3.697492495093735,4.511464219751494,1.4605221046441796,6.584315237596706,-9.110277559055737,-5.945663029615187
6,5.907856326573831,-3.5777403339137566,-0.3909469196427375,3.0540342439315893,3.964444017335568,10.701680145179948,9.692620851153961,8.768061020476305,3.9586051309835266,4.564090275933308,0.6384294194622124,6.29529668908136,-10.67255391176403,-7.379988102957421
7,5.2177918988405185,-4.753313881783616,-0.37605188155594904,2.468912419693251,4.280011011614579,12.155655400151229,11.127870884938124,9.668786097572559,4.136810705748619,4.5456763962748905,-0.18218739729264685,5.901723472422832,-12.228800951501526,-8.791254474751206
8,4.461657627829003,-5.923759824668866,-0.36948391852104734,1.8692179488390914,4.496027221397516,13.361867580710108,12.339463193278668,10.34534233940216,4.223723171696486,4.448358898196594,-1.0029922839632999,5.3945685295412105,-13.770779685065039,-10.171282781712081
9,3.636504538249666,-7.089428511141861,-0.3713895821151603,1.252285524961636,4.606967041893007,14.307229212577779,13.312205506660701,10.782889196493826,4.214486320186152,4.267656686671296,-1.8242683707651597,4.7692033782967735,-15.287357927568882,-11.5100262592401
10,2.742502426376275,-8.250012561959897,-0.38175759106532403,0.6164286795882818,4.610440571052406,14.985385148246138,14.037532862095063,10.973552846738327,4.107843599005798,4.002528930780546,-2.64489414136898,4.02541963442904,-16.764558745119334,-12.795634894490377
11,1.7828260518671277,-9.404401772565887,-0.4003907814372997,-0.03896172134897215,4.507238395132086,15.396642789670912,14.513445532224,10.916334194257502,3.906059019951797,3.6552973934675026,-3.462382577306068,3.167281224702121,-18.185732661839296,-14.014611006410835
12,0.7634455555315943,-10.550531156342208,-0.4268777501914354,-0.713328772268147,4.301281622292133,15.547704065008949,14.744256525778788,10.616803331301657,3.6147122377607834,3.231456858894654,-4.272967760705664,2.2028298574278025,-19.531844853498193,-15.152047059441317
13,-0.307165574000205,-11.685233146793992,-0.46056871795690907,-1.404880342333083,3.999477613397455,15.451221672391192,14.740184319619486,10.0866236744156,3.242394916145833,2.7393959163369397,-5.07172896156182,1.1436669533040105,-20.78187256372911,-16.19194052313218
14,-1.4183966334627556,-12.804112343730747,-0.5005596247988154,-2.1105549927547,3.611483328636366,15.125206007481813,14.51682500411798,9.342948077756269,2.800332894613763,2.190044544528439,-5.852750361128667,0.004432804943329144,-21.91331268913578,-17.117585101586435
15,-2.5579342887735033,-13.901465852139488,-0.5456875580245555,-2.826040848860351,3.149380450032193,14.592310829953247,14.094532745276876,8.407722031865047,2.3019522332903137,1.5964581957617516,-6.609320963526873,-1.197799293453234,-22.9028010800034,-17.912039336933233
16,-3.712258516866336,-14.970272039646629,-0.5945395158761035,-3.545863118722582,2.627269588507424,13.879025701288024,13.497730396233237,7.30691892080066,1.7624002356016188,0.9733436001768287,-7.334181351516107,-2.444198059027914,-23.72684134217879,-18.5586711111662
17,-4.867188013587003,-16.00226476024988,-0.6454754413334041,-4.263549692957133,2.0607946936774466,13.014801939984633,12.75416514145966,6.0697227660781525,1.198027697417244,0.3365308547517186,-8.019821071492565,-3.714901942223391,-24.36263163807306,-19.04176997856721
18,-6.008456413492201,-16.988099730978657,-0.6966655199517946,-4.9718747121627,1.4666128458289434,12.031136809592443,11.894119335862738,4.727668197344983,0.6258377365063135,-0.29760012123849344,-8.658822756146987,-4.98977920912437,-24.788964408497307,-19.347208971436245
19,-7.1222927741338244,-17.9176070006739,-0.7461409368728101,-5.663168557149527,0.8618286337632798,10.960638943958593,10.949585985718103,3.313747600803589,0.06291013310687811,-0.9127234863314942,-9.24423787715234,-6.249193012931688,-24.987158681779285,-19.46312505221501
20,-8.19597219854046,-18.780111173239547,-0.7918566137874548,-6.329671823307186,0.2634160319711984,9.836097664585672,9.953421859873552,1.861501146964422,-0.4741830485791379,-1.4931773164043598,-9.769967167633395,-7.474736223517393,-24.941971606704744,-19.380575908787588
21,-9.218297976884386,-19.564792203183575,-0.8317638034569073,-6.963903354380032,-0.3123465697977119,8.689579861838562,8.938497336578823,0.40411405959481583,-0.9699470149340303,-2.0245467306814917,-10.231109848092416,-8.64989532559496,-24.642428561536075,-19.094123794129292
22,-10.179978111907928,-20.26105649637879,-0.8638896498928041,-7.559010269058033,-0.8504018173045488,7.551579443965747,7.936868052956792,-1.0264463218060584,-1.4104892062183843,-2.4941831555629657,-10.624242645468975,-9.760602078950471,-24.08251124228563,-18.602296954019977
23,-11.073867833100225,-20.85889125956444,-0.8864199159612344,-8.109071166624245,-1.3373750562651312,6.450244939780619,6.978996844143976,-2.4002162164833365,-1.7839674107016592,-2.891623763473485,-10.947593752924652,-10.795636729515637,-23.261650763605566,-17.90788679726664
24,-11.89506417115983,-21.34918259931559,-0.8977802302501964,-8.609330723319633,-1.761952609884838,5.410710188580393,6.0930541725062,-3.6899065337791415,-2.0809315101636705,-3.2088827060487213,-11.201088384241281,-11.746856941824868,-22.18498768048475,-17.01805346704078
25,-12.640854780389484,-21.723986542218896,-0.8967105984276995,-9.056352596342968,-2.1151631413212946,4.454550755365623,5.304321118919661,-4.871428355217506,-2.294537551698314,-3.4405988750818874,-11.386259494108167,-12.60924112371803,-20.863381163520998,-15.944230875655132
26,-13.310536957974143,-21.976749724283472,-0.8823277254904012,-9.44808661185162,-2.3905550258091637,3.5993840701689352,4.634711310168341,-5.9242536950020845,-2.420625415052024,-3.5840410405038052,-11.506035894403913,-13.380751760799118,-19.313171680734715,-14.7018407971835
27,-13.90513293786145,-22.10248254284377,-0.8541701968757609,-9.783855121418876,-2.5842691912152636,2.858623974838289,4.102417687246518,-6.8316089618865385,-2.457666122160443,-3.6389869083259225,-11.564436348836434,-14.062041422163624,-17.555721580182905,-13.309841702989445
28,-14.427034792797391,-22.09789215090012,-0.8122229886258434,-10.064271452117932,-2.695013320357707,2.2413910810524187,3.721678729583982,-7.580516482500612,-2.406598866404334,-3.607504716410543,-11.566209089466566,-14.656038322479688,-15.616773349364028,-11.790150403596192
29,-14.879616720925123,-21.961485293477683,-0.7569198956144972,-10.291109040324613,-2.723948846496327,1.7525705733654136,3.502649505737973,-8.161714530800719,-2.270587829779908,-3.4936721775867614,-11.51645972405963,-15.167457020144305,-13.525674592187142,-10.166981926089363
30,-15.266852721815075,-21.693650680797038,-0.689124652529321,-10.467141506723648,-2.6745056982245257,1.3930004216636538,3.4513581310260615,-8.569494576873247,-2.0547323498885004,-3.3032670214862563,-11.420306478228893,-15.602281364117603,-11.314521201131075,-8.466153908811705
31,-15.592972558894168,-21.296726669693967,-0.6100931544731223,-10.59597111117667,-2.552140818552929,1.159766838495539,3.569728565728565,-8.801494244124004,-1.7657607047536767,-3.043457030546011,-11.28259177735046,-15.967261183895687,-9.017266325830487,-6.7143958713564205
32,-15.86217914191554,-20.775053025369154,-0.5214200354236105,-10.681857097491854,-2.3640557968898857,1.0465813331381968,3.8556551499574887,-8.858476941495418,-1.4117297183848665,-2.7225077391444645,-11.107666337151773,-16.26945335691341,-6.668834531162162,-4.93869302818919
33,-16.078438447018595,-20.13499792696469,-0.4249731578328623,-10.729549171987127,-2.1188876294289143,1.044215179937027,4.30312112607443,-8.744117256335374,-1.0017425608107173,-2.3495155811612753,-10.899249500749205,-16.515825107340248,-4.304270712258727,-3.16568246073766
34,-16.245342058445722,-19.38494669688661,-0.3228196542352824,-10.744127430568547,-1.8263851629776202,1.1409716100775382,4.902360992156585,-8.464798222936924,-0.5456880854620287,-1.934165484824112,-10.660360166915924,-16.71292611878399,-1.957944448547991,-1.4211099176429942
35,-16.36603527164953,-18.53523936255262,-0.21714718179954762,-10.730849596807598,-1.4970822077671642,1.3231815533359905,5.6400730858238095,-8.029415451437668,-0.05399847373070062,-1.4865065191337408,-10.393307717070847,-16.866628581518796,0.3371755603746912,0.2706498320260589
36,-16.443201692369577,-17.59804983105653,-0.11018398602408017,-10.695008649323682,-1.1419770144246781,1.575713102485423,6.499692364409927,-7.449176082638422,0.46258130351338717,-1.0167381208004196,-10.099731833991259,-16.981931386723982,2.5501648358733955,1.8870073473653761
37,-16.479097478360817,-16.587207665816265,-0.004121236965147164,-10.641806762662977,-0.7722272188173755,1.8824867548531137,7.461732692444903,-6.737378809642145,0.9932185893071523,-0.5350020872947937,-9.780682826272326,-17.062825723537912,4.652692078479585,3.407504077105083
38,-16.475632443717558,-15.517971026234475,0.0989590743199536,-10.57625302946984,-0.39886891613969633,2.226987936666398,8.50420334726374,-5.909164644746521,1.5272161870359866,-0.05118028734401529,-9.436738391343344,-17.112222720537993,6.619461198879738,4.814082661713232
39,-16.434498343268068,-14.406763997142614,0.19714766421627056,-10.503091894515164,-0.03256723196236676,2.5927661666877504,9.60309724719258,-4.981235477111685,2.0542320359820447,0.4252965339310207,-9.06815693461346,-17.131947234444127,8.428534972571043,6.091273240882767
40,-16.3573443007337,-13.270892759201837,0.2887603682882359,-10.426766947452453,0.3165964007696506,2.9639074424233023,10.732940134655108,-3.9715467175305834,2.5644876620451806,0.885618473057653,-8.675069719724302,-17.122803170463897,10.061532273121102,7.226287394053981
41,-16.245994534467183,-12.128253459561037,0.3723776659072645,-10.351421221466296,0.6392973415377698,3.325464133753658,11.867382283769537,-2.8989886717572695,3.0489519427520753,1.3217313051715283,-8.257712546729072,-17.084713461904062,11.503696853816148,8.209015374790608
42,-16.10269528078138,-10.997040636268526,0.44687061523065974,-10.280930500824466,0.9271006975922467,3.6638261862646915,12.979809259425355,-1.7830755684002115,3.4994843865970098,1.7264241156610778,-7.816691683202003,-17.016931869623996,12.743844373449512,9.031929950522906
43,-15.9303685890725,-9.895458768193041,0.5114136314968009,-10.218960345423778,1.1725567089132602,3.9670198097973466,14.043947513566778,-0.6436591649894997,3.908925326944008,2.093363755393711,-7.35326930550224,-16.91831475930749,13.774205151528925,9.689910581059415
44,-15.732843541821241,-8.841432440008319,0.565485402960095,-10.169031543607439,1.3692646756020737,4.224924908801701,15.034444338439354,0.49932420983363823,4.2711287343265685,2.4170804049815424,-6.869643074702016,-16.787630567272032,14.590191028474813,10.180012904360828
45,-15.515033045904609,-7.852305926056527,0.6088597296752436,-10.134574820615754,1.5119141192913843,4.4294088468607535,15.927408297196711,1.6260755646380602,4.580943749524011,2.6929189945305394,-6.369186098314596,-16.62387567821003,15.19012260866592,10.501217188937657
46,-15.283027520150306,-6.944523396046593,0.6415883646306137,-10.118956287957815,1.596312303282305,4.574380056718008,16.700903397794338,2.7171368857502967,4.834159782570082,2.916977870235684,-5.856611108755783,-16.426561397325777,15.574954896585425,10.654192090722674
47,-15.044084655970654,-6.133286407188339,0.6639780184409673,-10.1254607606755,1.6194056443471894,4.655769820530584,17.335396163151927,3.7535956142548286,5.027434592527158,3.0860566960730993,-5.33802843359141,-16.195939711157735,15.748033301177552,10.641105180084864
48,-14.806505481435275,-5.432193503720402,0.6765632236031096,-10.157228558651207,1.579300011305253,4.67145433606223,17.814158281172542,4.717309839039469,5.158224743588931,3.197630455860439,-4.820880346657408,-15.933144963972717,15.714899495939454,10.46550036065249
49,-14.579399779831329,-4.852874909800232,0.6800757054685977,-10.217149785997073,1.4752823763929737,4.621131602011894,18.12362786291658,5.591169397008804,5.22473419562318,3.2498577486629707,-4.3137509950810395,-15.640241635783132,15.483151432881527,10.132247240558591
50,-14.372357026854154,-4.4046417893794105,0.6754099123504826,-10.307726627969464,1.3078439534716368,4.506167770636106,18.253729070628154,6.359399007418193,5.225890473648019,3.2416219236315955,-3.826067091514939,-15.320181966868553,15.062347920291453,9.647551973624134
51,-14.19505110297538,-4.094173505488877,0.6635840905248324,-10.430918718938086,1.078702509038083,4.329425111456041,18.19814364710658,7.007897825610551,5.16134947962653,3.1725948768175316,-3.3677172578137826,-14.976689001494348,14.463937967846958,9.019006146429497
52,-14.05681647414435,-3.9252672161353237,0.6456967333887104,-10.587989323750936,0.7908189101694577,4.095079535900553,17.954520566183508,7.52459756172669,5.03152089910307,3.0433067492806636,-2.9486262466843804,-14.61408914207973,13.70118932409106,8.255642426033374
53,-13.966237384676331,-3.898671816684935,0.6228789158906677,-10.779370645520148,0.4484007601888476,3.8084313471773683,17.524604130414517,7.899811259209446,4.8375989687066365,2.855201517788268,-2.5783235902882167,-14.23712204619816,12.789089613385885,7.367964279677128
54,-13.930786989027906,-4.012022801816615,0.596243682878263,-11.004564342884597,0.05688494965219735,3.475709974835416,16.914258615454628,8.126539832475789,4.581580962578611,2.6106597814010963,-2.2655436719873934,-13.850753758588475,11.74419770937989,6.367922299751809
55,-13.956540773018228,-4.2598862304277025,0.56683438576055,-11.262088057447084,-0.37710864481324535,3.103872626921849,16.13337016913852,8.20070544405295,4.266259287606538,2.312976152595262,-2.0178857469473783,-13.46001194864942,10.584432137170866,5.26882047187555
56,-14.047972806818125,-4.633909393149135,0.5355747909814161,-11.549471321407285,-0.8458587154186111,2.700397534681579,15.195613731684398,8.121289402644457,3.89518105835771,1.9662878750730832,-1.8415501416450062,-13.06985232377017,9.328795112889267,4.085149441125387
57,-14.207830050244688,-5.12306537173455,0.5032247656698745,-11.863296641993442,-1.3406640378313828,2.2730735167922744,14.118082672408917,7.8903646469823325,3.4725780676498617,1.575460467558985,-1.7411545385451483,-12.685055839374579,7.997041725587038,2.8323564268051324
58,-14.437072251758035,-5.713971715206622,0.4703458641531139,-12.199276080857418,-1.8520078820487134,1.8297880978694046,12.920789700263784,7.513025117219927,3.0032766919635105,1.1459423073812633,-1.7196252674624843,-12.31014978377613,6.609310884505147,1.5265694528599163
59,-14.734862828552737,-6.391261654354456,0.4372806598340109,-12.55235158180085,-2.369766245284504,1.3783165319258393,11.626057635767973,6.997223254818874,2.492599397678881,0.6836016108085399,-1.7781541890689005,-11.949343187576943,5.185737223555317,0.184296092062565
60,-15.098597557009352,-7.1379885000087,0.4041481382200486,-12.916808355007946,-2.8834582192588027,0.9261145520128982,10.257826561540861,6.353531183787531,1.9462671548513037,0.1945567158286487,-1.916211458070329,-11.6064678125806,3.7460622498744276,-1.1778845034294867
61,-15.523960821076118,-7.936047557650591,0.3708553767683503,-13.286393274418339,-3.382533297424641,0.4801189784349993,8.840909230128469,5.5948413511534225,1.3703071939047498,-0.3149939913552467,-2.131606585003965,-11.284918956628799,2.309260484770759,-2.5436206684399245
62,-16.00500209786721,-8.766603060606135,0.33712372861503803,-13.654432898353935,-3.8566861317966974,0.04656213650809024,7.400229453261905,4.736020279378452,0.7709658626519157,-0.8389401174453587,-2.420592791048031,-10.987594019200424,0.8931937658979147,-3.897066145934973
63,-16.534227724685618,-9.610509385299627,0.3025262767606942,-14.013947522921406,-4.296184802044132,-0.36919253296963195,5.960078376048981,3.793526355348327,0.1546233971685195,-1.3714244884394324,-2.778010829173661,-10.716829926781115,-0.4856948450355066,-5.223127561938493
64,-17.102705024181226,-10.448716206160704,0.2665326919462104,-14.357758536303068,-4.692194923933421,-0.762785894699313,4.543420734717468,2.785000164230513,-0.47229397925809735,-1.9070039993614825,-3.1974673031792427,-10.474342413931986,-1.81263680164716,-6.507674422767814
65,-17.70017806431254,-11.262647442138029,0.22855786397239516,-14.678586878266161,-5.03707968839103,-1.1309624487119554,3.1712777516157282,1.7288341708398285,-1.1034095086135423,-2.440802386059092,-3.67153953917676,-10.261170823555743,-3.0747330285537933,-7.737706345959989
66,-18.315196483116814,-12.034545480464645,0.18801150484363285,-14.969141584506836,-5.324655934235578,-1.471627766830853,1.8622065258019695,0.6437282245302042,-1.7325023827003443,-2.968648496486615,-4.191995643233181,-10.077631816572275,-4.261078841204695,-8.901474032786231
67,-18.935259788683144,-12.747775460219403,0.14434671272922162,-15.222199400683849,-5.550389102624631,-1.7838598524408467,0.6318891768956224,-0.45176069057988255,-2.3536247345728722,-3.4871903554749175,-4.750015645109411,-9.923284207172587,-5.362812335485566,-9.988552576134623
68,-19.54697857888297,-13.387087546292253,0.09710573567317637,-15.43067818210843,-5.711515052985507,-2.067872022826081,-0.5071603749906209,-1.5396616766083249,-2.96122222358039,-3.9939715049322295,-5.336398001993353,-9.796905065160256,-6.373083510313619,-10.989867357206759
69,-20.136251986489068,-13.938836362625205,0.04596103103763635,-15.587707192599755,-5.807083078740648,-2.3249269668717,-1.5457680113141816,-2.603008024705766,-3.5502444707894334,-4.487453027370912,-5.941735793630196,-9.69647490317334,-7.286945330353917,-11.897673606739666
70,-20.688459173875575,-14.391156559435627,-0.009250333840044093,-15.68669698464295,-5.837920825740374,-2.557204019646616,-2.478148300061513,-3.6262085729799116,-4.116227439035842,-4.966965021048545,-6.556550085107859,-9.61916875108964,-8.101172538139213,-12.705492113899913
71,-21.18866327163696,-14.734093965911196,-0.06850072281962143,-15.721411781119913,-5.806527460933887,-2.7676242360233267,-3.301832353489604,-4.595351270217281,-4.655331115284959,-5.4325775486015715,-7.171375276788803,-9.561351792473479,-8.81402052760434,-13.408007595483717
72,-21.621828837272787,-14.959694157141744,-0.13155595726029434,-15.686048769224138,-5.716906089991279,-2.9596404316996487,-4.017480020080794,-5.498423243364346,-5.164323115224137,-5.884893110708599,-7.776801825284226,-9.5185830134203,-9.424944909323761,-14.000942757153664
73,-21.973057523547777,-15.062053457587792,-0.19797048992208524,-15.575330212090128,-5.574349873051911,-3.1370021751993,-4.62858673960577,-6.325440733619953,-5.640509842507946,-6.3247771346142,-8.363492297638679,-9.485635805476432,-9.934310172708942,-14.480927369916259
74,-22.22784922940056,-15.037339014396936,-0.2670941591112838,-15.384613650167925,-5.38519801116655,-3.3035086100129196,-5.141101102178153,-7.068492847759937,-6.081627745040693,-6.753054962612107,-8.922193568775011,-9.456547622067179,-10.343119768673672,-14.845384736741215
75,-22.372395404143013,-14.883783267490813,-0.3380899501675377,-15.110021603020835,-5.156577137933181,-3.4627640273240083,-5.5629744685721665,-7.721712417773676,-6.485714658344138,-7.170209760280518,-9.443768804581705,-9.424709856207178,-10.652797902161998,-15.092456279152868
76,-22.393906183527918,-14.601654940008855,-0.4099612250525605,-14.74858620330711,-4.896140775051163,-3.61795135444674,-5.903667911080683,-8.281193079968071,-6.850983858416443,-7.576114836966897,-9.919267881349283,-9.383004502888275,-10.865045602541837,-15.220978758639003
77,-22.280964600515336,-14.193205721767594,-0.4815862150138692,-14.298398594067924,-4.611815631978681,-3.771637099347935,-6.173643423734149,-8.74487296275625,-7.175721829652417,-7.969827552834128,-10.340046076154847,-9.323987506623926,-10.98178223462704,-15.230519081840493
78,-22.023891942748755,-13.662590324370543,-0.5517573160388274,-13.7587495802405,-4.311560095140936,-3.92561830197293,-6.383865162427862,-9.112402310444496,-7.45822603826321,-8.349462341317011,-10.69793035200246,-9.240111427648653,-11.005170821558178,-15.12146077334818
79,-21.615101042517015,-13.015757407834721,-0.6192228649016402,-13.130247218371686,-4.003137858896142,-4.080818159581384,-6.545332484783698,-9.385006091222467,-7.696792022541854,-8.712149219062628,-10.985421952804467,-9.123973243089605,-10.937713313274061,-14.895126389868288
80,-21.049410516070203,-12.260309572891176,-0.6827294864154404,-12.41489815208885,-3.693908153403578,-4.237232699361191,-6.6686610352277125,-9.565345143995417,-7.889750707079002,-9.054073371834514,-11.195915123782477,-8.968567938766236,-10.782392135602809,-14.553913375837032
81,-20.324293880838596,-11.405332097122573,-0.7410635931237161,-11.616142186885973,-3.3906333750176776,-4.393926783630872,-6.76372266357072,-9.65737303639998,-8.035548385874842,-9.370582948741912,-11.323906828252024,-8.767526461365081,-10.542828879663864,-14.101418475941468
82,-19.440043453044744,-10.461192418889585,-0.7930909130825519,-10.738833868086354,-3.0993053597255056,-4.549074343892274,-6.839350292222166,-9.6661820818727,-8.132855030890854,-9.656347411683555,-11.365172947444623,-8.51531846058641,-10.223431057961806,-13.542528353936762
83,-18.399838424867283,-9.439315280307648,-0.8377927857903448,-9.789170448401201,-2.8249929791432637,-4.700035389333999,-6.903109890620221,-9.597831277213523,-8.18068294400251,-9.905548072612238,-11.316892531367243,-8.207405728968173,-9.829503217197734,-12.883460799873653
84,-17.209716703810745,-8.351941302180316,-0.8742974780886592,-8.774571761253883,-2.5717155359892105,-4.843461536729481,-6.961138711871549,-9.459151108545946,-8.178497870587039,-10.112085348604866,-11.177711310349292,-7.840340070595555,-9.367307441406004,-12.131749926719163
85,-15.878458918872878,-7.211879011781925,-0.9019043926258281,-7.703523042579938,-2.34234783153069,-4.975423072144655,-7.018047645296111,-9.257524826017699,-8.126307937375874,-10.26979233778233,-10.947745833545016,-7.411807907482766,-8.844067578499278,-11.296177684735264
86,-14.417399601926753,-6.032261557326743,-0.9200992661316885,-6.5853955233863655,-2.1385631655769433,-5.0915535029335395,-7.076886029179076,-9.000651715625215,-8.024720720070723,-10.372649240329867,-10.628537208805694,-6.9206314103409525,-8.267918847109735,-10.386660626270574
87,-12.840183810511387,-4.826318642874946,-0.9285593753008288,-5.43026032612302,-1.9608193905519626,-5.187210561755397,-7.139168283578237,-8.696303027511712,-7.8749638191683555,-10.414995614184777,-10.222966501635685,-6.366740221673718,-7.647808259523319,-9.414103423636549
88,-11.162485786415129,-3.6071704666381406,-0.9271490373165785,-4.2487079678757445,-1.8083903674585127,-5.257653793561982,-7.204961641553981,-8.352083693733503,-7.678868420320969,-10.391736502819331,-9.735142211087402,-5.751127594101911,-6.993351157452605,-8.390228653720532
89,-9.4016996464379,-2.387643914564698,-0.9159068728421822,-3.0516794334427106,-1.6794414484454825,-5.298237362511074,-7.2730322749568135,-7.975212244310417,-7.438818049665751,-10.298535093316262,-9.170265547286082,-5.075800487902747,-6.314646180083001,-7.327387054384884
90,-7.576603442009253,-1.180104434058203,-0.8950271488790451,-1.8503077400680064,-1.5711439829841476,-5.304613083064809,-7.341043271289424,-7.5723281663676225,-7.157666333065757,-10.131980915185341,-8.534474126544536,-4.343726759809701,-5.622047454005726,-6.238346384208132
91,-5.706991216867503,0.003707112266922056,-0.8648379818154134,-0.6557635466954916,-1.4798210372622587,-5.272934244425259,-7.405792966278397,-7.149331749902304,-6.8386284947037845,-9.889720568581742,-7.834661288917571,-3.558776250667439,-4.925891194615124,-5.1360528004645225
92,-3.813265456985459,1.1528433051793812,-0.825779254215212,0.5209040400493847,-1.4011148644272706,-5.200047140735912,-7.463477566917765,-6.711257795254247,-6.485152058513805,-9.570538643872062,-7.078267604799294,-2.725648482365852,-4.236176001296866,-4.033358132068993
93,-1.9159851523404607,2.2573314841949963,-0.7783827446395686,1.6689394124840542,-1.3301662829922556,-5.083655630425367,-7.509959322201291,-6.262182701405363,-6.10077336188253,-9.174380540773502,-6.273043979346702,-1.849779505151612,-3.5622025480624853,-2.9427104064885263
94,-0.03537250459251123,3.308367114951583,-0.7232561757577095,2.778069224967112,-1.2617969903398578,-4.9224450394701185,-7.541021369353899,-5.805164835228177,-5.688968704273542,-8.702316599021309,-5.426792486898735,-0.9372245410465843,-2.912188330853261,-1.875813207502854
95,1.8092065903908903,4.298509591669944,-0.6610718319089516,3.8387059595645012,-1.1906879439958515,-4.716155077533924,-7.552592901380476,-5.342220173479855,-5.253012195496799,-8.15645723828209,-4.547100668964255,0.005479866124607984,-2.2928843983030545,-0.8432702677148602
96,3.5997595859012526,5.221861777915645,-0.5925594421179274,4.84215722670127,-1.1115502114440121,-4.465596694487496,-7.540933506028874,-4.874338054683877,-4.795855503583119,-7.539838794283851,-3.6410946301495057,0.9714626187238069,-1.7092305875456009,0.14575756043232807
97,5.320142774351433,6.074208649586712,-0.5185024281500464,5.780825309231725,-1.0192885893023311,-4.172614441869166,-7.502772800067153,-4.4015445193985485,-4.320046226474004,-6.8563060442687584,-2.7152423557388325,1.9536557300534962,-1.1640910148068018,1.0838481059712535
98,6.95645269617903,6.853089871431765,-0.4397363585213926,6.648377448928134,-0.9091616267174678,-3.8400029346938718,-7.435408895163365,-3.923022036716993,-3.8277004637502365,-6.110417923358393,-1.7752386936030007,2.944901925532389,-0.6581104942506605,1.965529335056996
99,8.497295332345702,7.557786229649166,-0.35714837663558674,7.439867270393339,-0.7769429444556187,-3.4713917100574068,-7.336774252662755,-3.4372928594118095,-3.320540559792104,-5.307397257196038,-0.8259962828299312,3.9380134912183595,-0.18972406739891526,2.7873738773479695
100,9.933905881682005,8.189208926924398,-0.27167641709551027,8.151792039634032,-0.6190870125064751,-3.071115341714182,-7.205478601125525,-2.9424674721048536,-2.8000005535383705,-4.453134431039826,0.12824712615114156,4.925771699966616,0.24466376863190453,3.547955246881114
101,11.260106974928993,8.749691564800543,-0.18430716661117008,8.782078203972546,-0.432898354262343,-2.6440844839100306,-7.0408362114967264,-2.4365499429632274,-2.267390886734138,-3.554241106291631,1.0837123584363866,5.90086846734591,0.6503336254865372,4.247660317559852
102,12.472109614236295,9.24269542523197,-0.09607184751600417,9.329996918006076,-0.21669806257094912,-2.1956695150121375,-6.842880639300249,-1.9177810220415052,-1.7241035595499783,-2.6181369292569365,2.0367783575895198,6.855805286239124,1.033763184593604,4.888370070461674
103,13.568177089703955,9.672448443062224,-0.008038909442605045,9.796020094473668,0.03002302406496242,-1.7316029936483779,-6.612365676976379,-1.3849908752027673,-1.1718322923315285,-1.6531431616953345,2.9836354670148726,7.782775420936274,1.4020361541115869,5.47303642696872
104,14.548186506683631,10.043546196986494,0.07869724042751808,10.181634306574256,0.30647820314022517,-1.257901192863981,-6.350747759784654,-0.8379287365066996,-0.6127807033584236,-0.6685542918167564,3.919936849534337,8.673561350230013,1.762197603862326,6.005194810507325
105,15.413133368696341,10.360547945583951,0.16303200070309443,10.48913321658539,0.6105003192748539,-0.7807995729241852,-6.0601433829889535,-0.2775374323955577,-0.049834745422696274,0.3253379253698767,4.840491845964428,9.519479328349497,2.1206084676963397,6.488458472678392
106,16.164629047052486,10.627600791716837,0.24387071295694468,10.721408530449429,0.9385112062717379,-0.3066934707173885,-5.743256171737198,0.2938535495967215,0.5133177146023175,1.31728525635342,5.7390376481493615,10.311396468903668,2.4823497376609964,6.9260408439089165
107,16.80443766238178,10.848120430022941,0.32015228816161834,10.881755645630841,1.2855537338376426,0.15792589459406933,-5.403272271563615,0.872433343145042,1.0721294341769003,2.2951951990858808,6.608113216061947,11.039834074347223,2.8507199335166833,7.320346529405724
108,17.33408964569676,11.02454928052167,0.3908747390098652,10.973704924204073,1.6453905160305229,0.6065492636212022,-5.043728636823964,1.4529191805047295,1.6212008637752733,3.24631121792619,7.4390453902474585,11.695156688449101,3.226859126953005,7.672661539783861
109,17.754597351488666,11.158204370758888,0.455120547103682,11.000884304011848,2.0106689197505374,1.0327481259263624,-4.668364849268398,2.0286653669788013,2.1543494667520906,4.157450622441149,8.22204515296778,12.267832882189033,3.6095208524209057,7.982961116351358
110,18.066286428003238,11.249219892339092,0.5120797384857398,10.96691452330137,2.3731477427852177,1.430298266272054,-4.280973529220268,2.5918588989669553,2.6647364659091597,5.015286772503212,8.946403916567396,12.748744055562739,3.9950017375886246,8.249841527880855
111,18.268747104428208,11.296584061021655,0.5610690742976879,10.875335207944504,2.7239771798778905,1.7933275651008858,-3.8852658131142284,3.1337845341064234,3.1450453112646155,5.806663377945285,9.6007760697463,13.129513606192699,4.3772296082726445,8.470572776484067
112,18.360903095203604,11.298266766278317,0.6015467267882563,10.729558925244799,3.0540210185083025,2.1164828035195247,-3.484766440899695,3.6451416686835767,3.5877061227113134,6.518932377121901,10.173534253774564,13.402831211311728,4.74800481163737,8.641263479986316
113,18.341192025457413,11.251432031481693,0.6331227531732245,10.53285075082865,3.3542082662976953,2.3951056139241564,-3.0827487415514363,4.116397014805294,3.985159727118857,7.140310378793879,10.65318610329161,13.56275404293333,5.097385154106229,8.75712668570662
114,18.20784848854236,11.15272587680915,0.6555661917815817,10.288331943402236,3.615899946844292,2.6254039161457428,-2.6822145370996844,4.538158652012512,4.330152473286822,7.660249375736977,11.028842852996284,13.604975223902931,5.41419992499364,8.812834183596408
115,17.959277328242482,10.99862572841408,0.6688096106068019,9.999007144006876,3.8312553928169977,2.80460337426428,-2.2859182031782765,4.901558123409888,4.616049336116147,8.069815035828222,11.290729439172562,13.527056619042302,5.686671864692995,8.802945153805915
116,17.594499409455914,10.785833115279539,0.6729516186017876,9.667814828167062,3.9935814122248607,2.931064716858791,-1.8964278250130888,5.19862882752527,4.837150029292459,8.36206173160971,11.430721938000246,13.32862655451348,5.903118122651629,8.72239139014771
117,17.11364463247983,10.511687545626435,0.668257385482679,9.297700406868564,4.097647598348495,3.004357130880745,-1.5162101251335718,5.422671051653515,4.988992230557369,8.532388903032494,11.442891572463012,13.011543233654493,6.052693441484045,8.56699564580795
118,16.51845813083643,10.174575994619651,0.6551567491265953,8.89171004841327,4.139951865432096,3.0252840051151217,-1.1477210806974896,5.568594751863074,5.0686266885260185,8.578859037099141,11.324026096669458,12.580022059553173,6.126132236897433,8.333993044716445
119,15.8127778865969,9.774309640109761,0.6342391900579102,8.453100615694021,4.118921876129127,2.9958630981619825,-0.7934826005902574,5.633228844695453,5.074849379719741,8.502454109121958,11.074091277422035,12.040720316198076,6.11644194305459,8.022519807501729
120,15.002938075800653,9.312438313517973,0.606244902355739,7.985457098341881,4.0350401227793995,2.9192669477501427,-0.45612813538838226,5.6155808751995755,5.008375847282025,8.307245523704436,10.696590054772924,11.402766445561232,6.01949859570949,7.634029945623162
121,14.098053431033746,8.79247443008287,0.5720513043735934,7.492804155590356,3.8908828098844634,2.7997301795587446,-0.13840608650918146,5.5170259268893895,4.871943190603781,8.000452889931536,10.198776506220616,10.677715039831474,5.834497390432778,7.172599598521508
122,13.110145197219675,8.220002106414963,0.53265450250345,6.97969417977057,3.6910654282130255,2.6424288057222527,0.15686214191867384,5.341400853371091,4.670326194722681,7.592369472438445,9.591686350429839,9.879405001891225,5.5642162217293265,6.645081112081549
123,12.05407816572635,7.602653686074877,0.489145454143807,6.4512527109074,3.4420914101265327,2.4533339148537374,0.42686449873077714,5.094980692530454,4.410255902944021,7.096137355229589,8.889955491583395,9.0236996544779,5.2150599606092465,6.06107625210073
124,10.947290992679314,6.949945214191182,0.44268095587502365,5.91316508021894,3.1521049648857113,2.2390396397174332,0.668909880041253,4.786319545175108,4.100232629725465,6.527364395050491,8.1114135109348,8.128095586343406,4.796868555060575,5.432711293214651
125,9.809318699180347,6.2729745104002355,0.39445012071728724,5.371595994626949,2.830555246941596,2.006564085145695,0.880555048905967,4.42594879406727,3.7502322329376327,5.903588390889667,7.276459500224452,7.211201207253441,4.322492251419628,4.774215281442276
126,8.661125593900804,5.583998749531444,0.3456375581420055,4.833043899451729,2.487785949741449,1.7631230855099538,1.0597337743178195,4.025939996579507,3.3713140708186367,5.243609678656686,6.4072498738096755,6.292103121166122,3.8071588700838057,4.101323101112565
127,7.52428613553286,4.8959197432945265,0.2973848752856734,4.3041409099497,2.1345712317389016,1.5158808473060112,1.204877955813881,3.5993552118505394,2.9751496780511344,4.566727964391492,5.5267469190256415,5.38965407160416,3.2676767215462625,3.4305427916552618
