,AF3,F7,F3,FC5,T7,P7,O1,O2,P8,T8,FC6,F4,F8,AF4
0,0.29668896274657236,0.32056953643508435,0.6207853424104457,0.2840817144051416,0.18676031583100633,-0.2937076686423056,-0.6051654239379306,-0.3676935918346892,0.3002027184448148,0.47905218699596813,0.712100683753909,1.041093461645769,0.6949233999537341,0.6684771443841855
1,0.8068544441243721,1.075876051510567,1.3821095804241965,0.5230694247452262,0.551447308072366,1.0235258169332644,-0.18667553023940744,-3.503729854121092,-1.4840248399853377,-0.23067712532108772,-0.2930982346814871,1.7454424835602262,0.5731190398677826,0.6844834862185697
2,1.0164441997918874,1.535940732685354,1.717387339997116,0.657788372687132,0.761583815688134,1.9285744656893062,-0.23871447669474033,-6.2568938032765375,-3.365137280556427,-1.0512276147660569,-1.373732528877176,1.8774519550546707,0.2669724616882207,0.4555252550868092
3,0.8663034492389844,1.6384042986426413,1.5553707104259933,0.7006371702985714,0.7754112633129162,2.0881156696269154,-1.0744039494043898,-8.311963328400509,-5.219690105576697,-1.8757520375776842,-2.325669451465201,1.4016657156587633,-0.12623602467125605,0.026208030831736596
4,0.46009436838027784,1.454408078800677,1.014185396798792,0.6823234798374458,0.6057750954694309,1.427479534610447,-2.5706323131817204,-9.27179232809391,-6.644372273012392,-2.486742051960573,-2.865433698944512,0.533624758086413,-0.4374034067339846,-0.42463642863803425
5,0.01783146441982229,1.1435382136150525,0.3452904956865853,0.6341002639032661,0.31282118042623763,0.1634902010875621,-4.175697385972561,-8.722168571456123,-7.037618607186098,-2.615747623574694,-2.719731177636946,-0.3500303453675613,-0.49064697554208364,-0.6513389002244835
6,-0.22755744190045146,0.8672126086557854,-0.17997607396720872,0.5694089349195642,-0.016702147687933745,-1.260848935452208,-5.104930491470852,-6.395699523750851,-5.84046490992439,-2.0583684381926086,-1.7556875745558584,-0.877499472496116,-0.19168114214673285,-0.46220952094400414
7,-0.14511854497353177,0.7009177089130233,-0.39231746523024363,0.47334210057116793,-0.29677013769730426,-2.3221394732776175,-4.656077325624381,-2.3716142674826024,-2.8445779374409326,-0.7971210224084274,-0.09348303557226491,-0.8525284301013435,0.40107185830648967,0.1614355993165291
8,0.22092560653487342,0.5889839767292921,-0.30036119888588925,0.3066318529124738,-0.46718762123480895,-2.597343421387972,-2.5266853636183795,2.7851058068940127,1.5701778928856278,0.9272298335415287,1.8610172216527696,-0.3524534477093949,1.062731514788845,1.0101652961189704
9,0.6568533642853593,0.36859328755630344,-0.084183712313346,0.025663815195967974,-0.5083755149345522,-1.9195414419999284,0.9912508293996287,8.034110587720654,6.395750749766934,2.6411903023666814,3.50019830515236,0.2958458898618702,1.465399241534249,1.694698851662875
10,0.8676944382545932,-0.14122815275223524,-0.0053047004384103895,-0.38715952747863663,-0.44128519512379105,-0.4534700539325694,5.024863851523176,12.059251376501772,10.213661623482961,3.7697850041563825,4.204555525579807,0.6598341007642025,1.305559911884397,1.7927440886708428
11,0.614596353577142,-1.0217485817781857,-0.2696657663504671,-0.8947174061844241,-0.31319639832476376,1.340464096091859,8.355059677187324,13.623524959677827,11.629956329833162,3.8373050573761494,3.578303495725322,0.4087292798674899,0.4500236408576699,1.0422851235751165
12,-0.15683821728305958,-2.1623488483403763,-0.904036935651512,-1.3925560458197648,-0.17539953884710013,2.848509123311773,9.804394366661827,11.976013450457938,9.790312180756668,2.666039602083945,1.640546618372248,-0.5048739383521922,-0.9615420132618406,-0.49982341894453997
13,-1.2561910240333392,-3.244046724880439,-1.7052157057151225,-1.723306145464507,-0.06193412676637976,3.5096088110843344,8.650443904071418,7.170371254840835,4.78558072344863,0.49193711066697393,-1.1133652422262124,-1.7747235912786399,-2.5108905441124625,-2.410975953614235
14,-2.2900582126464952,-3.8211224361705294,-2.294132073291342,-1.7199664705004885,0.02176197775713617,3.0171755685513437,4.920040554656657,0.16745190056607556,-2.2252634387321986,-2.0610246647295276,-3.824350314448676,-2.8262023240469607,-3.6126430273879717,-4.006063232264153
15,-2.799157603984767,-3.4823979762444583,-2.263457739373588,-1.2679277402025269,0.09540537377994181,1.4452772685677047,-0.5466080112450896,-7.342898307716724,-9.261327009093826,-4.156883977361491,-5.535759991573085,-3.037595894887937,-3.71690313375967,-4.5697490471428655
16,-2.442714208713562,-2.036043960233743,-1.3649267233633706,-0.3653174526296857,0.18703542057638226,-0.7504145964419486,-6.298835524982544,-13.373569382121856,-14.0923521222364,-5.025208597054447,-5.529893189085977,-2.0168602997052236,-2.5353029329896706,-3.639765984615028
17,-1.158198798535515,0.35640874061725336,0.34066601399620533,0.8427883106758827,0.3103999644935953,-2.8656606198476218,-10.692470769449447,-16.207731894312285,-14.968327061361975,-4.2464266063972,-3.615151105472959,0.17874494237008504,-0.20340907993527932,-1.232942445713146
18,0.7714764748615792,3.1604512812354852,2.440670458565047,2.075735561309255,0.4475543657273799,-4.176473021113627,-12.392816454349076,-14.928615723235097,-11.261550998782194,-1.938807724891997,-0.25105039047070843,2.980691992689602,2.6941426346572594,2.0833479889998
19,2.7793416671111304,5.589075500016901,4.267884944192518,2.980071869540463,0.5464747691346212,-4.189006437217923,-10.80187941646684,-9.738291371120093,-3.78494382803231,1.2318318969140674,3.55073408562335,5.450676422601713,5.265060572061157,5.320616998092944
20,4.192039184115143,6.83689528601526,5.116840142622744,3.2312389364073777,0.5376908621677907,-2.8236704965331962,-6.26819749266314,-1.951422674275176,5.354171669677545,4.239089485876658,6.5326080516730265,6.5929944917670475,6.585754472742867,7.37222355571268
21,4.465108780078752,6.354605964657164,4.507532906830487,2.6450284804499926,0.3655430059152522,-0.4648985317568066,-0.0058473611092823815,6.349857659444626,13.35201489566179,6.027668464127974,7.609975394056417,5.733106141948921,6.025923777572317,7.393649941663878
22,3.3911396810381063,4.067708804968475,2.398812831776134,1.2612812248530558,0.022039847223319853,2.147998822837073,6.25684249208391,12.905149721135746,17.585623406947267,5.881068645609143,6.260478313003944,2.821120491004195,3.5072975553082846,5.12688252434696
23,1.201276057577012,0.4552162638964932,-0.7362671145052069,-0.6334994992803308,-0.4321062696229215,4.158241430289022,10.790160688460224,15.933255145705782,16.488527231699983,3.6963655297520797,2.743176856985176,-1.464994882449589,-0.4043043304007435,1.0466391052528243
24,-1.4837357493382197,-3.5519310634398473,-4.015762365399017,-2.5611649651643735,-0.8717907432868386,4.879620087432268,12.375991315485091,14.656130234429133,10.127699977091527,0.06288212829050333,-1.9393900719033974,-5.875664797181094,-4.622476068053421,-3.7366634218913233
25,-3.843173936546517,-6.83145481342446,-6.412617988658804,-3.976364477107591,-1.14086882794977,4.036312495519867,10.659816628886919,9.526039633380902,0.2708282191225814,-3.894324081973824,-6.336175167681547,-8.971003470699886,-7.854363622867984,-7.798425346556821
26,-5.125001851865924,-8.410788201534528,-7.093833287335242,-4.427463474595777,-1.1064020416023588,1.8689989945891081,6.233883751019766,2.083877325733474,-10.104298780138452,-6.86443923048889,-9.009142652603014,-9.605825329143237,-9.010785683163656,-9.84657644140523
27,-4.901152244555807,-7.778016350125766,-5.718348108095548,-3.7049710598207106,-0.7153705776492834,-0.9337214880848369,0.43152729818930413,-5.508427778705429,-17.720483217378774,-7.783366973189533,-9.009681123375417,-7.350233135244613,-7.577780951810133,-9.146484827560755
28,-3.2191776841851567,-5.057762382576744,-2.5848394019216054,-1.9276955262007098,-0.031224906741932425,-3.459155007273891,-5.09467038936596,-11.116730525908752,-20.04787963157168,-6.204714672557832,-6.208755570405919,-2.6906708734085854,-3.820766954129211,-5.779939082941475
29,-0.594938774984717,-0.989484071462227,1.4310663154291166,0.4670521685384187,0.7678555897374212,-4.875119295376612,-8.871664608884366,-13.264081806221704,-16.1473619449005,-2.480956577428994,-1.3660130861993507,3.072892344922179,1.2562737835324156,-0.6472001221449492
30,2.153543255858493,3.2892299539957066,5.138133864546649,2.833924921203788,1.4345776763273204,-4.711275109462837,-10.023515842663116,-11.547819674693466,-7.027548869585748,2.313521167397449,4.090377130673345,8.213274002514867,6.1939657701858435,4.7937560738031735
31,4.174938650912833,6.586397116511021,7.406560157283293,4.502477092631348,1.731038222633023,-3.019920542589186,-8.48287650364119,-6.7200352042128335,4.615375333227952,6.700998011901897,8.504496210343106,11.124144824523624,9.518554998898054,8.969021609898038
32,4.863814748851129,8.015654301892315,7.534755239350211,4.978515140772638,1.5147564261298065,-0.3601383504190861,-4.943872452074443,-0.4142261308493316,15.207093877529852,9.262950886914274,10.511610559944625,10.847176328207528,10.20106940274813,10.669729142369725
33,4.054508062451939,7.256561407720601,5.4808103408447435,4.100395724114324,0.8007451210369164,2.389738777674681,-0.5893767761076316,5.3880913242102615,21.405494302179015,9.098758369019428,9.46714472970721,7.398138336674894,7.985957881129127,9.418161147781579
34,2.0645418311824435,4.633239797109333,1.8788214611196568,2.098173895394378,-0.22635469802880825,4.327013507658953,3.3047166867238262,8.977802209181913,21.161355678362945,6.130924143902511,5.6481266962590855,1.7780075874570729,3.481373320905902,5.603989643739356
35,-0.42437662620700295,0.9905786083214785,-2.1661563348085804,-0.4670152632156554,-1.259844722189959,4.825849981078291,5.754131777404806,9.429905356773197,14.389324049082681,1.1546639056536452,0.16510327085015236,-4.337983865894505,-2.019704143205035,0.35178288118909234
36,-2.6032998636413915,-2.585853123180386,-5.435010279658003,-2.8675558703425956,-1.9664465740116983,3.74256004619769,6.320379292612976,6.850623935826162,3.029930172308361,-4.388735393184491,-5.3831054775599405,-9.1306382014333,-6.931070080236576,-4.832161044812796
37,-3.8068216389897214,-5.110436368260995,-6.982773345725707,-4.42764418414111,-2.0989162552779916,1.4567744110323906,5.167868048756102,2.2921597819731274,-9.524058584404408,-8.846358203816528,-9.398039409499688,-11.209712325362192,-9.85298880627472,-8.516907650650147
38,-3.7244188807838756,-5.9870078147789885,-6.428851256602899,-4.726393658897931,-1.5862419193256119,-1.2627051565288028,2.927711927451805,-2.625688666907317,-19.461530124113366,-10.8601277760582,-10.757766117800596,-10.040249305238902,-9.988569247836896,-9.762554856346998
39,-2.4827770103732987,-5.157587673773091,-4.055827752713924,-3.720991371982362,-0.5674104468789823,-3.518961695530626,0.43475673508788026,-6.256693473594026,-23.7252025094314,-9.78586450193683,-9.134210032353785,-6.085531172311166,-7.368169428974461,-8.368349312806874
40,-0.5767459220473996,-3.0715832002112466,-0.690281392848393,-1.7509866652221768,0.6465959457013148,-4.584842201272956,-1.5611844796144632,-7.4550417105803986,-20.956098057501865,-5.893239751611466,-5.060964175655582,-0.6276934993372294,-2.816898997957474,-4.885897280529481
41,1.3200976298919143,-0.4979129471064551,2.5870021664872436,0.5762361701276008,1.672439941142888,-4.137589109907752,-2.612118233680722,-5.9217583467868975,-11.916375551744606,-0.2848992150456934,0.25740610959181853,4.664687948483026,2.3168693007202172,-0.4075161214613116
42,2.593897762031382,1.7472824215067226,4.798653676766085,2.5798869504144433,2.1825911044052515,-2.3542396264461,-2.65526495423282,-2.267846333310192,0.7391575399055346,5.437755221910736,5.323452668194453,8.271492777395459,6.579588461951328,3.7903418791433707
43,2.8929054114076607,3.0618170397160838,5.374905513231811,3.7156904800686195,2.0172044742889144,0.1594039047958585,-1.955220935418085,2.2152278364816467,13.26903884385031,9.655315189845616,8.788127329191298,9.28042244519125,8.84255192168639,6.62868427280107
44,2.2255959006443895,3.2226667453690325,4.30638869131939,3.7333747343044785,1.2394161178468903,2.5773703097226592,-0.9471024098337415,5.994094453682711,21.97671912059175,11.206969501463144,9.82010836960894,7.626265736343891,8.611527631553297,7.5138915535915505
45,0.9265601401639008,2.4089473344895747,2.1031513553923853,2.7331958488940327,0.1133654898512771,4.126629238131759,-0.05177826121716872,7.794430871148893,24.318441908979565,9.717366071965559,8.299735583562214,4.045756890577919,6.128098130623014,6.45253984302373
46,-0.48942254725664114,1.088093107095468,-0.41498495973184213,1.1082011865449963,-0.9879655372479318,4.333533222339058,0.4662355070932352,7.0033496759839275,19.65054820896165,5.679274461805017,4.795254099596969,-0.21868018764710384,2.2449140728609147,3.9754607075138146
47,-1.5258777391386884,-0.1830935983149415,-2.4157669173384413,-0.6025028615199735,-1.7123420526181414,3.165041867356402,0.5541435290579201,3.849397175841071,9.39536995883552,0.27680992652615505,0.34793302866468256,-3.852097998879793,-1.8711132389853322,0.9154740912899546
48,-1.880715120916436,-0.9656731627892162,-3.3330637771993312,-1.8957291764431754,-1.848709188784035,1.0237812890427644,0.3349767971957568,-0.6888135470513007,-3.4136033941706954,-4.985316629465834,-3.853115198390099,-5.8852352296016575,-5.103544003405242,-1.8748234748762476
49,-1.5370832813328834,-1.0805276843229592,-3.032448888830931,-2.458816636989585,-1.3952499651315444,-1.3950712273928203,0.011887214326419263,-5.206834155934058,-15.057175359009666,-8.724853414484478,-6.8014946623544015,-5.961751669031597,-6.701510499832469,-3.769177798029572
50,-0.7407902550606951,-0.6403403165561691,-1.8139161758945168,-2.247340128293885,-0.5512736801692261,-3.3332957731004345,-0.2371582574772285,-8.321057926826104,-22.237537604096026,-10.06074735314807,-7.914954927749647,-4.379159785092258,-6.452930681194104,-4.504625246289335
51,0.12032042747640953,0.03039573348161355,-0.261480640141543,-1.4659715965155824,0.3626262075928157,-4.208877402376284,-0.32811443494916614,-9.09332557641365,-23.030967784855616,-8.819717758756871,-7.131009038967193,-1.910162914311333,-4.6767383789598655,-4.181176282972662
52,0.6833972732734362,0.5486432299623634,0.9969925526582593,-0.46744406262464616,1.0252914921029346,-3.7892151132522827,-0.2796519235268599,-7.302098795785846,-17.40655149012372,-5.523399714444647,-4.850338819079376,0.5148954242143255,-2.056601553056941,-3.1460123473365167
53,0.7567576301443465,0.63639582884826,1.5274741094600315,0.387861005679961,1.2311164110877104,-2.247334500806834,-0.16881753564169966,-3.483142407490558,-7.170834876431908,-1.1795872504193077,-1.7670737921383832,2.1427298529539214,0.6125307080247903,-1.8211677262305834
54,0.3883878477029152,0.23160617730177288,1.2379581089018115,0.858480606715185,0.9587264297270139,-0.08963679446942638,-0.06437136187861686,1.261136130616544,4.624583568370847,3.0414823171325107,1.3480038218512291,2.6312720964737237,2.673064655346054,-0.5461096777228472
55,-0.16802573597071055,-0.4933914668677949,0.38666930533190014,0.8905070474536141,0.3681333473957818,2.015436008996791,0.023592176118820807,5.612053674309911,14.616161887249714,6.13830748427102,3.842885461308814,2.11053499301229,3.76899611755809,0.5083141761809933
56,-0.5732576346621733,-1.209109389183772,-0.546381369739819,0.6087467071148048,-0.2702289926929787,3.449150732789768,0.15001087598096813,8.427564525088698,20.112056971065577,7.519355617515707,5.3092655222588325,1.0649173476102967,3.8845746091856945,1.3329862389014082
57,-0.5584150583816799,-1.5685897239500348,-1.0700817015425437,0.2409158204645438,-0.6856013878974132,3.826758055463166,0.3932815492089218,9.055187431635087,19.833627477964704,7.096641919193966,5.6190648978277995,0.09643987085628819,3.2649205471755276,1.999454565561747
58,-0.051883245203976434,-1.353651262069952,-0.8910832162417378,0.009601978291233325,-0.7131569436125825,3.098994376768488,0.7873340161439789,7.476411713240733,14.207671674286708,5.226926474166287,4.88530959909091,-0.33255786060926557,2.266789228815841,2.553267132619911
59,0.7759446029187705,-0.5705819349597817,-0.039170409515455765,0.03647312631530562,-0.3560472808418721,1.5447345915455795,1.2644221035743817,4.253699258616637,5.1459631696806385,2.542944789187364,3.379875326518118,-0.07801326174718207,1.2062736968902785,2.9381594766136265
60,1.5709189491500724,0.5417868333411155,1.1394573486222237,0.29568038128575064,0.2194175450443702,-0.3355777160167144,1.6438484564233913,0.315228508472866,-4.595660322972482,-0.25650926895324566,1.4446039826518888,0.6493897182823518,0.2618774555633591,2.99100250023596
61,1.935930939792756,1.5951866922247633,2.1184595683637184,0.6322725777292237,0.7523443969145348,-1.9856588516941416,1.682830521356897,-3.34029069482334,-12.266193183611488,-2.5890072791048615,-0.5777209691564738,1.395849975160493,-0.5383877918448826,2.5136850903633254
62,1.5998821264362062,2.195289550876567,2.404704212279185,0.8352757941823552,0.9924571207174355,-2.9625429118450066,1.1772008959510376,-5.920125424954238,-15.913508930949355,-4.097264300370921,-2.3832889211254957,1.6732396233899205,-1.255157716848182,1.391311372371674
63,0.5471421457737047,2.0916317078917963,1.7461021374089665,0.7339719518780392,0.8013575694819867,-3.0567230321473344,0.07372726708580445,-7.014044306684922,-14.891713777113438,-4.671360505913636,-3.724709939868319,1.178784942808973,-1.941013235847456,-0.29829303693084647
64,-0.9472206959875982,1.2775328513000326,0.25235140501706055,0.2776801655240129,0.2111701871667291,-2.3306873331202076,-1.4557867023672186,-6.63162132478408,-9.948781803767194,-4.401906678811642,-4.420547519742791,-0.06211310893485253,-2.560445071831634,-2.24005073322241
65,-2.3962297020944687,0.0016585269494507184,-1.6210505599363187,-0.4332422537687358,-0.5818657118927715,-1.0719117973180725,-3.0194591546823575,-5.111445982428794,-2.8948985424625158,-3.4989992476326424,-4.3692118870714305,-1.6859445854877204,-2.9671469599029043,-3.9350082582493138
66,-3.2696250962104836,-1.3145543037762084,-3.2240098300514943,-1.177659231165864,-1.286878216900965,0.3163334582283425,-4.102498855868458,-2.954056055623715,4.021897957022127,-2.212570804707848,-3.569733287863376,-3.117981584049767,-2.951524839473198,-4.8450926896831
67,-3.19186194848295,-2.224441008793322,-3.9453108925891605,-1.6933846508635495,-1.6254215572538881,1.4459069279955816,-4.2332460818920135,-0.6482788531453235,8.825011332234912,-0.7773932071962932,-2.1406619067138846,-3.78743153145708,-2.3387334769698476,-4.582696459918461
68,-2.0947516641107815,-2.4150868568115285,-3.442999993738127,-1.775334067638271,-1.4366086299563015,2.0536823697605247,-3.1636849379241796,1.4483330401056178,10.381950972719105,0.6115248790271683,-0.32188605509221746,-3.348930157906594,-1.0937969889615844,-3.074488684029939
69,-0.2640242141655651,-1.8195390598019632,-1.785308853491763,-1.3541796862016187,-0.7413849729795778,2.0593310801751077,-0.9974171669801465,3.1442904222587638,8.673427743417143,1.8016681164321466,1.5536625086403062,-1.8262495232852867,0.6148672989932775,-0.6316973335976055
70,1.7430507067836318,-0.6409606597569028,0.5529890031528127,-0.5255313691107453,0.2581477805939643,1.5602794629997079,1.7895805174478738,4.371467891935398,4.695223868905893,2.6781351869438876,3.12102943669111,0.37669770533121133,2.426885459103575,2.110559530762771
71,3.283813686645735,0.7202290075010916,2.84153474114478,0.4809283087098463,1.2448388976045544,0.7744557078105532,4.455759947299361,5.103080208656568,0.0472521593367777,3.16224029103219,4.065323974308659,2.6031636068806887,3.8800724996560034,4.37492063092675
72,3.8547550267448476,1.8093611485782186,4.341113653783122,1.3798129527924985,1.8947571890265251,-0.04343650422892558,6.203987572804923,5.282864353940901,-3.640112105951302,3.2164405850676308,4.201505211070131,4.163820995964516,4.55105749977439,5.487697518516717
73,3.27228335012699,2.277897369169993,4.558594638692136,1.925631066257283,1.9890847886126104,-0.681782912083516,6.431352097065672,4.806133945648641,-5.248113678608137,2.8507515181091745,3.525055005872655,4.570774680763087,4.196676258079192,5.1045481282730165
74,1.7414529576031261,2.0022658137564338,3.4184350692381438,1.9898436647921025,1.4898131628762297,-1.0238374860896111,4.936862769337579,3.5663094147889978,-4.5051196668075395,2.1231416956377824,2.2140047399680913,3.701700405399125,2.844122695497571,3.334214955826836
75,-0.2153060074371409,1.1183199905372292,1.2888642062502842,1.5922525826847258,0.552529341676806,-1.060393716025307,2.014631014355344,1.5477846072097767,-2.0152497921808212,1.1298254176682387,0.5787943467814286,1.8367442846998296,0.7957789345754411,0.7123605427863462
76,-1.945272475600943,-0.0391913410393895,-1.1464004604114468,0.8785622654792512,-0.5277317633291866,-0.8669966093176794,-1.6046040212732056,-1.0790087469456457,1.0154677248192574,-0.01179556311784635,-1.0247954456777049,-0.44240149073848245,-1.4542832763917148,-1.9695275363251223
77,-2.899930738428874,-1.0668193089686826,-3.1240032007000202,0.05729097638763405,-1.4176374762821855,-0.5601906199595346,-4.951469800559281,-3.9115095818786023,3.25065736453738,-1.179382935613723,-2.2905764522808973,-2.452260953085718,-3.363247570016549,-3.9225922056968217
78,-2.8294923402818566,-1.6412179419643298,-4.059101327455163,-0.675883281010811,-1.8572986187821543,-0.2512596088684277,-7.09699443518909,-6.354808564451056,3.7244601338778573,-2.2530246103150735,-3.0328949768454097,-3.6332536385000447,-4.492795516727579,-4.616564417714102
79,-1.8642694045370494,-1.6298499524016024,-3.7340371229285023,-1.1956674954778168,-1.7431262214891248,-0.012911319048672158,-7.426765389574647,-7.753247993911273,2.196641250854236,-3.1118744593346337,-3.2115270362185453,-3.7220795985114044,-4.622249655259311,-3.9438827377257297
80,-0.4522876884718917,-1.1232657386026212,-2.353015117101229,-1.4662174412321942,-1.153626366071852,0.13317383631598442,-5.825058682962882,-7.583057792440504,-0.7609169047781614,-3.6272815220957133,-2.9069932874051565,-2.8141668996401408,-3.788495979152059,-2.2359739690396103
81,0.8225819642475422,-0.3802888195295362,-0.4484587562606066,-1.5196708786605007,-0.31125910338252066,0.20849208775885472,-2.7122022920831537,-5.646197791195072,-3.9755363960421573,-3.665765534543996,-2.262261174283729,-1.3013819360336805,-2.247598674243119,-0.12933795691335653
82,1.471588956344485,0.28828661827355506,1.3213960302535548,-1.4102876386678125,0.5032067879438198,0.2564528729787252,1.075373293214278,-2.195607086966655,-6.108202761576819,-3.113577661135582,-1.4190381225821158,0.2849177091690314,-0.38033339400045973,1.6671107054260923
83,1.2914654029680483,0.648522740012238,2.406591451199593,-1.1704520253225363,1.0507498265773576,0.31724469206831973,4.524475793789997,2.0635441578558504,-6.1574971926155255,-1.9241711521576752,-0.4766655363088526,1.4639737079630473,1.4199074781653578,2.6179532642494916
84,0.4397799501221671,0.632292527591669,2.5462352245151525,-0.7924966324859323,1.211522370046339,0.4075786810416368,6.730798410795634,6.116182558491619,-3.85266452971715,-0.17468097665332688,0.5108222666984777,1.9599570030430877,2.8384132226777856,2.532812371046652
85,-0.6347581459503844,0.35148404021317803,1.834423201326799,-0.24667671060401059,1.0126178279190954,0.5111295637540618,7.146396128473866,8.896152365484722,0.20856838679967482,1.894935497369521,1.5030883150966308,1.769449133306218,3.6857507121903925,1.6056754090002676
86,-1.380521466522808,0.03382370421776532,0.6545435813713969,0.473277318511139,0.5990760347832583,0.5818874234413692,5.719162044237817,9.592040200021325,4.734169751030377,3.8884847042587714,2.428321275269844,1.1258946619938315,3.8972708940213328,0.31399870103872574
87,-1.3762134657331564,-0.09090416595769754,-0.4860129576030033,1.3012577522136033,0.1630720291033283,0.5592937536733839,2.8891578416665333,7.907283186254712,8.170718849299654,5.322240921208772,3.1531961082005178,0.38304528075179817,3.5019747783846253,-0.7792484127380429
88,-0.5166216248826677,0.095134108074364,-1.1540745253770404,2.0757798168395833,-0.13816851768645314,0.3912704465207402,-0.5503465006381258,4.187466368680132,9.24773529218167,5.74891945464965,3.4909492180100714,-0.13314125664680568,2.585684420116294,-1.2437115268156185
89,0.9248708397665437,0.5334350893182864,-1.146788723310328,2.563468243702354,-0.24204486310297182,0.05906509590347438,-3.681296422064403,-0.6370841607062012,7.4420027780325,4.904280166100834,3.2534774780157645,-0.247160535156505,1.2690865090890011,-0.9385802819470705
90,2.38603684697663,1.0041975170512232,-0.5503109179705966,2.5300361604934283,-0.19455309679666918,-0.40360055882591,-5.710739730811056,-5.28986484403305,3.1936529057907728,2.826574161909496,2.3320096173115434,0.012124247956442265,-0.29272045547349107,-0.052494200291351246
91,3.2277108020640237,1.217780955154549,0.31492241158363216,1.8370490127638386,-0.11485664865768287,-0.9046906478293347,-6.1729433513273655,-8.505728020367103,-2.2101831760824173,-0.10058454189187678,0.7744296673066853,0.4412106721721758,-1.8986506180747769,0.9841005596589005
92,2.988873199110644,0.9469977185236242,1.0350749084402713,0.5267047367873746,-0.12757287483323476,-1.3068769628612158,-5.032696367850434,-9.402807072675627,-7.052049878189517,-3.2110133992723178,-1.1767558334418518,0.7584275506107179,-3.2977097177053496,1.6769122851047007
93,1.5864901787101233,0.14551180620355866,1.2718419869633537,-1.144779701119373,-0.29346619889274916,-1.460313600982522,-2.6693645009676104,-7.753389160332574,-9.761511224813473,-5.718847827773774,-3.1108777305226702,0.7267567838664453,-4.211534579528878,1.6663688026314796
94,-0.6202119231357064,-0.9998727385246597,0.8938828909231794,-2.749504802384326,-0.5700339972386518,-1.2493805371701048,0.24546453642379218,-4.064520607072424,-9.453509051170828,-6.93899393709192,-4.542523608018019,0.2552710700403539,-4.3902052397777025,0.8714196998208751
95,-2.9318841825118116,-2.1112415766367834,0.022781432400006345,-3.803012734162416,-0.8210884614978693,-0.6408242870741006,2.937259826418987,0.5641578663577705,-6.238131988630402,-6.497462545732822,-5.048564620114714,-0.5582274341485813,-3.6901989051782516,-0.474366424575208
96,-4.545931002907809,-2.7473001694930974,-1.0197306810480462,-3.919801325925811,-0.8737684672038049,0.28339598816720857,4.731510516476177,4.767863893489128,-1.189974673681214,-4.46111434184528,-4.406104980171397,-1.4576039311834943,-2.1476401204299993,-1.9060324408388283
97,-4.844452630283049,-2.5726619758485954,-1.8386816851429348,-2.9568846710231753,-0.6007316432567812,1.3241233083206512,5.218259033040147,7.331194907414189,4.015973299764941,-1.338630777728647,-2.683647445274993,-2.119009014506272,-0.01419563824391927,-2.8970465716573353
98,-3.6279885644208827,-1.5045491643343873,-2.1157074925466888,-1.0914224514274655,0.006995216563802885,2.202030479611397,4.340014569278079,7.560484400554512,7.6771434480157525,2.054703752296786,-0.2497761950632272,-2.2677461342404692,2.2690964181792297,-3.0519577943507366
99,-1.207206199564151,0.2229988622021483,-1.724804145794687,1.2027203532600537,0.8096034608301974,2.6295105885993912,2.386684544377144,5.494880270131267,8.645395227918957,4.830295132586858,2.3107098286266625,-1.779259267269211,4.164881745342576,-2.251426270324027
100,1.6849209822832172,2.1092884549006268,-0.7729309893580395,3.2809853461621112,1.5484793609838279,2.399874343204352,-0.09514442249950214,1.8864031573131999,6.714212581944887,6.285264431220508,4.352525386467854,-0.7290916476171443,5.179343557218377,-0.6982864692843541
101,4.13294181348113,3.541408158933457,0.44511114011631403,4.521469721803853,1.9310590781507557,1.4667844554391896,-2.45130187078084,-2.0471984703724346,2.675147727856397,6.104513075623765,5.351639990688929,0.6244893308746974,5.008366537295601,1.1496747152298223
102,5.347706104178909,4.0025755175586095,1.5556371497655255,4.524050091686563,1.7421722930653685,-0.0144379161431798,-4.08812878204198,-5.018882363490811,-1.9755505323700702,4.441050736336855,5.056707637069383,1.9179971090815153,3.6420551395674647,2.733757563724762
103,4.935433950097854,3.2610094002865546,2.235057520662531,3.2480551880746744,0.9402683846619655,-1.7033038430952279,-4.617928201662568,-6.090087415917688,-5.574997978285856,1.850248670916064,3.5621540165203136,2.7933315254465128,1.3890828011485334,3.5790721427449346
104,3.032197721810076,1.469525084903044,2.3112967558003947,1.039252618572014,-0.3008906667683933,-3.1512718127987536,-3.9474994604974425,-4.973231233537816,-6.884331637825908,-0.8973935673169857,1.279438318554197,3.00482147947557,-1.1935908345016841,3.4454188213970434
105,0.2569396487325924,-0.8642894332927155,1.8044669441420325,-1.467060964116758,-1.626810378302338,-3.9224489085694945,-2.2903739910909424,-2.1188832734280805,-5.52155385887963,-3.0602802186693117,-1.1844364746963576,2.489158013216059,-3.4492980662018233,2.3946725604441363
106,-2.49936245474671,-3.0320814082437115,0.8991509158701763,-3.538348231529157,-2.6075508802951703,-3.7246303669813274,-0.10223249909626311,1.4419367565871892,-2.083282134157632,-4.144749935758788,-3.202587654900498,1.378579020553998,-4.805370837314415,0.7566244624047203
107,-4.373346654950732,-4.353028423435436,-0.133495255736406,-4.57115950974299,-2.881066916873473,-2.510731700099425,2.04244275558029,4.448544706745353,2.085797357505767,-4.028927277786247,-4.3030473124392445,-0.04309948237209751,-4.935603520893933,-0.9887115040484333
108,-4.812947647095593,-4.398981356293188,-1.0295161836176283,-4.277888471803205,-2.285373868175363,-0.5164251287346906,3.6003133145034516,5.837726582642094,5.390364659278661,-2.9568476921949474,-4.289602890291955,-1.4242880236636692,-3.8505704366062727,-2.367088405543363
109,-3.7483765281798767,-3.138859774547243,-1.6065243548796966,-2.7730906012365906,-0.9310972275541858,1.783032668435315,4.197217726018445,5.1041207915508,6.567953617654093,-1.414610875478121,-3.274890481315795,-2.4414757536119813,-1.887594798811539,-3.049876523648763
110,-1.5957056729387886,-0.9521987720937554,-1.7962764403262301,-0.531944259593206,0.8153011426464252,3.7900197275909013,3.7189658621179813,2.4724193385315782,5.147789425750282,0.05962379161544455,-1.6214669400090211,-2.878827836766266,0.3955186783415516,-2.9340422859286526
111,0.9017078542983178,1.492968283181351,-1.6329983877765282,1.7640344645770287,2.4368027464219195,4.945875103608661,2.331899121069197,-1.1770861367049303,1.620496999499485,1.060366835479656,0.18408707633897495,-2.6716221300181004,2.388046803173349,-2.143474149958563
112,2.93297896883958,3.455947078546673,-1.2128014334057557,3.4420281717424244,3.4273227924304885,4.891165476045443,0.4289274271086595,-4.6048418012568675,-2.740586091405402,1.4299208764544669,1.6797490481617532,-1.9068831646219988,3.601524219045667,-0.96163815323858
113,3.88777496526739,4.359474829575716,-0.6479015566527029,4.043047111544998,3.4562086210421645,3.577592767385654,-1.482972509124185,-6.630208680707618,-6.339938988113088,1.2696148010159334,2.55178135279323,-0.7875444257336576,3.7984266116818546,0.27272150691166563
114,3.5420206326668713,3.967267070903637,-0.03588885632190238,3.452001562397063,2.4800607694885497,1.2964094514569597,-2.921677647926957,-6.5299999542311555,-7.834837357174747,0.8537281182300535,2.698756629211031,0.42501533413067616,3.037778052528237,1.267527012123211
115,2.104089075463306,2.4463037329957777,0.5478325676822914,1.9146064841583965,0.7632957418873824,-1.3885416078079384,-3.5560645163202835,-4.282721957352082,-6.617740791385172,0.48858624838958636,2.224074540832332,1.472914218996697,1.6298481636125077,1.845170923426352
116,0.11556094228958745,0.2979448588198413,1.0402606871010973,-0.05846759005359636,-1.2004244497424434,-3.787405157252535,-3.284618113939068,-0.5767397006373262,-3.034339601344341,0.3769029245944715,1.3696932201735106,2.15406212319461,0.021627389567267584,1.9620942406322293
117,-1.7496520374709885,-1.8136020820095464,1.3782395415400694,-1.863354133419395,-2.8403479590992275,-5.270883912236436,-2.246553289784512,3.418722212302369,1.7377969696818207,0.5408521526999825,0.4211336288918994,2.356410823968667,-1.3451290190099292,1.6856202810006728
118,-2.9131055870654072,-3.2745240886154097,1.4973636327659625,-2.9916445815798047,-3.6844282763766625,-5.444301756713881,-0.7660909085494215,6.440329975905788,6.102680671103311,0.8302830935953684,-0.38136097320552936,2.0713882254567744,-2.1569924925219226,1.1470402397465655
119,-3.068992711153491,-3.705461420102486,1.3480402164344316,-3.175555760860772,-3.5017622235325048,-4.258930914482891,0.7497462277692999,7.543316756258251,8.60082785367422,1.006554808630994,-0.8985091385194528,1.3876119796262842,-2.2980045547086076,0.4931781833204943
120,-2.256947108007996,-3.059849380731335,0.9226158409041302,-2.4476774116536415,-2.3669525505239,-2.0275446162879933,1.9269673680114494,6.40181095603509,8.407699299985332,0.8623106732631347,-1.1035614101357634,0.4680208512491748,-1.8512221559429256,-0.14757704672076266
121,-0.8165303255064019,-1.6119485297617042,0.27879301608554585,-1.1039619372769869,-0.6284345415430586,0.661445707486795,2.5197347410011472,3.3995622824088008,5.602384639058867,0.32485992411089204,-1.0559840473870412,-0.4852405975774659,-1.0421475783351613,-0.6797752868224937
122,0.7499831713855554,0.15267970687713653,-0.45639115463384244,0.40977275807656643,1.205606231464604,3.107272974907041,2.459741443979074,-0.5129320968897267,1.119232495150397,-0.5000957101223678,-0.8553355587237274,-1.2725399317295212,-0.15030838485891415,-1.040824221468273
123,1.9524487074514807,1.7015673659866573,-1.1102955353123403,1.6453859024275297,2.624465442794666,4.690546272533517,1.8510406982154235,-4.139639786966387,-3.5903800120676705,-1.3615347328240535,-0.5964536995075149,-1.737891077828847,0.5790111709228467,-1.1958026112074527
124,2.4647613719233417,2.618474063777901,-1.511961977771961,2.2851166254929054,3.2644784492263312,5.041266116244495,0.9187179016427203,-6.425639477336652,-7.058163850130394,-1.9582500276341306,-0.3417221532844329,-1.801327241050446,0.9963574144316897,-1.1350464521574395
125,2.2075902373380925,2.7148835049328683,-1.5472333667099218,2.220320693836732,3.0054793088830607,4.132618690838937,-0.0676940629555793,-6.779386760335575,-8.281699921455775,-2.0566679613177277,-0.1159961941952458,-1.4749800116708656,1.0694900683895718,-0.8767498722773442
126,1.3436114699183856,2.060690230421484,-1.2006748465612218,1.558227205529442,1.9882133693833388,2.2744979400003245,-0.8707324808203271,-5.228706533823226,-7.025345090531642,-1.5840131271156745,0.08048925277886713,-0.8582197663818854,0.8660387072502066,-0.47087789420270354
127,0.19751163279403428,0.9332725656138795,-0.5668077759655051,0.5631630391361014,0.5530960241316433,0.011176008670799122,-1.3400396149197265,-2.369608068773014,-3.8469713422142484,-0.6605292793718694,0.2522506938226273,-0.11201455769639773,0.5107097299690835,0.0022180910305339024
