,AF3,F7,F3,FC5,T7,P7,O1,O2,P8,T8,FC6,F4,F8,AF4
0,0.3012157648115543,0.20534843488715968,-0.07310213567259057,0.12264428888567536,0.10062144851256538,0.16546425663805622,0.4483843817828848,0.5252557413323312,0.0686182298061704,-0.014365237377161454,-0.10478714670893209,-0.05659450016707052,-0.0320435012792728,0.044919749069444743
1,-2.4539695589029935,-0.7061670234330769,0.4887630654315009,-1.6394017464621682,-1.0142520657690515,-0.575757725122341,1.1569936481788539,2.435673296693714,0.39882999405370234,-0.8727117388528681,-4.405272213521983,-3.441807612623771,-4.143065295592546,-4.635111507997577
2,-4.432847505980559,-1.1572873927115594,0.8711174289061729,-2.7742494069174817,-1.795544681777293,-1.1736992673787858,1.5670007482877664,3.637992553053241,0.5414583779230383,-1.4874302290224573,-7.471215668257068,-5.740907460603656,-7.152951338599806,-7.95499622242887
3,-5.14124282518849,-0.9345488856808678,0.951647819556654,-2.936368027888409,-2.0631011955746015,-1.5067103320952262,1.541597183601992,3.7260776723717286,0.3724799436483323,-1.7718352810210567,-8.55082966098596,-6.361611589078903,-8.365633419575248,-9.053118297821214
4,-4.48191820713714,-0.12359401724460126,0.7149518780924979,-2.12528609850541,-1.798568123828818,-1.5279976092739997,1.0605693464412282,2.6351846233907628,-0.11549900773931261,-1.7313798196939565,-7.476865478248837,-5.257227201311897,-7.579488240640195,-7.745579841289577
5,-2.7626665956208853,0.9212125581877894,0.2558531102014756,-0.6764615780300643,-1.1399748990212817,-1.2733068031070747,0.22528293523385903,0.6625968892621236,-0.8036087871682156,-1.4454561635097556,-4.685315885709506,-2.9118231014510068,-5.117207438993293,-4.552046204876523
6,-0.5731634990840204,1.7182743440231407,-0.25646290325510035,0.8673977529628664,-0.32564573138273323,-0.8418346874186285,-0.7667519112943483,-1.624234253537801,-1.4797006723004615,-1.0262459725430628,-1.0478002050653,-0.1459581102772946,-1.7044075674107393,-0.49795713857107315
7,1.4226702758165983,1.8569215066318843,-0.6401952964693398,1.9566434634746295,0.39178593996803646,-0.3577964578534556,-1.6701890073997505,-3.560794164567835,-1.90320791241038,-0.5720666941828377,2.4188721437570666,2.181332949026277,1.7587015022858266,3.2324473383726273
8,2.7039497394893277,1.1741943671209716,-0.7660265239621872,2.2327653422246305,0.8303256973275381,0.07289932312434295,-2.2508110721890677,-4.583873946538575,-1.8815105699616992,-0.13480796855820087,4.864115247137354,3.4631264306940635,4.456695575857344,5.669908490681147
9,3.0444181404558006,-0.16115303640085107,-0.6020689917656312,1.651827839217344,0.9325139549726696,0.3946818365387395,-2.3414315687445755,-4.393666745284613,-1.3346372116030514,0.2849362453499178,5.832889181293414,3.523466243392524,5.868260528733407,6.3350890562633895
10,2.5498127815033134,-1.6940128609869345,-0.22275266084085557,0.48917127213874695,0.7700907172963516,0.6112117357235917,-1.8825566917968617,-3.0324674816281316,-0.3292705316454491,0.7135292627107188,5.3448803249441665,2.626036961297505,5.866313901588887,5.330136993960672
11,1.5760013577257663,-2.844364780037064,0.2209465172238034,-0.7741601055956309,0.49980562900492465,0.7682695327526087,-0.9394569200226883,-0.861220467691349,0.927900609044509,1.1626928035506217,3.8125530792716185,1.3207020921830732,4.690102547840624,3.231274252352239
12,0.5665396825591236,-3.125825242064859,0.5584583122132544,-1.6387651572519617,0.2891912982199049,0.9181539909674238,0.30764895903030337,1.5527425589175736,2.136375038834732,1.5916799586781318,1.8443425190458391,0.1970962689715231,2.814186079963891,0.837359499617621
13,-0.12421819625993634,-2.3386535771208834,0.6625821915636702,-1.7765312582629371,0.24245999853142905,1.0809932891732623,1.5983496368439323,3.5981506438681405,2.9762741909315085,1.8945964836129365,0.0156165361133792,-0.35322583526596485,0.7707963722715877,-1.1242301310432485
14,-0.35479736443516224,-0.6623732839782452,0.49547434573198174,-1.1512501855993293,0.3564502486478343,1.2205635104118426,2.6451605611370916,4.7826006687844185,3.1925304916482657,1.9248432825690056,-1.3068518433082876,-0.27292059501814153,-1.008940605745599,-2.2264844076071753
15,-0.22350159885973594,1.390175520189719,0.12125187403478387,-0.025927566907156967,0.5245948910185864,1.2474236775493999,3.1949511498176757,4.8507036034054405,2.6674789134491745,1.5526173049218637,-2.0304559320657325,0.17520423199438864,-2.284670409811737,-2.4318392896364136
16,0.005384098611177135,3.1438067706394905,-0.31875746916654946,1.1439938303424864,0.587612041643894,1.0517048297751928,3.0866720972454056,3.830039368874718,1.4625282404151079,0.735049236709721,-2.2843612319863578,0.5584323243567674,-3.0091772055775694,-2.0252537203025534
17,0.04050407303767488,3.9962583513105465,-0.6584602500665448,1.8890129885876203,0.4104407386043867,0.5553900158733743,2.2932986469274335,2.0007378290451316,-0.18368321351990682,-0.4309927007278529,-2.288636365740347,0.4915932206142261,-3.260856589965025,-1.435026574727893
18,-0.2923605347629747,3.6323535943985332,-0.7676487929738014,1.9065161974684166,-0.04653504827560161,-0.23575911155729526,0.9379857201547825,-0.194012435304055,-1.902974954187012,-1.7011507784991582,-2.2122188119450055,-0.1728526650233622,-3.1488962929620246,-1.0238874476862787
19,-0.9607538152754647,2.1388470507075987,-0.5988370173631725,1.175352521668774,-0.692878012252088,-1.2031488835143285,-0.7213171210448037,-2.265739799359678,-3.2818972620987026,-2.734051128670605,-2.0851404570472134,-1.2632409550728456,-2.7393939426131744,-0.9371678904526443
20,-1.727352606737954,-0.02192098038632739,-0.20375601866260748,-0.0385411136359764,-1.327385381699129,-2.1256150307956627,-2.338547061865236,-3.7933226088786967,-3.9633332662495255,-3.191010329192837,-1.8012338371260561,-2.3504215726945836,-2.0356396026791987,-1.0651390831392946
21,-2.2426324715691814,-2.169763156860534,0.2856964794037376,-1.2859005175606502,-1.707305504410122,-2.732167496958005,-3.550430200848743,-4.504322968493214,-3.7405199664598565,-2.854530399624405,-1.2043965412247961,-2.9274677168840677,-1.017367641381943,-1.1263656894101688
22,-2.191479074649816,-3.63840481726154,0.7043863063212995,-2.1061212681581583,-1.6428106026899607,-2.7843674060419907,-4.058160916960222,-4.312084033173582,-2.6189970671493734,-1.7232365093698128,-0.21299686724250871,-2.632680776508054,0.2856598275826577,-0.8288197125325204
23,-1.435104311555567,-3.9980182444914814,0.9113799420716879,-2.201066184703202,-1.0801807940596115,-2.162555298112197,-3.702047035212704,-3.3095495829170565,-0.8286544999437814,-0.04432373153621685,1.080737776770339,-1.4223211279950505,1.7282707626564622,-0.03510844121276285
24,-0.09067568385453592,-3.190276152970532,0.8374038715260944,-1.5446508179884568,-0.13926438450120138,-0.9254671834497987,-2.5104484737514814,-1.7307838125413193,1.2204415225391856,1.7365686310640243,2.389332228462228,0.38135489240645437,3.0338866158443234,1.1414221735923498
25,1.4857133843701393,-1.5310420048368,0.5062093163335281,-0.3875624889008139,0.9132690113417083,0.6811617942707744,-0.7080219113074949,0.10494853992482149,3.030994167912798,3.099780129085402,3.3060184419315943,2.191616204890211,3.8487457531589624,2.3530127432538697
26,2.8105233454126646,0.4153469592288512,0.023648495014317244,0.84305753450749,1.7491746139337072,2.2759103138655346,1.3234390069714606,1.8533868439251269,4.139913422204716,3.6142196802491533,3.4543177621220456,3.372865366185327,3.8559073683762244,3.1426629635238004
27,3.4401920654044775,2.0402593115946854,-0.4601452875480584,1.7090530504645554,2.0933571600952825,3.441785645635294,3.126741096160641,3.2012439251074256,4.239231465585389,3.085041434577382,2.6529102063528396,3.4876391423609774,2.909139992515009,3.1293963416582815
28,3.1335199694773856,2.8971581151436148,-0.8011073956508217,1.9273775634369932,1.825850572021127,3.8463874401286584,4.2766945415021125,3.913750786349967,3.2652981401074874,1.6341973707295179,1.0258157479208423,2.47706276881323,1.1316392611047241,2.1789770899796603
29,1.94797997405642,2.836494995768352,-0.9064235665290697,1.4727910155701378,1.031458439690539,3.3445733616036875,4.487191239256103,3.8714190378666977,1.430595362874095,-0.3188116497208113,-0.9951796322339008,0.7001266619076866,-1.0689534492262105,0.48887807151133184
30,0.23179913838469252,2.0250834537527984,-0.7599223450433035,0.5780739878842341,-0.024303439096330724,2.029756324872743,3.6892456987647657,3.092781471985813,-0.8147856853278953,-2.176261239174993,-2.7891374349253546,-1.1893240092736612,-3.09030880457365,-1.4520494906122758
31,-1.4885075747359415,0.8508613302811565,-0.4209485325706529,-0.36707155883020876,-0.9868808973813469,0.21542946127573367,2.0567706114552604,1.7379195135961298,-2.8875605117219445,-3.3473205854524086,-3.7511524575575335,-2.485548440979947,-4.311785754481506,-3.02075691193912
32,-2.6865734473388714,-0.24329963510427802,0.0004908707414427136,-0.9774471314117265,-1.5396135487394618,-1.6491872252861803,-0.03011166263900117,0.08705072639397733,-4.219139656863273,-3.44014076609669,-3.5125709801409424,-2.7028045109710996,-4.302864166846423,-3.6795405875183547
33,-3.0167868534397138,-0.9288017729998063,0.3818609211839445,-1.0293480385978258,-1.5188651678852487,-3.103963775380125,-2.0772233502063284,-1.5086711820180094,-4.410850263940434,-2.396895165722304,-2.093529748378707,-1.770838883063465,-2.9902527041132796,-3.1772191498483053
34,-2.431571784169653,-1.0985755759416813,0.6257835685118167,-0.5501477647785543,-0.973429426660571,-3.8045368900265335,-3.600754606632878,-2.700251532757661,-3.3550659810592403,-0.5246318280674382,0.07454740095071623,-0.07519229202308503,-0.71801286071917,-1.655250526823542
35,-1.192591190402229,-0.8754978673341329,0.6853231133147726,0.19569296871365788,-0.1446447349212165,-3.6120811192704845,-4.250742865911085,-3.2249210849420167,-1.286217414626494,1.5915173068551325,2.2735590664727967,1.6784693229891035,1.8315829718819032,0.38467009421715576
36,0.2281488680479099,-0.5263267656515459,0.5705492371987854,0.8190693837168689,0.6263085816524232,-2.6202936078692014,-3.8998896856357157,-2.9802095823408346,1.2586647446469665,3.267288226259648,3.7337350342862754,2.7293446053273933,3.840667793742673,2.244766541037585
37,1.321119699836335,-0.3230544581121079,0.337061292228639,0.9725561702526179,1.029351738922575,-1.1148964845970137,-2.6733066564564614,-2.0639548313329654,3.567404299897397,3.934247443946638,3.900194462509146,2.558231327132777,4.620480290973775,3.271747247204891
38,1.7231038373358296,-0.41265165443508695,0.0628966280511674,0.5040400265931502,0.90503167507613,0.5172915488343813,-0.911135992182894,-0.7610461465341697,4.941073057526752,3.3226426580375916,2.637674461022003,1.1038338916937944,3.850600872966212,3.089444404988267
39,1.3455478767554176,-0.7499044547124234,-0.17708979745538447,-0.4647947798155634,0.3069512092443671,1.8980885243439352,0.9254544562001249,0.5288612283943596,4.8963724085646385,1.5543817844304448,0.2989285700662252,-1.1858582451486734,1.708815276161979,1.740379008972039
40,0.40148179885871316,-1.1199292152289606,-0.33111115672765695,-1.5689750926798152,-0.5169940893506747,2.7521606258865416,2.378950023130402,1.4092402084206181,3.325891458276588,-0.8830184709302593,-2.371902137752677,-3.4918504391467886,-1.1590148763880408,-0.3160163861754063
41,-0.6781143292574492,-1.2390506708456144,-0.3797445200403651,-2.331582092221571,-1.2178946285964207,2.9604725546572572,3.1167095512525353,1.6178442716436163,0.5656582571431166,-3.273737953098433,-4.473089784560746,-4.907151185440606,-3.8274332018680615,-2.3512801222046353
42,-1.4079460573615175,-0.8905015260796794,-0.33411616296868357,-2.348452072930597,-1.4788373072438368,2.5640738340211193,3.015687873600171,1.127585778071211,-2.6599037576850733,-4.881084846224355,-5.240934418352493,-4.765740443181555,-5.382828339683591,-3.6139096899010084
43,-1.4330504644775108,-0.03746760884234379,-0.2260471459855044,-1.4570120728460514,-1.1380610524151127,1.7261242631901497,2.187542113210805,0.1763736296489444,-5.413407811233334,-5.164065871622274,-4.309719777797711,-2.9003126483431845,-5.225510290852305,-3.5909021301335766
44,-0.6680304503047229,1.1346592110519624,-0.09500030139194546,0.17596106490209573,-0.2565072139447149,0.6713008740702191,0.9371928196669175,-0.7961204142253234,-6.80235439829751,-3.94077767230539,-1.849167594282426,0.26488809367448246,-3.2829518890708314,-2.19564952513402
45,0.6596266944157637,2.2666087217590807,0.023585173246237722,2.084483538797256,0.8953248250805803,-0.3755779410113309,-0.33363800257766263,-1.295999917248018,-6.252106120099174,-1.4526947236453362,1.467908538302638,3.8230384781678852,-0.060551976249192535,0.18350890347123186
46,2.0791124144232374,2.9480589642667945,0.10569284857597025,3.645795830288264,1.9268512408534069,-1.2349590305901337,-1.250349835252754,-0.964896602670573,-3.71363045204972,1.6877467726306568,4.660025495161782,6.662686538387063,3.49272065970283,2.7939569541223572
47,3.036268343665277,2.869526657362707,0.14117085912825997,4.2884030681024665,2.4615720357600486,-1.7945918085429737,-1.5801363730259659,0.2534701279285302,0.2646953508101209,4.652138450044274,6.733594586505989,7.823727199254932,6.266667103579374,4.755648608932212
48,3.0897782668097906,1.946169997110637,0.13227891887679163,3.6942360167098145,2.268926248378374,-2.0101252901987063,-1.3017005760452567,2.037577302795166,4.639115691931669,6.6128951068533866,6.989216185254942,6.813840450503375,7.334115523915388,5.348613839094751
49,2.0762405915767053,0.3663640525458016,0.09019929293217989,1.9238523657472617,1.3483096055722528,-1.8922552598197497,-0.6063504215386928,3.7472973289219076,8.13514063207454,6.965775033885151,5.24258488615384,3.7812315318641745,6.24920098220668,4.257673694727785
50,0.1865832840003988,-1.4545507400674902,0.03118256152938597,-0.5808974856796042,-0.06316999707441322,-1.4899443024885726,0.172482229631718,4.617474346996064,9.611426115174114,5.500913444561117,1.8921175390145335,-0.5125469202857175,3.204455172322015,1.6935206660590614
51,-2.074400870608351,-3.0004811212192792,-0.026800840739772173,-3.120759179432485,-1.56144705750847,-0.8768738040283575,0.680589304934423,4.033762095387648,8.420786063032361,2.477677048995418,-2.1867532203559716,-4.910426785797162,-1.0052284206865194,-1.6515963291288565
52,-4.034774169115912,-3.817343282496355,-0.06689464115802599,-4.95053442858372,-2.7009517988292315,-0.14381504087048264,0.6755890264310848,1.7991273676344595,4.65544778306546,-1.4184734630954303,-5.887785854831162,-8.198283837581142,-5.203700409083221,-4.802530797338995
53,-5.062488463899939,-3.656598171842684,-0.07611607569429445,-5.509574864016088,-3.133595755540435,0.6049101301292754,0.12431359394001412,-1.7108654564679437,-0.8119725383363046,-5.230827383107337,-8.186418787859376,-9.457737184241992,-8.174188458797442,-6.793834063667833
54,-4.766716141942148,-2.5515735893839446,-0.048304942132991004,-4.596621124157915,-2.7167158573052363,1.2555816975057719,-0.7724061764834773,-5.578956914847596,-6.524512993548577,-7.964340102913209,-8.426725431925998,-8.326000949716885,-9.017111344078426,-6.965880324112295
55,-3.1290825761164625,-0.8030084782160387,0.013139280358593937,-2.4332417960991077,-1.5564258292726785,1.6948122883253154,-1.6415280471512632,-8.579504194623398,-10.834318183688033,-8.842219556274094,-6.50147312922584,-5.088368153088181,-7.417893879832706,-5.1728768952929665
56,-0.5228890451678969,1.118078486432822,0.09387314345611425,0.4027664515312885,0.025841931606408478,1.8273782770883533,-2.069615803564602,-9.558094184505032,-12.387166342055973,-7.5224413294274886,-2.8777630739095605,-0.5832709375718498,-3.7456134834879182,-1.838630014194516
57,2.385939364036197,2.7147174669889464,0.1700092462745521,3.150321578526106,1.5913527546334656,1.6003323982688604,-1.761228971182156,-7.840936034528373,-10.553319588772514,-4.21562120929,1.5335474673846927,4.042843448830413,1.0453127998030642,2.156962134940992
58,4.825473949024636,3.606371779317918,0.21320140542165633,5.08742277613804,2.7146574895771076,1.0269087788679405,-0.6673772090140128,-3.5327776498191517,-5.665269805907201,0.33416262431725424,5.6230153571938155,7.651600893019735,5.679837442772422,5.7261491773092
59,6.13490806656622,3.624349678656465,0.1989742741053191,5.732702567720711,3.1058365951216778,0.20066818964260094,0.9657772865025064,2.4141261178619104,1.0258312596683206,5.011760997490197,8.37191023125097,9.405854994471406,8.915297894642192,7.88181584035086
60,5.947478858993714,2.834620580673031,0.116175229076459,4.966152548510944,2.6877850269329415,-0.7094380849760042,2.6524162608275956,8.409108301900893,7.679334181952346,8.60498814535046,9.107813324992563,8.96091963656648,9.881553782802335,8.015343691125818
61,4.287206984087729,1.4892588655963785,-0.02582129549029671,3.038237278508667,1.607533892140199,-1.4881444859434427,3.815202503318185,12.667129931045055,12.3928408858422,10.124971861708126,7.66282245777517,6.511990300402356,8.31389917304524,6.06430255279237
62,1.555529208601305,-0.06813000818614455,-0.1956016496423882,0.47396616017558935,0.18202455304291915,-1.9245656025761155,3.9803021408019608,13.759649018789094,13.772769047327131,9.087941316115913,4.4002676702080885,2.7013311443192562,4.6175450384762,2.5249130903643437
63,-1.5824909740707682,-1.504880178851244,-0.34589957409811173,-2.08915812960767,-1.2011690277027272,-1.8732897684253533,2.9536263234503264,11.097240936859755,11.370109676183425,5.676153062866022,0.11138025417837852,-1.5724615007000038,-0.24894663278906634,-1.6894937017895952
64,-4.374499042693161,-2.574125713144233,-0.4268278510780013,-4.07373952702465,-2.195300535032018,-1.3079723681222961,0.9149414455902997,5.179144820610005,5.838906691815472,0.7227997239956049,-4.185000801121591,-5.380089466617905,-5.034208463457915,-5.4990136974118204
65,-6.167595158779804,-3.1425819700850743,-0.4025253372902514,-5.093682882472688,-2.5841010573678,-0.3478981002261085,-1.6086449771111737,-2.4877387852635517,-1.2415738845233464,-4.487650654772219,-7.486357812745597,-7.960480615581708,-8.524408559243504,-7.943250866180742
66,-6.556334878473605,-3.174153342178326,-0.26552993019462934,-5.013014848159254,-2.3254323967435155,0.7568646888893293,-3.888627124799593,-9.793709663473104,-7.833919964685549,-8.558450932650254,-9.03547004381937,-8.851301587148747,-9.85408263138397,-8.423964522794508
67,-5.46017698261515,-2.691408650586921,-0.04310826170085042,-3.930538278662408,-1.5415398342563973,1.684639783769464,-5.218032838519724,-14.64129839820604,-12.057555063743106,-10.368890731760814,-8.484788257852005,-7.9380187997061835,-8.717820156401432,-6.842834829837446
68,-3.122464877087109,-1.7444700530421613,0.20794889487001125,-2.1139836743954867,-0.46607588009034684,2.1337648064678225,-5.140432685187712,-15.583069470983549,-12.75957313477701,-9.40105137242078,-5.965311564187137,-5.434149571972664,-5.4332475286272075,-3.606332296289357
69,-0.04404984840266561,-0.4090788214480012,0.4175240180275021,0.08081233776980075,0.6297484544207453,1.921387762352181,-3.6087986467348605,-12.280253773598265,-9.860227850701781,-5.905662045077449,-2.051485136405307,-1.8187276435967425,-0.846461963657447,0.4926491154108345
70,3.1240448158674026,1.1843326126416007,0.5244934508006265,2.2755366172779286,1.5066127289031108,1.0573447867058146,-1.0185189105085726,-5.631480119783445,-4.362104705057643,-0.8504342062972301,2.3658568091430636,2.2449528306840074,3.889309699240336,4.476563360485528
71,5.704340462318858,2.8115679913244467,0.4974455696425989,4.1080122596568085,2.0033067380174487,-0.23558050279540338,1.900936541727256,2.4773651704395436,1.9804738094671388,4.343117748555069,6.271179868061986,5.998150692678941,7.60245173709523,7.4135220652137415
72,7.115175880650516,4.14060932150572,0.346021795167452,5.253014129585252,2.0530421010428723,-1.5695934231107012,4.30456065468415,9.731117741233154,7.225368980624636,8.204132379105042,8.743878436095232,8.686023055892573,9.38772936227722,8.622742905373137
73,6.980486430608349,4.773918249331093,0.11814830910888383,5.446777931862097,1.675326986600932,-2.501115030014262,5.4920877892531745,14.080768669963671,9.85745420219573,9.641999704134877,9.164911745503737,9.675631381760608,8.820907702009778,7.815389681382006
74,5.217414289148419,4.355814816987026,-0.11642330627978456,4.533124292398561,0.9558573405692196,-2.6721750172488075,5.126366055354281,14.359937073491592,9.255353443298178,8.272662821236151,7.36970761176345,8.591537608052851,6.056027856587458,5.149770261855423
75,2.0874717767761104,2.720076048852211,-0.29053046643579056,2.530832995391851,0.02638208391605831,-1.9398038438659975,3.3386758223955124,10.628873987432783,5.859902726597574,4.539946714385323,3.711831034700625,5.447282003802659,1.7855034087569497,1.197313595583263
76,-1.8087433416713945,0.023121114670985703,-0.36289603919009744,-0.30182660587685595,-0.9500262859246915,-0.4478205885201164,0.6861502952665088,4.137677413974494,0.9926259009064335,-0.4104655949041312,-0.9860010091536744,0.7297059363855358,-2.9267926299981797,-3.171043262710983
77,-5.612498160314543,-3.202457065878313,-0.33135088276874086,-3.4453810572026216,-1.7911318626488668,1.390098461201829,-2.025364368949625,-3.0790205264502504,-3.611711877461157,-5.072032514216567,-5.596656707223284,-4.614995525268004,-6.901775805853083,-6.958904965514511
78,-8.369723091509854,-6.121909989101308,-0.23074483573353102,-6.177401014802581,-2.3130767667255347,3.00000724091145,-3.995647683958297,-8.846246928245785,-6.399741906486102,-8.033481084738852,-8.944998546282843,-9.329290032872542,-9.132665557043142,-9.251746231445122
79,-9.256847285951611,-7.805242534162417,-0.11630447067158453,-7.723622775497969,-2.360141721248493,3.822304252164541,-4.679138807535422,-11.525889963634139,-6.520750091298676,-8.411574572191734,-10.103503655445477,-12.123172463449132,-9.036595061838401,-9.422733380587339
80,-7.821523181837941,-7.51894377073235,-0.039123015054838055,-7.476739997777192,-1.8464298028795216,3.4986322093279023,-3.948323104027957,-10.5110227131526,-4.0993669095615966,-6.125659374446911,-8.654222622825777,-12.029372045787293,-6.608437665597333,-7.296504580952017
81,-4.168843208430089,-5.0110666171782,-0.023871370330164014,-5.220844379327671,-0.799371481829754,2.0092200782697445,-2.1198431748119115,-6.381412732835476,-0.16906981886886932,-1.9255486086939873,-4.8412328710636805,-8.736508640660682,-2.4353140231199024,-3.2302610520599053
82,0.977534261824319,-0.6839033798074363,-0.05817292071109891,-1.2806225677613905,0.6125905651068352,-0.28967133252131405,0.16269781023054064,-0.6750397465583607,3.708537210753826,2.8398075094616844,0.4423715284787464,-2.785520223100061,2.43749346862241,1.9189952916880157
83,6.3851664497477385,4.427205501090896,-0.0984938936561495,3.4754196762875966,2.086704846174939,-2.7488434580817445,2.1481183908212254,4.644145659904497,6.006225303795171,6.643580815050889,5.848177281991627,4.46185669704694,6.761370737240861,6.951530395137386
84,10.592290232485722,8.892162030845993,-0.09062553698532974,7.808711636512511,3.2379959862735475,-4.611531961098069,3.2251608604219357,7.843318918725513,5.780450716345118,8.261568755451327,9.910508918536559,11.11244778030988,9.399639583768892,10.587187121713804
85,12.29950620898043,11.290468457703325,0.0034000189942084724,10.434139384607938,3.693114220158871,-5.247414645928826,3.116172216837391,7.984683676747003,3.0166653361077853,7.160704321284822,11.445527461179452,15.236284078063717,9.624398104330195,11.78218451157202
86,10.769456961065677,10.665775446666235,0.18323104166205484,10.408777657050202,3.2052117342920323,-4.3620017589001465,1.954503585641608,5.211484565879783,-1.350425580120327,3.671991858767306,9.90136153058558,15.437216528804147,7.317375755036676,10.025177962206936
87,6.111028080423587,6.883605145697528,0.40284502340526523,7.46597097296405,1.7557246977528884,-2.111832825124485,0.223028423880913,0.6659176798787173,-5.751120692658983,-1.1082720156543258,5.553539100720072,11.327205263491297,3.019055003411035,5.529473059491043
88,-0.6562916068615827,0.7621287253466609,0.582353342285116,2.1770933123893235,-0.39475604196888225,0.9171174502922481,-1.4222910765343872,-3.927576218497143,-8.523750381256345,-5.65942306451868,-0.5231249264818842,3.7420500177535976,-2.192375967869713,-0.7467538758415246
89,-7.805856281749353,-6.0906343569405434,0.6358897240089392,-4.133324659516516,-2.7348934563016183,3.8679985699966375,-2.3822962075444973,-6.868787989542545,-8.501367159519612,-8.513366782573891,-6.71409611472254,-5.397830630977822,-6.967087278590681,-7.282267287528567
90,-13.343427488850356,-11.707617869196831,0.5058538444852921,-9.719392071302483,-4.616839723394549,5.8643390992975855,-2.3201105636051302,-7.071202307209374,-5.440594783876279,-8.718281535462944,-11.295841223578773,-13.572772289693559,-10.030662211281046,-12.352502154232821
91,-15.572042163335762,-14.344315203626614,0.1905845982792026,-12.910585844414284,-5.434237855808535,6.277942897707649,-1.2739783118540902,-4.435398086237297,-0.1432860952412573,-6.143645124641354,-12.922257715676926,-18.373753067780683,-10.524053532494635,-14.486833536868225
92,-13.619353153598796,-13.034439778476953,-0.24584825912726513,-12.628504624682312,-4.815788601399148,4.92926064882561,0.35895424712257756,0.11841462433631486,5.77538230720264,-1.5304750146952943,-11.027196132118084,-18.232053615276318,-8.245992025409349,-12.902262705656995
93,-7.7602198482022,-7.9382558877680705,-0.6870633354372004,-8.758858528438944,-2.7725926368218254,2.15511230410665,1.9612845157425367,4.968050665482738,10.399814831748005,3.7300349449516306,-6.019955442462032,-12.941148291387746,-3.72870351681841,-7.783164502862572
94,0.5828989488851959,-0.3580747433275622,-0.9980689039227305,-2.2479068297253013,0.25640841632145156,-1.2806604722459636,2.9096703698452773,8.348633698985042,12.140500795706993,8.021791186206324,0.794420753794661,-3.793371005831915,1.8811091969645966,-0.3073062356812729
95,9.186601928194484,7.603156449077266,-1.068758594965818,5.126643944326982,3.4898193329309675,-4.408567981513538,2.7935630458951546,8.963927869947007,10.267629883115289,10.00179197238119,7.559205751630439,6.734405295857709,7.112594910508306,7.615228550021315
96,15.636832040695957,13.648974178487261,-0.8526267577482978,11.256813232338862,6.008216321371174,-6.339728851706242,1.5656309627886187,6.442763284088726,5.174727511225267,9.016778934562081,12.383451167288884,15.67158447207761,10.560400146151668,13.838276238679478
97,18.03032711744167,15.980323744024929,-0.38707839141083866,14.331963687006727,7.023991126715027,-6.529024561915669,-0.4271426344792161,1.4854125915461798,-1.7169864129981305,5.309421263789612,13.885563228986408,20.422838523193736,11.269945880912699,16.580898403557434
98,15.555939452785113,13.854140612981627,0.2125220389508163,13.39864228316295,6.13501468820809,-4.934443681875341,-2.544640824176633,-4.351529764722095,-8.385795196429358,-0.049996931934840665,11.602110600190786,19.551647948643755,9.01044535760956,14.959579620442113
99,8.77177953561486,7.829396326315818,0.7842636459670888,8.672248321300144,3.477947718968621,-2.024778259112889,-4.05729509722902,-9.162064740511582,-12.832755784730002,-5.4853372972512,6.136464283318692,13.232380883609878,4.35450225827877,9.285251666143296
100,-0.5182340987532558,-0.38340823728286444,1.1671919136970663,1.494331706716741,-0.27675544633484506,1.3646355907463366,-4.388335048807313,-11.321545756410478,-13.702216721464412,-9.39034707378799,-1.002705003788555,3.222768038354817,-1.464946995717487,1.0212331641658399
101,-9.763066721930368,-8.42776818205699,1.2499896246647642,-6.059125363696657,-4.097893041168399,4.281751026936293,-3.316063181434108,-10.030955934747645,-10.70225249651191,-10.611816480040435,-7.830083117515354,-7.643130010585569,-6.886431251114699,-7.602122358445469
102,-16.3957054875377,-14.006539739815267,1.0053210398747072,-11.800681287039652,-6.889384603713039,5.93576504240594,-1.0678617693077623,-5.592451382444621,-4.69303511412342,-8.792515088579842,-12.454807340208749,-16.290333111368497,-10.45056512605594,-14.213412281959933
103,-18.57887638187663,-15.567823758125817,0.49885756461327907,-14.092117563608543,-7.820643789277005,5.91952119170301,1.7295303656630516,0.6766684712055802,2.5815631291583903,-4.471116377973107,-13.62468299232259,-20.311139370853425,-11.207967532543188,-16.984757532704652
104,-15.739703578424429,-12.758517988934624,-0.1298796909701394,-12.335693107696486,-6.587427766752932,4.312272230319942,4.233135532351145,6.863568689726174,9.030114705875054,1.0876519637838484,-11.081242999534627,-18.667071627196105,-8.986356974382447,-15.168254276799242
105,-8.730625087812786,-6.507386536085779,-0.7087585514944061,-7.1423080384598645,-3.5174730679903257,1.636947728254799,5.645532809073004,11.073648121224737,12.845399800278173,6.276578079285845,-5.620363335099299,-11.970939343022566,-4.437436801528612,-9.317930782560381
106,0.43182533453224065,1.2823983448171812,-1.083390408758249,-0.12604701382193553,0.517258803858295,-1.3095600983247553,5.472448655117862,12.034887074666965,13.03351263175034,9.62354041257954,1.1573724129626453,-2.2682993440670907,1.1522771665628344,-1.1252914996126784
107,9.169080746174332,8.328443310131206,-1.1610530925342666,6.606403399556232,4.358270794283912,-3.6977484608396454,3.6915657293209634,9.494051170567047,9.679960379415267,10.21801545454221,7.328167114822062,7.6052678365733195,6.232749955801579,7.08402555005232
108,15.09809723742366,12.661262904699855,-0.9350490401209078,11.106877626958148,6.9092605341999285,-4.904486829512277,0.7745788907027108,4.277938890121201,3.8803411159326284,7.9609815390987855,11.210393676574181,14.884094852568118,9.435050655584236,13.038766769351156
109,16.713472474283734,13.197031083544182,-0.48284948463994914,12.170708735236788,7.466468929668047,-4.679761527334923,-2.4484292171089166,-1.9933513057301602,-2.6289229836389563,3.5695878780151054,11.84258332435715,17.680164066535717,9.957865641469706,15.183900933592266
110,13.790203879468837,10.018421607020827,0.060291422854969405,9.673893239817076,5.9262674745737955,-3.195921157449869,-5.041127740307183,-7.438066029886019,-8.012161991399141,-1.656463525257151,9.232695251962538,15.493624724086933,7.781735217865896,13.113300108570566
111,7.393521509713761,4.288368073965076,0.5431244172919456,4.5638936736746265,2.804984708886429,-0.9710335413083743,-6.249096523037048,-10.50784423947872,-10.873504683275003,-6.229278243974864,4.3106666099637385,9.282369839321074,3.6493344488538644,7.644958587188933
112,-0.4936343347654086,-2.160281647396617,0.8422438288496966,-1.4812996271746433,-0.9332195043780566,1.304324180581255,-5.7308468156397385,-10.449998858426543,-10.629465759132742,-8.905830675573162,-1.3907597515927643,1.0903450909473278,-1.178203130942824,0.5250879635427521
113,-7.597196509184546,-7.416095848478851,0.894797787619858,-6.605624923433268,-4.182673322236629,2.980202456126239,-3.657364793813446,-7.4931840061984065,-7.613487600716343,-9.0315234633346,-6.219029813894948,-6.6278769559050135,-5.310487832797921,-6.135292783812438
114,-12.03055452181179,-10.067939097872184,0.7111465929817149,-9.355186901463133,-6.036587997127383,3.6345642546315564,-0.6498530411732611,-2.711473306864214,-2.901312447710983,-6.6982790751403405,-8.894049321425546,-11.760736078134933,-7.640678098672804,-10.506269259040153
115,-12.815799306907607,-9.59195164799808,0.36528253035112124,-9.10094036332955,-6.052662050137976,3.1800900163819774,2.4207600538466894,2.368822182016233,2.066546537897295,-2.6803286184127026,-8.858825854200154,-13.134327448970232,-7.655275657132197,-11.563085961112298
116,-10.097739134990219,-6.438179888429488,-0.03225635229581479,-6.177469268978838,-4.362349333673591,1.8631994232492972,4.704055335058198,6.273922267382956,5.932726648821207,1.8221076686436515,-6.3889011551333565,-10.775714762530727,-5.549772342610945,-9.331546340981399
117,-5.005228659990729,-1.8105230335897395,-0.36934680797992975,-1.709454538050117,-1.595752832008963,0.16247716058079847,5.621149519148488,8.026603177547463,7.799441875807698,5.546492646416133,-2.4418333854497343,-5.788928749936906,-2.1228301349403527,-4.7946537062432
118,0.772156772265431,2.768206633923522,-0.5639935946007288,2.799745090495017,1.34485557173903,-1.3756804172177028,5.017951644305469,7.3910896782645406,7.427946761973967,7.527671816438337,1.6890549034690794,0.08552487946851163,1.5073366543331792,0.4877568110370926
119,5.5390511078159825,5.952162969360063,-0.5837632132963814,5.969764695618813,3.5821173054458653,-2.3091104933606363,3.178490929282857,4.85892229781468,5.221670086432794,7.3499817682883215,4.79456591491313,5.0618757922431366,4.265992120474702,4.905605204377403
120,8.09752504712227,6.967405425059461,-0.44857545507021374,6.967025756614476,4.531658983742866,-2.425549150006398,0.7046297473006661,1.4080928285735004,2.0249919010994653,5.2258472476759525,6.106005576041916,7.851302812530796,5.445174356070641,7.2930179881742925
121,8.046417811520694,5.78938416667178,-0.21801602297502667,5.718945201100981,4.056836650177628,-1.786006118653142,-1.688543791634163,-1.8598985061199078,-1.1775299591471033,1.8897027485772941,5.481308073324256,7.98929302971289,4.887204244177939,7.2359592547367875
122,5.802788301433194,3.06648639001516,0.031106208653959678,2.8649236325333725,2.4685018143224164,-0.6785804724318203,-3.3894366798796502,-4.071564087524265,-3.5574187229800796,-1.6493166603432599,3.3772746355229555,5.86749103061159,2.9795811413929885,5.111614032313762
123,2.367642585715252,-0.16115491509530253,0.22898229921118016,-0.5184890645506652,0.38223779389594825,0.49526637986898636,-4.0501243238259965,-4.808570089648192,-4.646364218987524,-4.414130191562799,0.6370933072811557,2.493393397791835,0.4773245241036553,1.872998042515589
124,-1.0611822089395644,-2.8360393760115725,0.3313593567768852,-3.3084940446331257,-1.5081026921275107,1.3596986825912376,-3.6476421647065416,-4.154804560950917,-4.402373651090838,-5.732401146732728,-1.8201545945570063,-0.9123688207178137,-1.7752435653205763,-1.3248892253695563
125,-3.486746419993569,-4.219436912940486,0.32778426545390243,-4.703158130277526,-2.658544144176942,1.6814733721570674,-2.4415118210666487,-2.5768517673831246,-3.142193675144928,-5.398399172484052,-3.297262479694387,-3.3302441699490575,-3.123060116479175,-3.517686710631333
126,-4.391143178079778,-4.083754962656684,0.23874409845304642,-4.444723463676413,-2.8293405085554615,1.4286788407570499,-0.8566498779147902,-0.7059944231021201,-1.38459321748307,-3.685770532890989,-3.5083140298207964,-4.2304644508590235,-3.2868774107226497,-4.211377395946915
127,-3.818701689046623,-2.7145975076667535,0.10440702307235927,-2.83860017129817,-2.1219809248698813,0.7574709171913964,0.6601406920680819,0.8878900809889054,0.3318192659529275,-1.2203012496735415,-2.6101520222482852,-3.6581807684252343,-2.404653322601102,-3.469759205858884
