,AF3,F7,F3,FC5,T7,P7,O1,O2,P8,T8,FC6,F4,F8,AF4
0,0.3047636570687403,0.25560233271119015,0.07611496954456058,0.11461913006067738,-0.13041342764385178,-0.6921920200298537,-0.20034473282834742,0.5013879382786058,0.5112882692140939,0.27888910540969963,0.03207648175079357,0.27738915821135895,0.068668997074113,0.12228439513507836
1,-0.29061086258463525,1.5118454682244644,0.6754955804159882,1.1492717378904538,-1.254520597883825,-0.9328834219632203,-4.488608197551168,0.19008417852990356,3.479381501311202,3.890415132746317,2.7528257365428987,1.8698022122683537,0.9723067895108924,1.4649032072784216
2,-0.9804465536493588,2.3500278966304706,1.083824811212202,1.7570654074437106,-2.1805722273975428,-0.9904533881189356,-7.7159568181958,-0.489068763971896,5.199886334681273,6.035056394932858,4.4252359445846,2.7228163228441784,1.3999733999020247,2.2063028797058455
3,-1.6731361501523359,2.5522276308543215,1.1985672143709019,1.7156454102123813,-2.731425574405214,-0.8654698925608304,-9.080045381348004,-1.5668934317302905,4.992630908638332,5.8504322486871665,4.40045947427504,2.446383996093286,1.0925472970730294,2.012636646712028
4,-2.1936702287588883,2.088848614641275,1.0073889925263948,1.043004865800556,-2.771394716903331,-0.5860503668440626,-8.22937929754179,-2.827988190474509,2.849022320665046,3.305228477027661,2.637535501815859,1.073576239971279,0.09094792762920217,0.9079258341901997
5,-2.3305177960095125,1.1192905276603478,0.5877866230095125,-0.007765959219599133,-2.2401780783100222,-0.19768092118076785,-5.359592525688847,-3.8572106753738433,-0.5491754143001446,-0.771270163750016,-0.2698265642700672,-0.9363494158618676,-1.2606267792139267,-0.7235236881514918
6,-1.919058154963312,-0.06507842438874335,0.07748612164482271,-1.0411317878932809,-1.1851671096348886,0.2433954285449802,-1.1756116662917553,-4.183128841869141,-4.049746845742763,-4.960917317221715,-3.290507598244463,-2.8516078229700943,-2.4287161193738513,-2.2693977089646022
7,-0.9302442203133794,-1.135319589584657,-0.37352531365737496,-1.6663377814178442,0.22194312158634033,0.673464566086846,3.2774043335902125,-3.4678984479168076,-6.4177846002346755,-7.7411064878381435,-5.312969326770253,-3.9271834771171537,-2.8857566614148014,-3.1114972981146396
8,0.4745559451582003,-1.8248627732469815,-0.652215618220646,-1.6453245998405714,1.698319876896968,1.0245062285212327,6.877362204624936,-1.6708759953060301,-6.761356000648815,-8.018137752368753,-5.540273675829736,-3.679194108153935,-2.318279477206097,-2.858777061674239
9,1.9537985177239516,-2.0024730668879007,-0.7157578338524009,-0.985721254150371,2.8999872347282425,1.230677661526159,8.71763963297949,0.8816694751647007,-4.849334632730827,-5.52550878701982,-3.784877889916859,-2.0754539998704526,-0.7707972447031286,-1.5057791166967724
10,3.070226806999188,-1.6961028291049642,-0.5977363563717044,0.05767246809023087,3.503158471772311,1.23925078273112,8.350334877151367,3.556852703635771,-1.209735227866887,-0.9458286108366327,-0.556409783477924,0.42964966010604655,1.333468887850807,0.5447271262317127
11,3.4294632179054547,-1.0632845517785319,-0.3863618261193756,1.0760103853897092,3.2976393843722587,1.0238746726749897,5.910256983239401,5.5945174187559905,3.029711126645062,4.29233254291415,3.094329500790138,3.034036482354532,3.3123548797275957,2.608495505657781
12,2.8273638269861388,-0.322581693896093,-0.18412207140008263,1.66134764633935,2.2636596318419655,0.5957607457110333,2.079494460816262,6.349355605585954,6.508849928452822,8.47977551653653,5.9267404214535615,4.856508030011686,4.451398055468528,3.955192073373566
13,1.350361010232177,0.32631980453518555,-0.06504974783407508,1.5659227121760484,0.6032922303355672,0.008296484537171708,-2.102676730552023,5.513108142314987,8.087801822651818,10.199198463795817,6.938302571202084,5.24281466357838,4.261577156078929,4.07029235932788
14,-0.6163673034011256,0.7638259319507195,-0.046384323596643566,0.804631573627155,-1.2916321090542124,-0.6474284425011388,-5.532854587112131,3.2370926760207586,7.231191297841361,8.809898379580208,5.719883540566681,4.000862416493731,2.6753488935126497,2.8487219613316204
15,-2.4881389347881204,0.9718823395033215,-0.08560299108598002,-0.34084362421357955,-2.9339303765397236,-1.255830260646788,-7.354219650044182,0.10735349098325346,4.19149033694389,4.676775532922277,2.611524135724455,1.4794276085803508,0.10450120013280297,0.6473375874504683
16,-3.6631765788329638,1.0114720340613492,-0.10374753098931482,-1.4215593824776531,-3.8749183027674996,-1.6961003210954333,-7.19150245611456,-3.0250419242285154,-0.0731407744832549,-0.9381610220562697,-1.4002750071854593,-1.5408936989291444,-2.670792273084457,-1.8271761332980223
17,-3.729540054543027,0.9700944450770432,-0.02546347011075124,-1.9901751271192376,-3.838539915833326,-1.8639397785692722,-5.238680416832058,-5.3052795357917,-4.219872367980185,-6.287825183064138,-5.012126754848829,-4.108872660484116,-4.75213195336485,-3.7587766995842133
18,-2.622660511241553,0.9052314408317507,0.1807808925043511,-1.776834354794676,-2.812354460420055,-1.692474121933981,-2.173808678251843,-6.141151344380469,-6.971270639730707,-9.716436438897972,-7.047392128208051,-5.425108576437129,-5.429758542799647,-4.506715193193933
19,-0.6712051508870811,0.8108396820734523,0.47944597660316696,-0.80449334292871,-1.0625974416799044,-1.169696555756036,1.0692561329705956,-5.384416623149726,-7.538892334489796,-10.203494006143183,-6.858865236191296,-5.1118005945426095,-4.438183975174846,-3.8320448974304333
20,1.4944955305744567,0.6232408810705694,0.7726421025124101,0.6034314453116563,0.9363425251812809,-0.3498531097032363,3.596344011592264,-3.3650724893373813,-5.8734711010961265,-7.689423325707414,-4.548261233639244,-3.3339310647825284,-2.0657641520980574,-1.9828930418548523
21,3.1478717918881416,0.26459619698378706,0.9330377428556105,1.9308786305074495,2.6393883274259737,0.644466580877688,4.818906806244673,-0.766794732277056,-2.655573283100744,-3.0730132600059874,-0.9243347161152536,-0.7291760934493795,0.9277605010942888,0.39423510772350967
22,3.717657436814609,-0.2959561041446942,0.8537667490687612,2.656297616225298,3.5929618246211894,1.633282441009521,4.605566816624536,1.6127105548752703,0.9671375787454206,2.1144412647620316,2.7856202846397906,1.8269102433311073,3.5635689773732846,2.486425921776685
23,2.9962937422542266,-0.9934871610052366,0.4965377215458113,2.4512672539344336,3.5697003702201773,2.4059662513467437,3.2751840360146107,3.1317351711855315,3.7989192884569425,6.2404224291955765,5.367747703837686,3.534018531025933,4.980757922220179,3.605820072622822
24,1.2267812593232756,-1.657915773998673,-0.08151313415540838,1.3157136041800135,2.6314566676816153,2.763023970110832,1.4425666382950835,3.5089702372300016,5.017707478906227,8.119304024673463,6.042314502191844,3.943831396022292,4.7388383660380295,3.4340332404388394
25,-0.9694945343804264,-2.0558919315092714,-0.7347856115862121,-0.4038936721127479,1.1000359646126863,2.5665281160363596,-0.22192206018130856,2.8896940482777698,4.445649794666182,7.385703304839959,4.722643368162381,3.0998115878545898,2.975290514751816,2.1295380943727324
26,-2.8044235385563865,-1.9737411274144534,-1.2703660814355513,-2.1247948128368845,-0.5535606934586613,1.7869513490803761,-1.2302567833948757,1.7518149516374535,2.5712752677784323,4.567237241286377,2.020920440311754,1.4909379339926825,0.35763103231608295,0.2581972085196121
27,-3.602523462792164,-1.3116576488101228,-1.5106748910344445,-3.2303662261743464,-1.8628899149531728,0.5309456540750126,-1.4283091650563184,0.6897499693808152,0.31987399827641494,0.8412143020089651,-0.997981157068683,-0.15985672176013876,-2.1567185552249577,-1.4273657605835963
28,-3.0485775720292576,-0.15060156316435327,-1.3559674438174958,-3.2930529640625466,-2.5102345178509027,-0.9634496295596996,-1.0117553158610588,0.16098361005956602,-1.3356330968985535,-2.425896049430486,-3.2214442190898995,-1.189694881289842,-3.668466192015704,-2.2773493039549506
29,-1.3124086511915056,1.2400088295413563,-0.8238408755357113,-2.236566702367893,-2.413226427927244,-2.3698648143071233,-0.40818610875981354,0.2956294715100325,-1.7699255569255514,-4.181183396254501,-3.901878496064083,-1.2584163363740213,-3.666418561423906,-1.9947268483492133
30,0.998233204293399,2.4653812470634633,-0.05025733961755716,-0.37638136638238356,-1.7274287311904475,-3.348688913985653,-0.07621433068958056,0.8463401272529031,-0.9507691324600103,-4.044779746143994,-2.924389076663302,-0.47814864122724277,-2.2173426854216105,-0.7508276289034618
31,3.0444688924251313,3.1241087636789544,0.7499386109683617,1.6793518726428605,-0.7686767323446877,-3.6359152953597342,-0.3014045180545153,1.3019918474712602,0.5628961062551657,-2.398999283521699,-0.8309697424187364,0.6411797228200742,0.05713524513302766,0.8789327911830898
32,4.052412092994681,2.9446891905444446,1.3503569388540022,3.235992006238045,0.11298005080305777,-3.1200959661589405,-1.0679290475100403,1.1235459474485001,1.870661652012113,-0.1843074969069697,1.4061263443488,1.4106991450320179,2.2121607264634613,2.137871772009852
33,3.5944754088917525,1.8919700937156394,1.5852356171914888,3.753957415351558,0.6601128138239959,-1.8826311375667801,-2.055030365778499,0.00929869773919982,2.1294870370020536,1.5100892744673322,2.775300068262925,1.2620723314015334,3.3379325703667506,2.38824406067137
34,1.7549287614175408,0.2030075138282333,1.4013764856544542,3.0401424926295246,0.7897169984166063,-0.1863873477377069,-2.760073767510569,-1.9200544887205986,0.9409614773827188,1.8977592196622777,2.632293378810911,0.01055295558177946,2.9137456610579306,1.3767961964359827
35,-0.8818079803659973,-1.6656659284555917,0.871917686544484,1.3206138500017515,0.6024647358799087,1.586590858588035,-2.702554778767947,-4.10040159923199,-1.4334409127506063,0.8128241321139815,0.9672294967571781,-2.024843907896809,1.025041473235211,-0.6365155073959465
36,-3.4198805910923453,-3.1673995295733843,0.16776296210485492,-0.8324214974192483,0.3196748132911111,3.031233271138482,-1.6328067518972658,-5.69087328863927,-4.125431336208836,-1.2276432511292845,-1.5723316697977643,-4.099261517236601,-1.6422369075704368,-2.941178694916457
37,-4.955165036161708,-3.832519197233808,-0.5022984545194384,-2.694994535846783,0.1753465767418522,3.8215986978462744,0.33400436558004104,-5.878710931599792,-5.973186152674401,-3.238546265440055,-3.9160567938409323,-5.299475991865612,-4.03584078898036,-4.6158219506186935
38,-4.8894483365581,-3.41984626368511,-0.960759050298465,-3.639815006197866,0.3071551834653301,3.789766852424173,2.712744498582521,-4.214488055288387,-5.981972949245609,-4.173862903259678,-4.980002988827144,-4.893036879415755,-5.1215776388078025,-4.864940094012144
39,-3.147095114078349,-2.0025764344650985,-1.1151469545567239,-3.3522713029971927,0.6903099287784236,2.9605026735380777,4.78127244701785,-0.8493580649086806,-3.7553987647752405,-3.366810514269428,-4.099552511740226,-2.641972789800507,-4.28141129386659,-3.333739147950081
40,-0.21817527374583381,0.04144903450410858,-0.9782160829201508,-1.9387283550021872,1.1415381904778699,1.5352995324268934,5.811607972648124,3.426712735337078,0.276184021321767,-0.83090441097768,-1.3226549759022026,1.039781758663672,-1.5788162264259082,-0.2846856098114827
41,2.989109581394059,2.1346475420171473,-0.6495814492157915,0.11045092365872934,1.3931669173413022,-0.1653197829164204,5.322989108974518,7.379497129711122,4.9325206443934455,2.6978326884551223,2.5525149050378806,5.15517132919659,2.2122155580302985,3.4364199685784502
42,5.439034262984035,3.6687351233675987,-0.26842428230127474,2.0899964292845707,1.20943098954008,-1.7816891419431864,3.2695776858525907,9.707528606606239,8.654709908855965,5.999448911431354,6.220036502155383,8.410412931883739,5.836352042661926,6.645400072790634
43,6.3058915999006375,4.186211462594968,0.04270150266768723,3.3219414209679,0.49934277791071247,-2.994404840754403,0.0945025346624662,9.48084729937848,10.04702216084207,7.805260468801854,8.311095469031386,9.631714321986548,7.973917728164222,8.201661208907288
44,5.246774162546726,3.518580108844836,0.22066466291335904,3.387103008472268,-0.6201793743986475,-3.5848293665964603,-3.375056988454065,6.49056803635845,8.395757373562436,7.270924052794323,7.887327099239778,8.174444410865062,7.705551554454857,7.401763251101031
45,2.520014672269111,1.839204988303685,0.27539664856094104,2.2665510917517797,-1.839911270378536,-3.467030515268232,-6.164112511206664,1.381179081451827,3.9726227868069452,4.313108557451111,4.80682916401569,4.183176350510792,4.862459277698654,4.249754366029322
46,-1.0886345986810513,-0.38481277883274356,0.2711456052277883,0.345746900655818,-2.7524038244587583,-2.6907802706185557,-7.444823800333416,-4.493054932169149,-1.9972134851372336,-0.3159136098240107,-0.17219807070693738,-1.393381409541926,0.13498022410972857,-0.4936292510693281
47,-4.506822408887819,-2.52667275078008,0.28549432753082293,-1.7182404536895066,-2.9939064396963744,-1.42168427750307,-6.796035031638801,-9.453495962006953,-7.703744077733734,-5.247388689564988,-5.595749996785445,-7.048677104010974,-5.107559376856336,-5.509137337846613
48,-6.704872771488008,-3.9794978588085748,0.3651420000174635,-3.219464872816371,-2.383490749793997,0.09334290985451925,-4.342879402830121,-12.00652436042938,-11.337575027895051,-8.935894194401346,-9.76512166703249,-11.15499476350437,-9.234480013071787,-9.30840718997229
49,-7.008858778287187,-4.328822382299772,0.49827988254682287,-3.6394638386054563,-1.0070698696682983,1.568429500425279,-0.7298594412043526,-11.313892352251093,-11.69278306913786,-10.169293948213502,-11.287302387761121,-12.455382520497238,-10.875395335893474,-10.693373282481554
50,-5.301256609798504,-3.4688074165499265,0.6159908540205218,-2.8183168899950357,0.7880682790855358,2.724709050826508,3.06553709932462,-7.470506241213316,-8.578897378896412,-8.474773833611271,-9.541232853511612,-10.455785016950534,-9.374680670979561,-9.138965703860869
51,-2.051406806414222,-1.6306732264625152,0.6225867376398314,-1.0054541432229092,2.491198839429404,3.3370039049196776,6.020220445273978,-1.4973429791056903,-2.8988635043984807,-4.28420362531944,-4.903262412822567,-5.593169659950579,-5.027446040589124,-4.975217147265866
52,1.8276296058158714,0.6824667189001994,0.44230714706725055,1.2233969714073096,3.5880270018515463,3.277069897476171,7.363455711707547,4.950772020806032,3.6346306865363585,1.194613481462739,1.3451200537005075,0.8738443895791308,0.98364177288284,0.6915703133617184
53,5.24714849124573,2.834283758716864,0.06241985658622964,3.1527087325928367,3.728676870805616,2.546076331517219,6.79292706210723,10.071325884337382,9.047762724220181,6.355112268133313,7.399271845996392,7.21856593212527,6.933930517219215,6.2959595307599905
54,7.253219659968407,4.22840956176453,-0.44650871521579283,4.154657775184734,2.845771691562993,1.2863795071452808,4.544524019278437,12.442583171819336,11.733417590074332,9.69119981061087,11.480716515527861,11.736194973724897,11.076557443677592,10.271122070930321
55,7.289727997616569,4.469598031027295,-0.9437878698493553,3.8849311299945732,1.1812068660444837,-0.2365174032879211,1.2997016563886998,11.432407704005865,10.949472964554486,10.256302152474218,12.378843222711337,13.223276786915141,12.172894967643707,11.506573757970633
56,5.3434832218940995,3.471181096499939,-1.2626691990468735,2.387466386245113,-0.788181747544638,-1.6849923358049415,-2.0338452931805633,7.366901406625687,7.027823786566737,7.938656957750334,9.815459925351302,11.306967613569379,9.868280152948318,9.667500019517647
57,1.9379634997634776,1.48193651285029,-1.2701674388973814,0.07972748516658675,-2.5007140440955036,-2.726317781159293,-4.594179089753637,1.4158773973239953,1.2361591020511284,3.47351569663762,4.522371031551535,6.533501489563592,4.798549905380481,5.282563421128237
58,-2.015115912280068,-0.9740929382143104,-0.9204342072174194,-2.3724302918662565,-3.484479032532695,-3.1177374483224534,-5.80327359059971,-4.760646911865733,-4.64856131576622,-1.8009098973244246,-1.9854023963236491,0.19886381024705863,-1.6013736702692558,-0.42038909473984765
59,-5.4612510315862055,-3.2302830923407138,-0.28078970112905643,-4.249451312437004,-3.497900543305778,-2.7749331703816202,-5.501166687000405,-9.491924324647522,-8.904827663935789,-6.358025174048941,-7.864074624533499,-6.0208818975715,-7.523571551611236,-5.875353419577512
60,-7.479447222229992,-4.6508974752520125,0.4811337186946159,-4.984293233898724,-2.591338104619014,-1.8006599406503776,-3.9442821283620417,-11.558407479489656,-10.383533367023245,-8.93515505955751,-11.480597475169686,-10.528928626905087,-11.31542203013662,-9.624753276080725
61,-7.5200035420248845,-4.803395731807065,1.1466718988908058,-4.322808135904117,-1.0738357159303724,-0.46086721123183866,-1.6821976840511543,-10.506617472826264,-8.818753450304841,-8.887657077862453,-11.875452431020369,-12.227591245768547,-11.951539015962345,-10.720449459535613
62,-5.547082082689997,-3.586114368125573,1.515868513130877,-2.396880836895982,0.5977527489788749,0.8878515623912318,0.6352667572347703,-6.737793594723351,-4.850590852562069,-6.3468301253539074,-9.017209428948526,-10.787977303089336,-9.313340402366455,-8.967499742456097
63,-2.053103897689229,-1.275713630559282,1.4737540708648234,0.30622716782875775,1.96519173675434,1.8990685745059612,2.452048342460321,-1.3597652976587402,0.22539947635689814,-2.1473237601085655,-3.7842818453762086,-6.7055222015563265,-4.201772027189011,-4.949368106487297
64,2.0587526957446065,1.5244533903194752,1.0298597814910695,3.068403625198087,2.700684581974607,2.3348317227989357,3.44056716638815,4.1429584764258065,4.884699176419591,2.4418794689965346,2.3094036333789982,-1.13751970090277,1.911299559625505,0.16222345491741644
65,5.698228187107024,4.030401163070051,0.31672938163301345,5.127106374654016,2.684110468975623,2.130641360343664,3.5447104959344937,8.32114944851758,7.833938929056467,6.095842883011883,7.556852720535739,4.424568458398475,7.313397347263552,4.950279861074142
66,7.867236060545632,5.4875169412940386,-0.45251892245259856,5.87789095237588,2.0086864288605004,1.4067108483917454,2.934079975984113,10.14093852214374,8.36562331739418,7.809925823943894,10.538469969997257,8.555853369479816,10.536199946972392,8.147623448886714
67,7.928300178231934,5.3922507039271865,-1.053175159967595,5.043360309609762,0.9240676350455167,0.42253038929743986,1.9018160549189065,9.234712748259248,6.513287986568865,7.170198430347051,10.506548949692627,10.265643402268873,10.757793803930948,8.974781470841494
68,5.793163673792767,3.662637558823159,-1.3208236064864833,2.7650661337770273,-0.25496886085397114,-0.5098692021520711,0.7515458712147086,5.965409173373163,2.9807740938904304,4.448967945180089,7.572094844191638,9.238656299780327,8.013675639600015,7.3321961819213985
69,1.975990560916295,0.7010081770958951,-1.2016718304538763,-0.40953498715140885,-1.2399606818000812,-1.1253726999168998,-0.2863998575878797,1.2977775428185063,-1.1127794358838414,0.5065333964115514,2.6497165665923066,5.891710319607545,3.164014540847728,3.800897263686809
70,-2.514877175053603,-2.683114345212116,-0.764686804258808,-3.6497875334000587,-1.8331500494580564,-1.28566286981118,-1.0884258545316863,-3.480797656328042,-4.582401981891374,-3.4676474061089184,-2.81737774229964,1.23622237340546,-2.3673436122161156,-0.5419668979677766
71,-6.4314058653358535,-5.483024209945096,-0.1724729111318052,-6.051549267982785,-1.9531105074637183,-1.0140974682672022,-1.6229351448814966,-7.111495388879095,-6.514052854279455,-6.2998497453486175,-7.272158979706904,-3.4131221327474917,-7.005030496184123,-4.437790569058506
72,-8.627935414106991,-6.787813042141432,0.37778015556995076,-6.88534850242655,-1.626103632842551,-0.47531296011011626,-1.907434092587441,-8.693755579055033,-6.495964394098668,-7.167237270882828,-9.482444306321584,-6.803559527789433,-9.468723367579813,-6.803238218922259
73,-8.399427789491295,-6.075112477251967,0.7218725048172256,-5.817421839675467,-0.9579163764116317,0.09214074139274159,-1.964116811452146,-7.908438682551186,-4.690215964471326,-5.831005519468868,-8.882556284495019,-8.084143940564793,-9.129488209331955,-7.0309165543698215
74,-5.715063967554182,-3.409995081499462,0.7810130014266953,-3.037126501281407,-0.10211167914248398,0.4659060798995952,-1.7954491904291416,-5.079144918120514,-1.7393220860130496,-2.7028015039873052,-5.72394030474956,-7.0279200615385475,-6.176976635726258,-5.151521467688866
75,-1.267369009014716,0.5239759102542558,0.5815629884108802,0.7568327463585272,0.765859794946758,0.5205672466137466,-1.3884310796543973,-1.0600196633455974,1.4517724537690881,1.2750900524982005,-0.9929056948777434,-4.07574671125724,-1.5512836588538477,-1.8126968515642041
76,3.693742826577641,4.58860405458945,0.23676827892833224,4.522250289857018,1.4685704669165338,0.27012567774172414,-0.7417934617491397,3.0152124942331913,3.9875471309864152,4.903678006175038,3.881913757856381,-0.1904013230427923,3.340728790991735,1.9196576308635973
77,7.70783008501443,7.515378506355893,-0.10116547303501847,7.156732365218529,1.846940763780447,-0.1431328316233998,0.099966810739846,6.051353539710935,5.228342630039985,7.078891131828494,7.450071286042971,3.4367137067146234,7.043307642956407,4.881717810390914
78,9.537093458766643,8.299327893159946,-0.30004153159492847,7.8232639324219315,1.787321978143448,-0.509159867885967,1.024766622792641,7.288182564091863,4.945709107563421,7.120240071060779,8.66721706735973,5.74100326342833,8.482787496411483,6.161814168738058
79,8.556021339113691,6.540007369027648,-0.2958288088284179,6.221379329450418,1.2550563643412538,-0.6372728083976403,1.8575464014348484,6.494004571128754,3.351210053102541,4.97966151513318,7.2049290576889495,6.0978169321292075,7.284725025015816,5.3774558395883245
80,4.971947232563923,2.613989939005907,-0.11288153723742857,2.714693272283179,0.32473320412188833,-0.43656132241106016,2.39511309874203,4.005346281044391,1.0006527141990857,1.2659443039831608,3.548638641645382,4.500118769341998,3.8814710186912795,2.7951369020972274
81,-0.2032768685048974,-2.3905863112307557,0.15012761868452792,-1.7372241884091308,-0.8093371374782021,0.041972274950298316,2.462920467012562,0.6063230558859125,-1.3901719910337695,-2.9271146602244684,-1.1493405328593953,1.547007878973637,-0.6247233875707607,-0.746867026870236
82,-5.435100121441312,-6.973646795604216,0.36214321994575127,-5.836748529110206,-1.8579015141060577,0.6192153625583277,1.9759952801027814,-2.712931744396302,-3.160181706825688,-6.34210858240341,-5.421414514631144,-1.7538391403161122,-4.804454561313432,-4.094171822239452
83,-9.1246483173127,-9.675645282874669,0.4130315376750655,-8.328645750163322,-2.5019969527845283,1.05430316639379,0.9826503734565312,-5.045488078375664,-3.8853326468248883,-7.935406756933979,-7.936824419255252,-4.309549159342313,-7.346874352633787,-6.136473480502824
84,-10.10561729059759,-9.545502277311785,0.25796732261627353,-8.391133142819191,-2.4872709807845337,1.139669211425581,-0.3266868644042472,-5.819295451789165,-3.4787494096883753,-7.196954217977318,-7.916114104577909,-5.291100560647614,-7.470911806557713,-6.163032657042958
85,-8.02250813676363,-6.472554786416169,-0.06362856418841316,-5.913887414642174,-1.7197758114454882,0.7888320446058531,-1.6532780820889268,-4.939699570130012,-2.185271412598519,-4.313306511928368,-5.3777693770760555,-4.398270203875311,-5.172046082073406,-4.101284834687582
86,-3.4644175115219524,-1.2663694156196446,-0.441380771010933,-1.567131484150367,-0.3273903031213222,0.08213504720238342,-2.6610814888863032,-2.785921625530947,-0.4791057769852557,-0.12046071575167647,-1.1362600775029887,-1.9553465687781078,-1.2236711021167688,-0.5585838529271161
87,2.1973729941356352,4.555672544746617,-0.7342296568106593,3.372844455193183,1.3437740928822959,-0.7498514090429045,-3.067136493448743,-0.06956176189881881,1.0985223972169553,4.1431105984779215,3.452442660177307,1.1952993234478477,3.0713448472398523,3.353710781553038
88,7.225512123453452,9.219153458472968,-0.8225828680226124,7.399460368234913,2.8095718691568217,-1.4026981352713763,-2.725788283452563,2.395727566984683,2.108782093702689,7.21036728280305,6.921089859423554,3.9704236996257167,6.30274975481736,6.36557311713264
89,10.059647410160535,11.246358822775859,-0.653135864881481,9.242430973134265,3.5888266220111547,-1.6087537913472725,-1.680873281644616,3.939616979172896,2.3393811900219736,8.17239515274572,8.161707603331052,5.406217706408227,7.41399319692348,7.457587904646725
90,9.813876509234667,9.936649327007617,-0.2601192572739312,8.278538807174458,3.3635745077573325,-1.2421761950886447,-0.16763396919942308,4.220680729237748,1.84776287067171,6.757358850307282,6.784576712595903,4.984186174134626,6.051372010374618,6.2026508533628295
91,6.565680605122054,5.613150420135061,0.24448356330577006,4.750371311828871,2.103596409962679,-0.3784357760855068,1.4400083736719367,3.2993946215705314,0.9148247158948807,3.4129620557881992,3.2465994604077224,2.8128447601821867,2.683526833284827,2.924602382504539
92,1.3377663548165761,-0.453725515638113,0.7079505978833097,-0.2866057466467991,0.10635912157620118,0.7167417354861345,2.7249800432329465,1.5832764636747616,-0.07046083054342955,-0.8353376580601002,-1.2966012961726132,-0.39962357581068386,-1.5526059929089173,-1.3860230520696495
93,-4.226308873056756,-6.431019333752483,0.9876808800021059,-5.281718163671823,-2.070991607870138,1.6691620339994624,3.3399081113307467,-0.3303864337031875,-0.7537019681505933,-4.70670862647665,-5.3695473713705555,-3.5776717293724496,-5.232064470058319,-5.3798688372976
94,-8.389837464447707,-10.497645669743296,0.997986723145489,-8.675907693652059,-3.7738375400301707,2.1228906368159524,3.105301292277557,-1.8577603497398045,-0.9359349624605553,-7.065517290557543,-7.663035819116987,-5.640943064507613,-7.122848122628005,-7.784263127368882
95,-9.881393032932442,-11.422907361662885,0.7368880919166075,-9.40182337855523,-4.457330504017439,1.8686426417826068,2.064121900232133,-2.6094251698164657,-0.6325671666674746,-7.271400201390763,-7.465348945192188,-5.87469872832248,-6.604567458599964,-7.822983635986758
96,-8.299031350318701,-8.958007242073013,0.2845056251850794,-7.231804899723347,-3.8695556448116566,0.9281440680405337,0.4758389564609511,-2.491699578645517,-0.052391751671050174,-5.366011616367185,-4.892581596773654,-4.179273179147359,-3.879647659497125,-5.477332030174662
97,-4.226058629707422,-3.909481056090219,-0.22520616457437562,-2.855385413940793,-2.1457719854820736,-0.4373725579763879,-1.2496189037222485,-1.7004475445192704,0.4935137804498942,-2.0373913564064736,-0.8392802955864759,-1.10898079792207,0.09859281114692371,-1.4962784117188446
98,0.9783537968633429,2.130260817059646,-0.6486088521998662,2.3428513806729847,0.22272653588575034,-1.8009400766945494,-2.66033547547881,-0.6175051123925257,0.7188030689467492,1.6229058203462052,3.3334420241843157,2.3162160092196746,3.9584784515601905,2.851386102589637
99,5.639776901252989,7.304100446129721,-0.8768489829379973,6.732942417915846,2.5385679381414294,-2.704074704698098,-3.3836024045830952,0.3467374682070663,0.47792234223021907,4.485372219926141,6.263808492774046,4.96192286290741,6.387996479273543,6.199795962284745
100,8.321561621000015,10.087026703763826,-0.8659918551454123,8.966814912264066,4.11844722004535,-2.8083492421771803,-3.2266424601420542,0.9040944460066139,-0.17193980310772378,5.745935537203968,7.047027536493403,5.9697137727614695,6.589991302601033,7.5382334800596285
101,8.28253578739747,9.75894981171678,-0.6440989201452211,8.406824943985876,4.509466451749695,-2.0141907022889014,-2.229359425158806,0.9777230046070295,-0.9868875355359907,5.165537218750256,5.526293241847427,5.048133376276134,4.553089895079722,6.53652276008223
102,5.688384813427366,6.599731133804678,-0.29503615094838365,5.313987867696742,3.6286959844774445,-0.5063747263672929,-0.654650312001756,0.7005196406914359,-1.6257820707404653,3.109943357257943,2.319320519724694,2.5616586055939945,1.042615547397131,3.632719248905005
103,1.5142706799518506,1.7509319332181559,0.07332995584277817,0.737868762865992,1.7800694416067393,1.2911476106139703,1.0813803052396849,0.3297973343890498,-1.7811256740198347,0.3853212478929643,-1.4222164351850142,-0.6113118410921576,-2.683137176010978,-0.14243027592317212
104,-2.8160309754893453,-3.1962601317998223,0.36440356468259233,-3.847523237560756,-0.4542726793075593,2.839199221121212,2.5207479256036813,0.11769029395387046,-1.3030722071783756,-2.063704329816594,-4.428270020001054,-3.3965207846234367,-5.326605268176172,-3.5361186639462843
105,-5.920943869628931,-6.736877982176087,0.5196329676542013,-7.032689820628387,-2.4080392197935803,3.6483523918453518,3.286491662225056,0.19288428980265146,-0.2695263201299192,-3.481688093772903,-5.749432347051177,-4.90050317592415,-6.009438073326279,-5.503719515931575
106,-6.910003454102012,-7.926665187653665,0.5291482312570348,-7.919467177460648,-3.542446968225949,3.4332232347108373,3.183724813098317,0.5030145072940936,1.025918881688971,-3.540477048258504,-5.064523609543882,-4.710132892735953,-4.571120746565895,-5.546427511795133
107,-5.6420615788568105,-6.640670127939953,0.42512186590814305,-6.379685102846328,-3.6046990482367165,2.207010313724073,2.2510591636849115,0.841091689614954,2.16670072029164,-2.410684939728147,-2.7545934626119783,-3.0112955022181866,-1.6039721000761262,-3.8427863533176208
108,-2.7173878207141526,-3.5438722560837883,0.26282058581561585,-3.04979017186226,-2.684164844443458,0.28565585595537174,0.7481090745699537,0.9440974416286495,2.755284874358808,-0.6533391698490839,0.2713112533826669,-0.4917675126940273,1.7815166922603292,-1.1387294039347233
109,0.7763489318591882,0.1956054259673719,0.09789502852458785,0.9217378672708972,-1.1546047614672839,-1.8006791038909449,-0.9174742536354602,0.6216342182395982,2.554235969089032,1.0164243053475044,2.9242185150538456,1.9274954991886069,4.369225967816644,1.5517224778930536
110,3.66152923905877,3.3345604152492623,-0.031494114921600876,4.275472471645975,0.4699786653831716,-3.4620934715159635,-2.3029198398283333,-0.14053330398500885,1.57558130074586,1.9994759869444287,4.324709273999742,3.4285867112263255,5.274174969748985,3.3183411362852557
111,5.066834349098421,4.968310128117318,-0.11219904313942798,6.048587493323589,1.711095164454378,-4.22217199150647,-3.0512767071417737,-1.1477481463340193,0.08575702773070433,2.017148826536717,4.093962928009999,3.576874439462767,4.245679677547163,3.6630786103981903
112,4.68846216829626,4.791273479102397,-0.15245706539394274,5.854547305710065,2.2719359798569476,-3.85728931457098,-2.9862227772468097,-2.052053347254976,-1.4765460424147212,1.1817391404269753,2.449801501596944,2.448033316968284,1.732460522855141,2.639646759583331
113,2.83866704547088,3.129966457315845,-0.17069935449525947,3.953307682684802,2.1079593801479954,-2.4603963846639645,-2.1544123977399305,-2.4779665192313693,-2.6414958551611933,-0.0815091543210662,0.08656401544295203,0.5650337985803694,-1.305125832391459,0.7859978221172257
114,0.2828704378681496,0.7587508506645143,-0.18280658174378162,1.1067437135696616,1.4058755168778811,-0.4114666840053055,-0.8046597322226877,-2.1713552974917985,-3.059699081331693,-1.2205064471249256,-2.1040413428470384,-1.3210699779603885,-3.758670875803948,-1.1116200601349873
115,-2.06092774290725,-1.4169661539910725,-0.19355749480244416,-1.7139171075663515,0.48814898575505467,1.7345675041415174,0.6880892794330914,-1.113506440197374,-2.612950446043706,-1.7740087651897618,-3.3612040581177407,-2.5180329402830117,-4.773496664619106,-2.326008285881065
116,-3.4454630300859246,-2.6870126211074115,-0.19545550465647418,-3.6584455530499875,-0.31557684932215185,3.4071568828986925,1.9301913136244222,0.4460043701685943,-1.4480038140184115,-1.5389126109081648,-3.3126554673125566,-2.638980225727818,-4.042702239730865,-2.451211356068962
117,-3.5273669964380567,-2.7574787528006817,-0.1745299034809444,-4.2532471207506415,-0.7813008279341536,4.178786507259421,2.6162148241304926,2.0545718081455844,0.07572539825445918,-0.6298021874260727,-2.0756660515655274,-1.7216301146666495,-1.8924984734160737,-1.5271839382140278
118,-2.438662846170628,-1.8000032153825731,-0.11967150055570736,-3.505893635281708,-0.8496757354029824,3.8772668004626545,2.6052619596032094,3.2005383038858377,1.5045633496317417,0.5831510967875959,-0.17746686353795615,-0.18482407445253304,0.8624160622344679,0.008989937933623515
119,-0.6880148307465848,-0.3303954017051678,-0.030795419890776915,-1.840807751616972,-0.6167645876973261,2.6217959359110843,1.9473724624781483,3.4867217770578445,2.434081268142581,1.626680915595748,1.6627424438728482,1.351329288026599,3.230721645686851,1.515201747512816
120,1.056444534091574,1.0214024744279888,0.07800294596513835,0.09280434785375437,-0.2688140256117395,0.7766173214037222,0.8563263847027787,2.7721103623346144,2.630321214241433,2.1055174759212725,2.8020255382855055,2.306991210659245,4.403527264329667,2.398922267203418
121,2.2143666603736203,1.7551908655155366,0.18168917744878943,1.6610927669129378,0.00706652136059102,-1.1599392652847687,-0.3594319031848712,1.230281011952352,2.090995889966761,1.8442247076051463,2.8931237831205405,2.3531236357333385,4.029577255959581,2.3359151914412806
122,2.480620801494116,1.6681618182532976,0.2524877438593832,2.4472043153438863,0.09877774967361115,-2.6961005389457444,-1.3853912634982977,-0.6981547510138096,1.030497877981362,0.9407781475437542,1.9814479669982787,1.5157092043583265,2.312795376373173,1.3746643074697176
123,1.893888151914487,0.8934929781005173,0.2696033792499467,2.351777183861427,0.003497397459814911,-3.4761650300234503,-1.983416306471605,-2.4444199048807476,-0.2016959833672196,-0.28184622923882663,0.4557911064007605,0.14258482879782364,-0.09230039624272911,-0.10416998368865871
124,0.776460977631012,-0.18989018920886466,0.22661553411080532,1.572607883040687,-0.18824507969314797,-3.364190106607107,-2.046455023246664,-3.4946122996054263,-1.238516840397261,-1.4019384533801422,-1.116958101088495,-1.2452424317558919,-2.337392923140695,-1.5481018409146734
125,-0.4172327898210748,-1.1284451107506006,0.1338513411882963,0.4883682999261001,-0.3461014788867296,-2.4624725321971748,-1.6134907279284252,-3.5540405418383334,-1.8083305237686105,-2.0525207067646867,-2.204210366794067,-2.1546776398179013,-3.6876502226770866,-2.4452320122935975
126,-1.277401734851936,-1.5730910759589045,0.015128692757539584,-0.49880628390449694,-0.3643810950323578,-1.064908901785569,-0.8445844777275524,-2.6368396557319334,-1.8075879688475138,-2.045120476945749,-2.4878332820067994,-2.2961182559393936,-3.7663644747928937,-2.5066818729398945
127,-1.5741485183370105,-1.3982867026262324,-0.0996520077825607,-1.1007904298709483,-0.209026485852319,0.4367877582671433,0.03337373026698414,-1.0517832195352481,-1.3133995467299162,-1.4219203053298912,-1.9517350493514802,-1.6710975009998743,-2.6545691136641874,-1.754369418263488
