,AF3,F7,F3,FC5,T7,P7,O1,O2,P8,T8,FC6,F4,F8,AF4
0,4191.282227,4175.897461,4152.307617,4187.692383,4172.307617,4199.487305,4201.025879,4200.512695,4177.94873,4187.179688,4171.794922,4173.846191,4185.641113,4184.102539
1,4186.153809,4171.794922,4142.05127,4187.179688,4168.717773,4195.897461,4197.94873,4197.94873,4170.256348,4185.641113,4167.692383,4169.743652,4182.563965,4175.897461
2,4186.666504,4169.743652,4139.487305,4186.153809,4170.256348,4198.461426,4198.974121,4199.487305,4172.820313,4182.05127,4167.692383,4167.179688,4181.538574,4170.769043
3,4185.641113,4170.256348,4142.563965,4192.820313,4174.871582,4196.922852,4198.974121,4195.897461,4170.256348,4181.538574,4171.794922,4169.230957,4182.05127,4175.384766
4,4190.769043,4172.307617,4147.692383,4198.974121,4175.384766,4190.256348,4197.94873,4193.846191,4166.666504,4184.615234,4175.384766,4170.256348,4186.666504,4186.666504
5,4197.94873,4176.410156,4152.307617,4195.384766,4171.282227,4190.769043,4197.94873,4200.512695,4175.384766,4188.205078,4178.461426,4174.871582,4188.717773,4187.179688
6,4192.307617,4180.0,4151.794922,4195.384766,4173.333496,4197.436035,4193.846191,4201.025879,4184.615234,4189.230957,4181.025879,4180.512695,4188.717773,4182.563965
7,4184.615234,4174.358887,4147.692383,4196.922852,4175.384766,4197.436035,4189.230957,4195.384766,4185.128418,4194.358887,4181.025879,4175.897461,4191.282227,4184.615234
8,4190.769043,4169.230957,4147.692383,4194.358887,4173.333496,4197.94873,4191.794922,4194.358887,4183.589844,4197.94873,4181.538574,4170.256348,4194.871582,4184.615234
9,4200.512695,4177.436035,4153.333496,4196.410156,4175.384766,4204.102539,4198.974121,4198.974121,4191.282227,4197.94873,4185.128418,4177.94873,4197.436035,4182.05127
10,4199.487305,4183.077148,4155.384766,4199.487305,4177.436035,4200.512695,4200.0,4201.025879,4197.436035,4200.512695,4187.179688,4189.230957,4200.512695,4185.128418
11,4193.846191,4176.410156,4154.358887,4195.897461,4173.333496,4190.769043,4195.384766,4202.05127,4192.307617,4203.077148,4188.205078,4187.692383,4203.077148,4188.717773
12,4189.230957,4170.769043,4148.717773,4192.820313,4169.230957,4189.743652,4188.205078,4202.05127,4186.153809,4195.897461,4187.179688,4174.871582,4197.436035,4186.153809
13,4186.666504,4176.922852,4142.563965,4192.820313,4170.256348,4189.230957,4183.077148,4194.358887,4183.589844,4190.256348,4183.589844,4165.641113,4187.692383,4183.589844
14,4187.692383,4183.589844,4141.538574,4190.769043,4170.769043,4187.692383,4185.641113,4190.769043,4186.666504,4196.922852,4186.666504,4168.717773,4185.128418,4183.077148
15,4184.615234,4177.94873,4137.436035,4187.692383,4169.743652,4189.230957,4183.589844,4193.846191,4182.563965,4194.871582,4184.615234,4167.692383,4185.641113,4169.230957
16,4174.871582,4166.666504,4126.666504,4185.641113,4167.692383,4185.641113,4173.846191,4187.692383,4169.743652,4184.102539,4174.871582,4153.846191,4182.563965,4154.358887
17,4175.384766,4171.282227,4130.256348,4187.179688,4167.692383,4180.0,4172.307617,4179.487305,4171.282227,4189.743652,4178.461426,4155.897461,4185.641113,4167.692383
18,4186.666504,4183.589844,4143.589844,4190.256348,4169.230957,4185.128418,4180.0,4188.717773,4186.666504,4202.563965,4188.717773,4169.230957,4193.333496,4184.102539
19,4182.05127,4175.897461,4136.410156,4186.153809,4168.205078,4180.512695,4180.0,4196.410156,4189.230957,4194.871582,4184.102539,4163.589844,4190.256348,4175.384766
20,4170.256348,4163.077148,4125.128418,4181.538574,4165.128418,4166.153809,4177.94873,4190.256348,4183.077148,4183.589844,4179.487305,4158.461426,4184.102539,4166.153809
21,4170.769043,4167.179688,4131.794922,4184.102539,4160.512695,4173.846191,4183.589844,4189.230957,4184.102539,4183.077148,4181.538574,4167.692383,4182.563965,4169.230957
22,4172.820313,4167.179688,4132.307617,4180.512695,4153.846191,4183.077148,4185.128418,4191.282227,4177.436035,4175.897461,4170.256348,4162.563965,4174.871582,4167.179688
23,4170.256348,4157.436035,4121.025879,4174.871582,4152.820313,4174.358887,4180.0,4183.077148,4167.692383,4164.615234,4158.974121,4150.769043,4167.692383,4168.717773
24,4171.282227,4158.461426,4120.0,4180.512695,4162.563965,4174.871582,4182.05127,4178.461426,4165.128418,4165.641113,4164.615234,4159.487305,4167.692383,4170.769043
25,4178.974121,4166.153809,4131.794922,4185.641113,4167.179688,4183.589844,4185.128418,4184.615234,4168.205078,4170.769043,4172.307617,4170.769043,4176.922852,4164.615234
26,4186.666504,4167.692383,4136.922852,4182.05127,4160.512695,4176.922852,4183.077148,4191.794922,4180.512695,4172.820313,4174.871582,4172.307617,4184.615234,4170.769043
27,4181.025879,4163.589844,4128.717773,4178.974121,4154.871582,4168.717773,4177.436035,4188.205078,4181.025879,4172.307617,4171.282227,4167.179688,4177.94873,4173.846191
28,4167.692383,4156.410156,4120.0,4176.410156,4155.384766,4169.743652,4172.820313,4177.94873,4167.179688,4166.153809,4165.641113,4157.436035,4165.641113,4157.436035
29,4165.128418,4147.179688,4120.512695,4172.307617,4155.897461,4171.282227,4175.384766,4177.436035,4171.282227,4165.641113,4166.153809,4155.897461,4167.692383,4154.871582
30,4169.230957,4149.230957,4122.05127,4174.871582,4154.358887,4172.820313,4179.487305,4185.641113,4187.692383,4171.282227,4170.256348,4158.461426,4174.358887,4164.615234
31,4169.230957,4163.077148,4121.025879,4181.538574,4154.358887,4172.820313,4175.384766,4185.641113,4188.717773,4171.794922,4170.769043,4153.333496,4170.769043,4157.436035
32,4170.769043,4171.794922,4125.128418,4184.615234,4159.487305,4169.230957,4174.358887,4184.102539,4185.128418,4171.282227,4171.794922,4153.846191,4168.205078,4154.871582
33,4174.871582,4169.230957,4125.128418,4183.589844,4161.538574,4172.307617,4180.512695,4187.692383,4187.692383,4173.846191,4173.333496,4161.538574,4169.743652,4168.717773
34,4173.333496,4166.666504,4119.487305,4181.538574,4156.922852,4180.512695,4178.974121,4188.717773,4184.102539,4172.307617,4169.230957,4154.358887,4170.769043,4166.153809
35,4170.769043,4170.769043,4119.487305,4182.563965,4160.512695,4186.153809,4177.94873,4186.153809,4180.512695,4168.205078,4165.128418,4140.0,4168.717773,4153.846191
36,4171.282227,4168.205078,4119.487305,4184.102539,4168.717773,4184.615234,4180.0,4187.179688,4185.128418,4170.769043,4168.205078,4138.461426,4166.153809,4158.461426
37,4170.256348,4162.05127,4116.410156,4183.589844,4162.05127,4175.897461,4174.358887,4186.153809,4191.282227,4172.307617,4170.769043,4142.563965,4169.230957,4169.230957
38,4170.256348,4164.615234,4120.0,4181.538574,4155.384766,4170.256348,4171.282227,4181.025879,4184.102539,4169.230957,4169.230957,4143.589844,4171.282227,4172.307617
39,4172.820313,4168.205078,4125.641113,4182.563965,4161.538574,4169.230957,4171.794922,4181.025879,4170.256348,4166.153809,4167.179688,4149.230957,4168.205078,4165.128418
40,4171.282227,4166.153809,4124.102539,4181.025879,4158.974121,4162.05127,4169.743652,4182.563965,4166.153809,4166.153809,4167.692383,4157.436035,4166.666504,4160.512695
41,4169.230957,4164.615234,4123.077148,4178.974121,4152.307617,4161.025879,4168.205078,4178.461426,4170.256348,4163.589844,4168.717773,4157.436035,4167.692383,4163.589844
42,4175.384766,4167.179688,4121.538574,4181.538574,4161.025879,4166.666504,4167.692383,4174.871582,4169.743652,4157.436035,4167.179688,4152.820313,4161.025879,4158.974121
43,4181.538574,4169.230957,4122.05127,4183.077148,4166.153809,4169.230957,4168.205078,4180.0,4168.205078,4157.94873,4166.153809,4153.333496,4154.871582,4155.897461
44,4183.077148,4169.743652,4130.256348,4183.077148,4163.589844,4176.922852,4174.871582,4185.128418,4176.922852,4165.128418,4167.179688,4160.512695,4162.563965,4164.102539
45,4181.538574,4169.743652,4131.282227,4186.153809,4168.205078,4185.641113,4179.487305,4183.077148,4187.692383,4169.743652,4168.205078,4162.563965,4170.769043,4163.589844
46,4173.333496,4167.179688,4128.717773,4186.666504,4170.256348,4179.487305,4173.333496,4181.538574,4184.615234,4168.717773,4169.743652,4157.436035,4167.692383,4154.358887
47,4171.282227,4169.230957,4133.846191,4184.102539,4164.102539,4168.717773,4169.743652,4182.05127,4174.358887,4165.641113,4169.230957,4152.307617,4164.615234,4152.820313
48,4181.025879,4180.512695,4140.512695,4186.666504,4165.641113,4170.769043,4177.94873,4188.205078,4180.0,4168.717773,4172.820313,4153.846191,4169.230957,4157.436035
49,4187.692383,4188.717773,4140.0,4189.230957,4170.256348,4180.512695,4182.05127,4195.384766,4192.820313,4177.436035,4180.512695,4160.0,4173.333496,4164.102539
50,4180.0,4180.0,4137.94873,4185.128418,4167.692383,4183.077148,4172.820313,4190.256348,4192.307617,4176.922852,4178.974121,4159.487305,4166.153809,4166.153809
51,4175.384766,4174.358887,4136.410156,4184.615234,4166.153809,4176.410156,4167.179688,4181.538574,4185.641113,4163.589844,4168.717773,4151.794922,4153.846191,4154.358887
52,4180.0,4178.974121,4137.94873,4186.666504,4165.641113,4171.282227,4170.769043,4179.487305,4180.512695,4156.410156,4167.179688,4150.256348,4150.256348,4148.205078
53,4185.128418,4177.436035,4149.743652,4186.666504,4164.102539,4172.820313,4173.846191,4178.461426,4171.794922,4158.461426,4170.769043,4158.461426,4160.0,4154.358887
54,4187.179688,4174.358887,4152.820313,4186.153809,4167.692383,4170.769043,4172.820313,4177.94873,4167.179688,4160.512695,4172.307617,4163.077148,4170.769043,4157.436035
55,4181.538574,4175.897461,4141.538574,4185.641113,4168.205078,4166.153809,4168.205078,4181.538574,4173.333496,4158.461426,4171.794922,4158.974121,4166.153809,4156.410156
56,4171.794922,4171.794922,4132.820313,4182.05127,4162.05127,4168.205078,4165.641113,4184.615234,4182.563965,4158.461426,4167.179688,4150.256348,4153.333496,4150.769043
57,4174.358887,4166.666504,4141.538574,4183.077148,4163.077148,4177.94873,4172.820313,4189.743652,4196.410156,4168.717773,4173.333496,4155.897461,4159.487305,4150.769043
58,4182.05127,4170.769043,4153.846191,4187.692383,4169.743652,4188.717773,4178.974121,4194.871582,4203.589844,4176.922852,4186.666504,4169.743652,4175.897461,4164.102539
59,4174.871582,4170.256348,4151.282227,4184.615234,4169.743652,4182.563965,4171.282227,4185.641113,4193.333496,4171.282227,4180.0,4163.589844,4167.179688,4164.102539
60,4171.794922,4166.666504,4148.205078,4182.05127,4167.692383,4169.230957,4169.230957,4174.358887,4178.974121,4164.615234,4170.256348,4157.436035,4148.717773,4151.282227
61,4183.589844,4176.410156,4161.025879,4186.666504,4169.743652,4170.256348,4180.0,4176.922852,4172.307617,4165.641113,4176.410156,4176.922852,4154.358887,4157.436035
62,4187.179688,4187.179688,4172.820313,4187.692383,4169.743652,4166.153809,4184.615234,4183.077148,4168.205078,4166.666504,4181.025879,4187.692383,4166.666504,4172.820313
63,4181.538574,4190.256348,4169.230957,4186.153809,4169.230957,4156.410156,4177.94873,4183.589844,4173.846191,4167.179688,4182.05127,4174.871582,4162.05127,4169.230957
64,4176.922852,4184.615234,4163.589844,4186.153809,4169.743652,4161.025879,4171.282227,4184.615234,4193.333496,4172.307617,4185.641113,4168.717773,4156.410156,4157.436035
65,4169.230957,4173.846191,4155.384766,4182.05127,4167.692383,4171.794922,4169.230957,4181.538574,4200.0,4169.230957,4177.436035,4167.179688,4157.436035,4152.307617
66,4164.102539,4165.641113,4142.05127,4181.025879,4167.692383,4177.94873,4169.743652,4171.794922,4189.743652,4155.897461,4166.153809,4155.897461,4148.717773,4143.589844
67,4166.153809,4166.153809,4136.410156,4184.615234,4169.743652,4181.025879,4169.743652,4164.102539,4178.974121,4147.179688,4161.538574,4149.230957,4134.871582,4136.410156
68,4170.256348,4168.717773,4140.512695,4183.589844,4168.717773,4180.0,4167.179688,4163.589844,4172.820313,4148.205078,4161.538574,4150.769043,4140.512695,4146.666504
69,4173.333496,4171.282227,4146.666504,4182.05127,4167.692383,4173.846191,4171.794922,4163.589844,4162.05127,4153.333496,4167.692383,4157.94873,4154.871582,4163.077148
70,4173.333496,4177.94873,4150.769043,4186.153809,4169.230957,4171.282227,4178.974121,4164.615234,4150.256348,4151.282227,4172.820313,4166.666504,4154.871582,4166.153809
71,4171.282227,4180.512695,4151.282227,4186.666504,4170.769043,4169.743652,4174.871582,4174.871582,4155.384766,4151.794922,4170.769043,4169.230957,4152.307617,4161.538574
72,4170.256348,4181.538574,4148.717773,4184.102539,4172.820313,4169.230957,4170.256348,4181.025879,4168.205078,4164.102539,4171.282227,4169.230957,4155.384766,4166.666504
73,4169.743652,4180.0,4141.025879,4184.102539,4174.358887,4169.230957,4170.769043,4173.846191,4171.282227,4167.692383,4172.307617,4164.615234,4155.384766,4165.641113
74,4170.256348,4174.871582,4135.384766,4183.077148,4170.769043,4165.128418,4168.205078,4170.256348,4178.461426,4160.0,4169.230957,4159.487305,4153.333496,4154.358887
75,4170.256348,4171.794922,4137.94873,4183.077148,4166.153809,4164.102539,4166.153809,4174.358887,4196.922852,4163.589844,4169.230957,4165.641113,4150.256348,4152.307617
76,4167.692383,4174.871582,4139.487305,4181.538574,4167.692383,4169.230957,4169.230957,4171.794922,4200.512695,4168.717773,4171.282227,4168.205078,4148.205078,4153.846191
77,4167.692383,4179.487305,4136.410156,4178.461426,4170.256348,4172.820313,4169.743652,4165.128418,4186.153809,4162.05127,4169.230957,4158.461426,4150.256348,4158.461426
78,4170.256348,4182.05127,4137.94873,4182.563965,4169.743652,4169.743652,4167.179688,4164.102539,4182.563965,4164.102539,4168.205078,4162.05127,4156.410156,4164.615234
79,4171.282227,4185.128418,4142.05127,4188.717773,4172.307617,4169.743652,4170.769043,4169.230957,4185.641113,4173.333496,4171.282227,4173.333496,4158.974121,4163.077148
80,4171.282227,4182.563965,4140.0,4187.179688,4174.871582,4173.333496,4169.743652,4174.358887,4177.436035,4169.230957,4175.897461,4171.794922,4157.436035,4160.0
81,4165.128418,4175.384766,4135.384766,4178.974121,4166.666504,4166.666504,4160.0,4175.384766,4156.922852,4156.410156,4173.333496,4169.230957,4154.358887,4155.897461
82,4159.487305,4170.256348,4134.871582,4172.820313,4155.897461,4157.94873,4156.922852,4176.922852,4144.615234,4147.692383,4166.153809,4168.205078,4151.282227,4151.794922
83,4163.589844,4171.794922,4138.461426,4173.846191,4157.436035,4164.615234,4163.077148,4184.615234,4159.487305,4152.820313,4165.128418,4166.153809,4151.794922,4160.0
84,4170.769043,4179.487305,4140.512695,4180.0,4165.641113,4170.769043,4165.128418,4193.333496,4188.205078,4169.230957,4174.358887,4175.384766,4159.487305,4166.666504
85,4172.307617,4185.128418,4143.589844,4184.615234,4168.205078,4165.641113,4166.153809,4196.410156,4205.641113,4176.922852,4184.102539,4189.743652,4170.769043,4158.461426
86,4171.794922,4187.692383,4150.256348,4186.153809,4167.179688,4162.563965,4169.743652,4190.256348,4204.102539,4173.333496,4183.589844,4187.179688,4169.230957,4159.487305
87,4169.743652,4181.538574,4146.666504,4180.0,4164.615234,4165.641113,4166.666504,4182.563965,4191.282227,4169.230957,4169.743652,4172.820313,4154.358887,4164.102539
88,4167.179688,4171.282227,4137.94873,4174.358887,4158.974121,4168.205078,4166.153809,4182.05127,4186.666504,4163.589844,4157.94873,4168.717773,4149.743652,4156.922852
89,4165.128418,4168.205078,4135.897461,4176.410156,4154.358887,4173.333496,4176.410156,4184.102539,4189.743652,4158.974121,4158.461426,4171.794922,4156.922852,4155.897461
90,4157.436035,4169.230957,4131.282227,4175.384766,4154.871582,4174.871582,4177.436035,4180.512695,4180.0,4149.230957,4155.897461,4166.666504,4150.769043,4150.769043
91,4153.333496,4167.692383,4123.589844,4170.769043,4154.358887,4168.205078,4165.641113,4173.333496,4165.641113,4133.846191,4147.692383,4162.563965,4135.897461,4135.384766
92,4164.102539,4174.358887,4130.256348,4172.820313,4152.820313,4165.128418,4162.05127,4167.179688,4162.563965,4135.384766,4148.717773,4170.769043,4143.077148,4141.025879
93,4172.307617,4185.128418,4141.538574,4173.846191,4160.512695,4167.179688,4166.666504,4166.153809,4158.974121,4149.743652,4157.94873,4182.563965,4159.487305,4156.922852
94,4169.743652,4184.102539,4139.487305,4172.307617,4167.692383,4166.153809,4166.153809,4168.205078,4156.410156,4153.333496,4164.102539,4183.077148,4157.94873,4156.922852
95,4169.230957,4181.538574,4143.077148,4177.94873,4160.512695,4164.615234,4165.641113,4170.769043,4172.307617,4155.897461,4167.179688,4181.538574,4157.436035,4161.538574
96,4170.769043,4185.641113,4155.384766,4184.102539,4156.922852,4168.205078,4170.769043,4175.384766,4195.897461,4169.230957,4173.846191,4189.230957,4169.230957,4169.743652
97,4174.871582,4188.717773,4157.436035,4183.589844,4165.128418,4171.282227,4171.794922,4180.0,4204.615234,4177.436035,4185.641113,4200.512695,4174.871582,4169.743652
98,4179.487305,4189.743652,4154.871582,4184.615234,4171.282227,4168.205078,4168.717773,4177.436035,4198.974121,4176.410156,4187.692383,4204.102539,4172.820313,4176.922852
99,4176.922852,4189.230957,4156.410156,4185.128418,4167.692383,4165.641113,4166.153809,4171.794922,4188.205078,4172.820313,4175.897461,4202.05127,4172.820313,4186.153809
100,4168.717773,4185.128418,4149.230957,4179.487305,4158.974121,4165.128418,4167.179688,4170.769043,4183.077148,4169.230957,4174.358887,4198.974121,4171.794922,4180.0
101,4167.692383,4183.589844,4137.94873,4177.436035,4157.94873,4166.666504,4171.794922,4170.769043,4181.025879,4164.615234,4180.512695,4195.897461,4169.230957,4164.102539
102,4169.743652,4184.615234,4138.974121,4182.05127,4166.153809,4175.384766,4174.358887,4168.205078,4178.974121,4162.563965,4175.897461,4191.282227,4168.717773,4155.897461
103,4168.205078,4184.102539,4140.512695,4184.615234,4169.230957,4185.128418,4171.794922,4166.666504,4187.692383,4165.641113,4169.230957,4185.641113,4164.615234,4162.05127
104,4166.666504,4183.077148,4135.897461,4183.589844,4166.666504,4183.077148,4168.205078,4165.128418,4200.0,4170.256348,4171.282227,4182.563965,4160.0,4172.820313
105,4169.230957,4188.205078,4137.436035,4185.641113,4168.717773,4174.358887,4167.179688,4165.128418,4204.615234,4172.307617,4175.897461,4185.641113,4163.589844,4173.333496
106,4172.307617,4192.307617,4135.384766,4186.153809,4171.794922,4173.333496,4163.589844,4163.077148,4203.589844,4172.820313,4180.512695,4187.692383,4171.794922,4169.743652
107,4165.128418,4188.205078,4123.077148,4182.563965,4165.128418,4173.333496,4155.897461,4158.974121,4201.538574,4170.256348,4181.538574,4182.563965,4167.692383,4169.230957
108,4155.897461,4185.641113,4118.461426,4182.05127,4158.974121,4169.743652,4153.333496,4157.94873,4197.94873,4168.205078,4176.410156,4176.410156,4158.461426,4159.487305
109,4158.974121,4189.230957,4123.589844,4183.077148,4156.922852,4169.230957,4157.436035,4157.436035,4189.230957,4167.179688,4172.820313,4173.846191,4157.436035,4153.333496
110,4165.641113,4189.743652,4120.0,4182.05127,4156.410156,4171.282227,4158.461426,4155.897461,4185.128418,4162.563965,4172.307617,4174.871582,4162.05127,4161.538574
111,4167.692383,4191.794922,4121.538574,4182.563965,4162.05127,4171.282227,4161.025879,4155.384766,4190.769043,4163.589844,4178.461426,4185.128418,4167.179688,4169.230957
112,4170.769043,4200.512695,4132.820313,4185.641113,4169.743652,4170.769043,4166.153809,4157.436035,4197.94873,4171.282227,4188.717773,4200.0,4171.794922,4170.769043
113,4171.794922,4205.128418,4133.333496,4187.179688,4168.205078,4171.282227,4166.153809,4156.922852,4198.974121,4172.820313,4188.717773,4201.025879,4171.794922,4170.769043
114,4168.717773,4195.897461,4124.102539,4184.615234,4161.025879,4169.743652,4165.128418,4153.846191,4197.436035,4168.717773,4183.589844,4191.282227,4165.641113,4170.256348
115,4165.641113,4184.102539,4123.589844,4181.025879,4159.487305,4170.256348,4168.717773,4155.897461,4198.974121,4167.179688,4183.589844,4191.282227,4163.077148,4168.205078
116,4165.641113,4188.205078,4127.179688,4180.0,4157.94873,4172.307617,4168.205078,4163.589844,4209.230957,4169.230957,4184.615234,4194.358887,4167.179688,4171.794922
117,4167.692383,4201.025879,4128.717773,4182.563965,4155.384766,4171.794922,4167.692383,4166.153809,4217.94873,4174.358887,4185.641113,4195.897461,4170.769043,4177.436035
118,4166.666504,4202.05127,4129.743652,4185.128418,4156.410156,4168.717773,4167.179688,4162.563965,4208.717773,4174.358887,4186.666504,4196.922852,4170.256348,4175.384766
119,4165.641113,4198.461426,4127.179688,4181.025879,4156.410156,4167.692383,4161.538574,4161.025879,4197.94873,4170.769043,4184.615234,4191.794922,4168.205078,4170.769043
120,4168.717773,4196.410156,4124.102539,4176.922852,4158.461426,4167.179688,4157.436035,4157.436035,4200.512695,4172.307617,4185.128418,4185.128418,4170.256348,4172.307617
121,4164.102539,4189.230957,4123.077148,4175.897461,4157.94873,4167.179688,4158.461426,4153.846191,4196.922852,4170.769043,4184.102539,4182.563965,4170.769043,4171.282227
122,4157.94873,4186.666504,4123.589844,4175.897461,4152.820313,4167.692383,4161.025879,4154.871582,4185.641113,4162.05127,4178.461426,4183.077148,4164.615234,4166.153809
123,4164.615234,4189.743652,4132.307617,4176.922852,4152.820313,4170.769043,4167.692383,4154.871582,4188.205078,4157.94873,4172.820313,4191.282227,4162.05127,4166.666504
124,4171.282227,4186.666504,4141.538574,4177.94873,4155.897461,4177.436035,4173.846191,4153.846191,4195.897461,4156.922852,4169.230957,4198.461426,4164.102539,4173.846191
125,4168.717773,4183.077148,4140.512695,4180.0,4155.384766,4184.102539,4171.282227,4155.384766,4197.436035,4159.487305,4173.846191,4194.358887,4164.102539,4173.846191
126,4172.307617,4186.153809,4141.538574,4184.615234,4154.871582,4186.153809,4171.282227,4159.487305,4199.487305,4169.230957,4183.589844,4195.384766,4166.666504,4168.205078
127,4175.897461,4187.692383,4145.128418,4183.589844,4155.384766,4181.538574,4175.897461,4162.05127,4203.077148,4172.820313,4188.205078,4202.05127,4170.256348,4175.897461
