,AF3,F7,F3,FC5,T7,P7,O1,O2,P8,T8,FC6,F4,F8,AF4
0,4217.436035,4215.384766,4208.717773,4203.077148,4204.102539,4215.897461,4220.512695,4214.871582,4210.769043,4201.538574,4209.230957,4214.358887,4209.230957,4205.641113
1,4212.820313,4212.820313,4204.102539,4198.461426,4206.666504,4215.384766,4224.102539,4216.922852,4220.512695,4211.794922,4205.641113,4211.794922,4204.102539,4200.512695
2,4215.897461,4217.94873,4204.615234,4207.692383,4208.205078,4215.897461,4230.256348,4216.922852,4220.0,4216.410156,4217.436035,4218.461426,4212.820313,4211.282227
3,4211.794922,4217.436035,4203.077148,4213.846191,4205.128418,4215.897461,4220.512695,4216.410156,4217.436035,4216.922852,4214.358887,4213.846191,4208.205078,4211.282227
4,4204.615234,4215.897461,4200.512695,4206.153809,4205.128418,4213.846191,4213.846191,4212.307617,4213.846191,4214.358887,4206.153809,4207.692383,4199.487305,4200.0
5,4205.128418,4214.871582,4200.0,4202.05127,4208.717773,4211.794922,4217.94873,4211.282227,4207.692383,4215.384766,4213.333496,4213.333496,4211.282227,4198.461426
6,4209.230957,4213.846191,4200.512695,4208.717773,4208.717773,4211.794922,4218.461426,4215.897461,4202.563965,4217.94873,4215.384766,4216.922852,4219.487305,4201.025879
7,4214.871582,4218.461426,4204.102539,4214.358887,4211.794922,4215.897461,4216.410156,4216.410156,4199.487305,4213.846191,4212.307617,4215.384766,4212.307617,4202.563965
8,4218.974121,4221.538574,4207.179688,4215.897461,4218.461426,4216.922852,4220.0,4216.410156,4204.615234,4211.282227,4218.461426,4217.436035,4213.333496,4202.563965
9,4217.436035,4217.94873,4202.563965,4214.358887,4215.384766,4213.333496,4218.974121,4217.94873,4212.820313,4214.871582,4221.025879,4217.94873,4220.0,4200.0
10,4213.846191,4215.384766,4199.487305,4207.179688,4205.641113,4212.307617,4216.922852,4218.974121,4220.0,4216.410156,4216.922852,4213.846191,4214.358887,4206.153809
11,4216.410156,4218.461426,4208.717773,4206.153809,4202.05127,4212.307617,4218.461426,4225.128418,4225.128418,4216.410156,4219.487305,4221.538574,4213.333496,4218.461426
12,4220.0,4219.487305,4217.436035,4213.333496,4203.589844,4207.692383,4220.512695,4232.820313,4224.615234,4218.461426,4218.974121,4232.820313,4224.102539,4221.025879
13,4217.436035,4217.94873,4214.871582,4215.897461,4204.615234,4203.589844,4219.487305,4228.205078,4218.974121,4220.512695,4218.461426,4231.282227,4231.794922,4217.94873
14,4214.871582,4218.461426,4211.282227,4211.282227,4203.589844,4205.641113,4218.461426,4218.974121,4215.897461,4219.487305,4228.717773,4229.743652,4227.179688,4218.974121
15,4214.871582,4217.94873,4213.333496,4206.153809,4202.563965,4205.641113,4220.0,4217.94873,4215.897461,4217.94873,4229.743652,4232.307617,4221.538574,4216.922852
16,4211.794922,4215.897461,4210.256348,4202.563965,4202.05127,4204.615234,4218.974121,4218.974121,4215.384766,4216.922852,4218.974121,4226.153809,4218.461426,4208.717773
17,4203.589844,4212.820313,4202.563965,4203.077148,4203.589844,4208.205078,4217.436035,4216.922852,4216.922852,4217.436035,4216.410156,4217.94873,4207.179688,4196.922852
18,4197.94873,4211.282227,4202.05127,4205.128418,4204.102539,4207.179688,4217.436035,4215.897461,4217.436035,4209.230957,4215.897461,4218.974121,4199.487305,4192.307617
19,4202.563965,4213.846191,4209.230957,4206.153809,4201.538574,4196.922852,4214.358887,4215.384766,4213.333496,4198.461426,4214.358887,4219.487305,4209.230957,4197.94873
20,4210.769043,4216.410156,4214.358887,4206.666504,4200.512695,4191.282227,4210.769043,4216.410156,4205.641113,4206.666504,4215.384766,4218.974121,4217.436035,4200.0
21,4209.743652,4214.871582,4213.333496,4206.666504,4201.538574,4196.922852,4213.333496,4218.974121,4200.0,4215.384766,4209.230957,4220.512695,4214.871582,4199.487305
22,4204.102539,4213.333496,4205.128418,4203.589844,4202.563965,4202.563965,4216.410156,4219.487305,4197.94873,4205.641113,4196.922852,4215.897461,4209.230957,4200.512695
23,4208.205078,4213.846191,4201.025879,4200.512695,4203.077148,4207.692383,4219.487305,4217.436035,4200.0,4200.512695,4197.94873,4215.897461,4203.589844,4198.974121
24,4216.410156,4215.384766,4212.307617,4206.666504,4204.102539,4214.871582,4226.153809,4219.487305,4209.230957,4202.05127,4209.743652,4224.102539,4203.589844,4198.461426
25,4215.897461,4216.410156,4216.922852,4212.820313,4204.102539,4212.820313,4228.205078,4222.563965,4216.922852,4201.538574,4212.820313,4223.589844,4211.282227,4200.0
26,4212.820313,4217.436035,4206.153809,4208.717773,4204.615234,4210.256348,4226.666504,4218.974121,4216.922852,4211.282227,4209.230957,4217.94873,4215.384766,4199.487305
27,4213.846191,4217.94873,4202.05127,4204.102539,4205.128418,4213.846191,4225.641113,4216.922852,4215.897461,4223.077148,4212.820313,4218.461426,4213.333496,4204.102539
28,4208.205078,4211.282227,4198.974121,4197.436035,4201.025879,4207.692383,4221.538574,4218.461426,4214.871582,4215.897461,4214.871582,4217.436035,4209.743652,4201.025879
29,4201.025879,4203.077148,4190.256348,4189.230957,4196.922852,4205.128418,4216.410156,4212.307617,4204.102539,4204.615234,4202.05127,4211.282227,4206.666504,4186.153809
30,4206.666504,4199.487305,4192.820313,4191.794922,4199.487305,4216.922852,4218.974121,4206.666504,4198.461426,4206.666504,4194.358887,4212.820313,4208.205078,4186.666504
31,4214.871582,4201.538574,4202.563965,4201.538574,4201.538574,4220.512695,4223.589844,4214.871582,4209.743652,4214.358887,4209.743652,4218.461426,4218.461426,4204.102539
32,4215.897461,4208.717773,4202.563965,4201.538574,4202.05127,4212.307617,4226.666504,4220.512695,4220.0,4220.0,4222.05127,4217.94873,4226.153809,4211.794922
33,4221.538574,4217.436035,4205.128418,4206.666504,4207.179688,4216.410156,4229.230957,4217.436035,4220.512695,4222.563965,4220.512695,4220.0,4224.615234,4206.153809
34,4232.307617,4220.0,4211.282227,4217.436035,4210.769043,4217.94873,4222.05127,4216.922852,4216.410156,4220.512695,4216.922852,4223.077148,4217.94873,4203.077148
35,4233.846191,4222.05127,4213.846191,4212.820313,4209.230957,4204.102539,4213.333496,4212.307617,4206.666504,4211.794922,4213.846191,4223.077148,4213.333496,4205.128418
36,4232.307617,4225.128418,4215.384766,4208.205078,4207.692383,4202.563965,4212.820313,4206.153809,4197.436035,4205.128418,4211.282227,4221.538574,4214.871582,4206.153809
37,4232.307617,4220.512695,4215.384766,4209.743652,4209.743652,4215.897461,4217.436035,4210.256348,4206.666504,4208.717773,4209.230957,4220.512695,4213.333496,4203.077148
38,4228.717773,4214.871582,4215.384766,4207.692383,4212.820313,4220.512695,4224.615234,4216.922852,4221.025879,4215.384766,4207.179688,4223.589844,4214.871582,4206.153809
39,4227.692383,4215.384766,4216.922852,4209.230957,4212.820313,4215.384766,4230.256348,4215.384766,4215.384766,4219.487305,4210.256348,4229.743652,4224.615234,4214.871582
40,4232.307617,4216.922852,4217.436035,4213.333496,4209.230957,4214.871582,4230.769043,4214.358887,4201.538574,4222.05127,4221.538574,4233.846191,4225.128418,4215.897461
41,4234.358887,4217.436035,4216.410156,4213.333496,4203.077148,4212.307617,4228.205078,4217.436035,4200.0,4221.025879,4227.179688,4234.358887,4217.94873,4211.282227
42,4232.307617,4217.94873,4215.897461,4212.307617,4201.538574,4208.717773,4227.179688,4217.94873,4209.230957,4216.922852,4227.692383,4233.846191,4221.025879,4207.692383
43,4231.282227,4220.0,4215.384766,4211.282227,4210.769043,4214.358887,4225.128418,4218.461426,4215.384766,4219.487305,4227.179688,4231.282227,4232.307617,4212.307617
44,4229.230957,4220.0,4212.307617,4205.641113,4214.358887,4215.897461,4221.538574,4217.94873,4218.461426,4225.641113,4222.563965,4230.769043,4230.256348,4216.410156
45,4222.05127,4218.974121,4207.179688,4204.102539,4207.179688,4210.256348,4215.897461,4214.358887,4222.05127,4222.05127,4218.461426,4228.205078,4219.487305,4209.743652
46,4216.922852,4218.974121,4203.589844,4206.153809,4206.666504,4207.692383,4212.820313,4212.307617,4214.358887,4212.307617,4213.846191,4220.0,4215.897461,4204.102539
47,4223.077148,4218.974121,4203.589844,4204.615234,4209.230957,4207.692383,4215.384766,4208.717773,4200.0,4206.153809,4204.102539,4217.436035,4211.282227,4207.692383
48,4227.179688,4217.94873,4203.589844,4205.128418,4202.05127,4199.487305,4210.769043,4203.589844,4193.333496,4199.487305,4199.487305,4220.512695,4205.641113,4202.05127
49,4222.05127,4218.461426,4205.128418,4206.153809,4198.461426,4196.410156,4204.615234,4206.153809,4196.922852,4196.410156,4205.128418,4222.05127,4210.769043,4196.410156
50,4217.436035,4220.0,4207.179688,4204.615234,4204.102539,4208.205078,4212.307617,4216.410156,4207.179688,4204.102539,4210.769043,4225.128418,4221.538574,4203.589844
51,4216.922852,4220.512695,4204.102539,4204.102539,4204.102539,4212.307617,4219.487305,4218.974121,4218.974121,4212.820313,4215.897461,4230.256348,4225.128418,4204.615234
52,4216.410156,4220.0,4202.05127,4205.641113,4202.05127,4208.205078,4215.384766,4217.94873,4220.512695,4216.410156,4219.487305,4233.333496,4221.538574,4198.461426
53,4215.384766,4217.94873,4203.589844,4205.128418,4207.692383,4211.794922,4217.436035,4225.128418,4218.461426,4216.922852,4213.333496,4231.794922,4216.410156,4199.487305
54,4216.410156,4215.897461,4203.589844,4203.077148,4213.846191,4217.436035,4226.153809,4230.769043,4222.563965,4216.922852,4213.333496,4225.128418,4215.384766,4204.102539
55,4213.333496,4214.871582,4199.487305,4200.0,4211.282227,4212.307617,4222.05127,4220.0,4218.974121,4214.871582,4217.94873,4218.974121,4219.487305,4195.384766
56,4205.128418,4214.358887,4195.897461,4199.487305,4206.666504,4209.230957,4213.846191,4204.615234,4212.307617,4209.230957,4211.282227,4214.358887,4217.94873,4185.128418
57,4201.025879,4212.820313,4194.358887,4199.487305,4211.794922,4217.436035,4214.871582,4203.589844,4211.794922,4204.615234,4197.94873,4209.230957,4206.666504,4182.563965
58,4206.666504,4213.846191,4195.384766,4200.512695,4216.922852,4216.410156,4217.436035,4209.743652,4206.153809,4201.538574,4196.922852,4208.717773,4201.025879,4184.615234
59,4216.410156,4223.589844,4203.077148,4210.256348,4215.384766,4205.641113,4217.436035,4210.769043,4200.0,4204.102539,4207.179688,4215.384766,4209.743652,4192.820313
60,4226.666504,4232.307617,4212.307617,4217.436035,4212.820313,4198.974121,4214.358887,4213.333496,4207.179688,4212.820313,4213.846191,4225.641113,4221.538574,4205.128418
61,4233.846191,4225.128418,4216.410156,4214.358887,4213.333496,4205.641113,4219.487305,4219.487305,4216.410156,4220.0,4216.922852,4233.846191,4226.666504,4216.410156
62,4231.794922,4217.436035,4215.384766,4211.282227,4213.846191,4210.769043,4226.666504,4220.512695,4214.871582,4215.897461,4217.436035,4235.384766,4225.641113,4212.820313
63,4230.256348,4223.077148,4215.897461,4213.846191,4213.333496,4202.563965,4223.077148,4216.922852,4211.282227,4202.05127,4216.410156,4234.358887,4225.128418,4205.128418
64,4236.410156,4225.128418,4218.974121,4216.410156,4213.846191,4204.615234,4222.05127,4217.436035,4214.358887,4199.487305,4218.461426,4236.410156,4225.128418,4214.358887
65,4236.922852,4217.94873,4215.384766,4215.897461,4212.820313,4213.333496,4229.230957,4219.487305,4219.487305,4213.333496,4217.436035,4235.384766,4220.0,4223.589844
66,4230.256348,4215.897461,4209.743652,4212.820313,4207.179688,4209.743652,4225.128418,4218.461426,4215.384766,4215.897461,4204.615234,4227.692383,4212.307617,4208.205078
67,4228.717773,4218.461426,4211.282227,4213.333496,4207.692383,4200.0,4214.358887,4215.897461,4205.128418,4208.205078,4202.563965,4227.692383,4212.307617,4197.94873
68,4228.205078,4220.512695,4212.307617,4218.461426,4211.282227,4199.487305,4214.358887,4216.410156,4200.512695,4212.820313,4213.333496,4230.769043,4221.025879,4205.641113
69,4218.974121,4216.922852,4206.153809,4211.794922,4206.666504,4204.102539,4215.384766,4211.282227,4202.563965,4211.282227,4211.282227,4224.615234,4213.846191,4196.410156
70,4210.256348,4211.794922,4199.487305,4203.077148,4201.025879,4204.102539,4211.794922,4201.538574,4200.512695,4198.461426,4203.077148,4216.922852,4197.94873,4183.077148
71,4214.358887,4212.820313,4199.487305,4210.256348,4202.563965,4204.102539,4212.820313,4204.102539,4199.487305,4203.589844,4209.230957,4224.102539,4205.641113,4194.358887
72,4224.615234,4217.94873,4206.666504,4218.974121,4209.230957,4203.077148,4217.94873,4216.410156,4207.692383,4222.563965,4222.563965,4235.897461,4227.692383,4212.307617
73,4232.307617,4220.512695,4217.94873,4219.487305,4211.282227,4202.563965,4222.05127,4220.512695,4216.922852,4227.692383,4225.641113,4245.128418,4238.461426,4225.128418
74,4235.897461,4221.538574,4221.538574,4220.0,4205.641113,4206.153809,4221.025879,4217.436035,4215.384766,4218.974121,4219.487305,4248.717773,4229.230957,4223.589844
75,4232.307617,4218.461426,4215.897461,4218.974121,4200.0,4211.282227,4217.94873,4217.94873,4208.205078,4212.307617,4209.230957,4241.025879,4213.333496,4206.666504
76,4226.153809,4213.333496,4212.820313,4214.358887,4201.538574,4215.384766,4221.025879,4218.461426,4209.743652,4214.358887,4204.102539,4232.307617,4209.743652,4197.94873
77,4221.538574,4213.846191,4213.333496,4215.384766,4203.589844,4215.897461,4224.102539,4216.922852,4213.846191,4213.846191,4206.153809,4232.307617,4217.436035,4206.153809
78,4216.410156,4213.846191,4213.333496,4217.436035,4206.666504,4218.461426,4228.205078,4217.436035,4217.436035,4213.333496,4209.230957,4237.94873,4218.461426,4209.230957
79,4219.487305,4210.256348,4216.410156,4215.384766,4207.692383,4218.461426,4233.846191,4218.461426,4220.512695,4217.436035,4214.358887,4243.589844,4213.333496,4209.743652
80,4226.153809,4214.358887,4221.538574,4215.897461,4203.589844,4209.230957,4229.230957,4215.897461,4209.743652,4209.230957,4218.461426,4245.128418,4214.358887,4216.410156
81,4223.589844,4220.0,4220.512695,4217.436035,4202.05127,4199.487305,4217.436035,4212.307617,4195.897461,4202.563965,4211.282227,4243.077148,4215.384766,4220.0
82,4216.410156,4216.410156,4215.897461,4216.410156,4204.102539,4198.974121,4215.384766,4212.307617,4202.563965,4212.820313,4199.487305,4238.974121,4211.794922,4218.461426
83,4211.794922,4213.846191,4214.871582,4213.846191,4203.077148,4206.666504,4225.128418,4214.871582,4218.461426,4221.025879,4204.102539,4236.922852,4211.794922,4214.358887
84,4210.769043,4216.922852,4215.897461,4212.820313,4202.05127,4213.333496,4233.333496,4216.922852,4220.0,4221.025879,4216.922852,4241.025879,4214.358887,4215.384766
85,4213.846191,4217.436035,4214.871582,4213.333496,4203.077148,4215.897461,4233.846191,4223.077148,4214.871582,4215.384766,4214.358887,4247.179688,4215.384766,4225.641113
86,4217.94873,4217.436035,4214.871582,4212.820313,4205.128418,4217.94873,4234.871582,4229.743652,4217.94873,4209.743652,4215.384766,4250.256348,4217.94873,4230.256348
87,4217.436035,4215.897461,4214.358887,4213.333496,4204.102539,4215.897461,4235.384766,4225.128418,4218.974121,4211.282227,4216.922852,4245.128418,4220.512695,4219.487305
88,4212.820313,4206.666504,4209.230957,4210.256348,4200.512695,4206.153809,4226.153809,4212.307617,4206.666504,4210.769043,4202.563965,4237.94873,4211.794922,4206.666504
89,4206.153809,4197.94873,4201.538574,4203.077148,4200.0,4198.974121,4214.871582,4207.692383,4193.846191,4200.0,4194.358887,4231.282227,4198.461426,4198.461426
90,4199.487305,4198.461426,4197.94873,4198.461426,4202.563965,4202.05127,4215.897461,4213.846191,4197.436035,4196.410156,4195.384766,4224.615234,4197.94873,4197.94873
91,4198.974121,4201.538574,4201.538574,4202.05127,4201.538574,4201.538574,4217.94873,4216.922852,4205.128418,4202.563965,4190.256348,4223.077148,4200.512695,4206.666504
92,4199.487305,4202.563965,4202.05127,4208.205078,4200.0,4198.974121,4215.897461,4214.871582,4204.102539,4202.563965,4196.922852,4230.769043,4197.94873,4210.769043
93,4200.512695,4208.717773,4202.05127,4213.846191,4207.179688,4203.077148,4218.974121,4215.384766,4203.589844,4203.589844,4208.717773,4234.871582,4198.461426,4202.563965
94,4200.512695,4215.384766,4206.666504,4217.436035,4211.282227,4204.615234,4220.512695,4211.794922,4197.94873,4206.666504,4194.358887,4227.179688,4200.0,4201.538574
95,4197.436035,4214.358887,4213.846191,4215.897461,4205.128418,4198.974121,4216.410156,4202.563965,4182.563965,4202.563965,4184.102539,4224.615234,4198.974121,4209.230957
96,4197.94873,4212.307617,4214.358887,4213.846191,4201.538574,4196.922852,4214.871582,4198.461426,4178.461426,4197.436035,4197.94873,4228.205078,4199.487305,4208.205078
97,4198.974121,4211.794922,4207.692383,4212.307617,4203.077148,4201.025879,4216.922852,4204.102539,4194.358887,4195.897461,4202.563965,4228.205078,4200.512695,4200.0
98,4193.333496,4206.666504,4203.077148,4207.692383,4202.05127,4204.615234,4216.922852,4210.256348,4212.820313,4196.922852,4195.384766,4226.153809,4198.974121,4197.436035
99,4186.153809,4200.0,4203.077148,4202.05127,4197.94873,4204.102539,4215.384766,4208.205078,4211.794922,4201.025879,4192.307617,4226.153809,4194.358887,4198.461426
100,4186.666504,4200.0,4201.025879,4199.487305,4197.94873,4195.897461,4214.358887,4202.563965,4202.05127,4198.974121,4185.128418,4228.205078,4191.794922,4197.436035
101,4193.333496,4204.615234,4202.563965,4204.615234,4200.512695,4192.820313,4214.871582,4202.563965,4196.922852,4189.230957,4185.128418,4229.743652,4198.461426,4200.512695
102,4201.025879,4211.794922,4209.230957,4209.230957,4203.589844,4198.461426,4217.436035,4203.589844,4191.794922,4185.128418,4198.461426,4232.820313,4206.153809,4207.692383
103,4199.487305,4211.282227,4208.205078,4206.666504,4202.563965,4196.922852,4216.410156,4199.487305,4184.615234,4186.666504,4198.974121,4234.358887,4203.077148,4202.563965
104,4188.717773,4202.563965,4198.974121,4200.0,4198.974121,4191.282227,4210.256348,4196.922852,4185.128418,4186.666504,4189.230957,4228.205078,4196.410156,4192.820313
105,4186.153809,4198.974121,4198.461426,4198.461426,4199.487305,4192.307617,4204.615234,4197.94873,4186.153809,4186.666504,4184.102539,4222.05127,4195.384766,4192.307617
106,4189.230957,4203.077148,4202.05127,4201.025879,4200.0,4195.384766,4205.128418,4197.94873,4183.077148,4186.666504,4187.179688,4221.538574,4195.384766,4193.846191
107,4181.538574,4198.974121,4197.94873,4197.94873,4193.333496,4193.333496,4206.153809,4198.974121,4188.205078,4191.282227,4189.743652,4219.487305,4200.0,4188.205078
108,4169.230957,4192.820313,4190.256348,4193.333496,4185.641113,4192.307617,4206.153809,4204.615234,4200.0,4200.512695,4186.666504,4220.512695,4196.410156,4177.94873
109,4167.692383,4195.384766,4186.666504,4197.436035,4190.769043,4194.871582,4206.153809,4214.358887,4210.769043,4202.05127,4190.769043,4226.666504,4186.153809,4174.871582
110,4169.743652,4198.974121,4189.230957,4204.102539,4198.974121,4200.0,4207.692383,4216.410156,4218.974121,4199.487305,4198.974121,4223.589844,4190.769043,4184.615234
111,4166.666504,4197.436035,4189.743652,4196.922852,4193.846191,4201.538574,4205.641113,4208.205078,4216.410156,4203.077148,4194.358887,4217.436035,4203.077148,4191.794922
112,4164.102539,4198.461426,4186.153809,4189.230957,4188.717773,4196.410156,4201.025879,4198.974121,4205.641113,4200.0,4184.615234,4217.94873,4201.025879,4185.128418
113,4166.666504,4200.512695,4190.256348,4195.897461,4196.410156,4196.922852,4206.666504,4197.436035,4196.410156,4193.333496,4190.256348,4217.94873,4196.410156,4182.05127
114,4169.230957,4202.05127,4197.94873,4204.102539,4202.563965,4199.487305,4212.820313,4200.0,4190.256348,4191.794922,4201.025879,4220.0,4200.0,4188.205078
115,4172.307617,4205.641113,4199.487305,4203.077148,4200.512695,4190.256348,4206.153809,4195.897461,4184.102539,4188.717773,4202.05127,4230.256348,4203.589844,4190.769043
116,4175.384766,4210.769043,4198.461426,4202.05127,4199.487305,4187.179688,4200.512695,4190.769043,4184.615234,4187.692383,4199.487305,4229.743652,4208.717773,4194.871582
117,4174.358887,4210.256348,4198.974121,4204.102539,4202.05127,4198.461426,4203.589844,4195.384766,4188.205078,4188.717773,4198.461426,4217.94873,4212.820313,4193.846191
118,4171.794922,4207.692383,4198.974121,4204.102539,4203.589844,4203.589844,4204.615234,4202.05127,4192.307617,4185.641113,4198.974121,4215.384766,4209.743652,4186.666504
119,4169.230957,4209.743652,4195.897461,4201.538574,4204.102539,4198.974121,4201.025879,4199.487305,4196.922852,4191.282227,4196.922852,4221.538574,4204.102539,4190.769043
120,4167.692383,4213.846191,4193.333496,4201.025879,4203.077148,4200.0,4201.025879,4198.461426,4202.05127,4202.563965,4197.94873,4222.05127,4200.512695,4193.333496
121,4168.205078,4213.333496,4194.358887,4201.025879,4203.077148,4202.05127,4201.538574,4202.05127,4207.179688,4202.05127,4194.871582,4216.922852,4198.461426,4181.025879
122,4167.692383,4209.743652,4194.871582,4198.974121,4200.512695,4194.871582,4196.922852,4201.025879,4209.230957,4198.461426,4185.641113,4216.922852,4201.025879,4181.538574
123,4167.692383,4211.282227,4192.307617,4198.461426,4197.436035,4186.153809,4188.717773,4199.487305,4200.512695,4202.05127,4192.820313,4222.05127,4205.641113,4200.512695
124,4170.769043,4215.897461,4194.358887,4201.538574,4198.974121,4182.563965,4190.769043,4199.487305,4186.153809,4199.487305,4207.692383,4224.102539,4204.615234,4201.025879
125,4172.307617,4214.358887,4201.538574,4204.102539,4200.512695,4190.769043,4201.538574,4201.025879,4188.717773,4195.897461,4206.666504,4224.615234,4207.692383,4192.307617
126,4172.820313,4212.820313,4203.589844,4204.102539,4201.538574,4201.538574,4204.615234,4201.538574,4204.102539,4200.512695,4199.487305,4229.743652,4214.358887,4201.025879
127,4173.846191,4213.333496,4201.538574,4203.077148,4200.512695,4204.615234,4200.0,4198.974121,4200.0,4198.461426,4197.436035,4229.743652,4207.179688,4206.153809
