,AF3,F7,F3,FC5,T7,P7,O1,O2,P8,T8,FC6,F4,F8,AF4
0,4182.563965,4186.153809,4202.563965,4208.205078,4190.256348,4185.128418,4184.102539,4192.820313,4182.563965,4187.179688,4185.641113,4192.307617,4195.897461,4157.436035
1,4186.153809,4190.769043,4204.615234,4204.615234,4191.282227,4185.641113,4186.666504,4197.436035,4181.538574,4202.05127,4189.743652,4194.358887,4203.077148,4167.179688
2,4187.179688,4195.897461,4206.666504,4209.743652,4195.384766,4180.0,4183.589844,4198.974121,4181.538574,4199.487305,4191.282227,4194.871582,4198.461426,4175.384766
3,4188.205078,4192.307617,4212.820313,4214.871582,4200.512695,4179.487305,4184.615234,4198.974121,4182.563965,4194.871582,4186.666504,4197.94873,4190.256348,4177.94873
4,4188.205078,4190.769043,4215.384766,4209.230957,4196.410156,4183.077148,4186.153809,4197.94873,4183.589844,4195.384766,4183.589844,4194.871582,4181.025879,4170.769043
5,4189.743652,4196.410156,4214.871582,4206.153809,4189.743652,4184.102539,4185.641113,4199.487305,4182.05127,4183.589844,4182.563965,4190.769043,4178.461426,4163.077148
6,4196.410156,4199.487305,4221.025879,4212.307617,4190.769043,4185.641113,4190.769043,4200.512695,4184.615234,4177.436035,4186.153809,4197.94873,4190.256348,4172.820313
7,4201.538574,4198.974121,4230.769043,4215.897461,4191.282227,4187.692383,4198.974121,4201.538574,4189.230957,4193.333496,4194.358887,4206.666504,4201.538574,4188.717773
8,4200.0,4198.974121,4233.333496,4213.846191,4189.230957,4186.153809,4201.025879,4202.05127,4185.128418,4202.563965,4201.025879,4210.256348,4202.05127,4194.871582
9,4201.538574,4197.94873,4231.282227,4211.794922,4188.205078,4185.641113,4199.487305,4201.538574,4182.05127,4199.487305,4203.077148,4215.384766,4202.05127,4197.436035
10,4207.692383,4201.025879,4233.846191,4216.410156,4189.230957,4185.641113,4202.05127,4206.666504,4191.794922,4204.615234,4204.102539,4221.025879,4209.230957,4203.077148
11,4205.128418,4201.025879,4232.820313,4218.974121,4189.743652,4183.589844,4197.436035,4210.769043,4196.410156,4209.743652,4204.615234,4216.922852,4208.717773,4200.512695
12,4197.94873,4188.205078,4223.077148,4208.717773,4189.230957,4185.128418,4188.717773,4206.153809,4194.871582,4202.05127,4205.128418,4206.666504,4202.05127,4191.794922
13,4196.410156,4181.025879,4212.820313,4198.461426,4189.230957,4187.179688,4191.282227,4200.512695,4197.436035,4198.461426,4204.102539,4200.512695,4201.538574,4185.128418
14,4197.94873,4191.282227,4214.871582,4204.102539,4194.358887,4186.153809,4200.512695,4201.025879,4200.0,4206.153809,4198.461426,4199.487305,4202.05127,4181.025879
15,4202.05127,4203.077148,4228.205078,4215.897461,4201.538574,4186.666504,4203.589844,4203.077148,4199.487305,4212.307617,4202.05127,4207.179688,4202.05127,4190.256348
16,4203.589844,4201.025879,4233.333496,4215.897461,4200.0,4185.641113,4197.94873,4202.563965,4200.0,4216.410156,4209.230957,4213.333496,4202.563965,4200.0
17,4199.487305,4194.871582,4229.743652,4206.666504,4196.922852,4183.077148,4193.846191,4201.025879,4200.512695,4215.897461,4203.589844,4209.230957,4203.589844,4191.282227
18,4199.487305,4193.333496,4227.179688,4201.538574,4198.974121,4190.256348,4195.384766,4198.974121,4198.461426,4206.666504,4198.461426,4204.102539,4203.589844,4182.563965
19,4196.410156,4189.230957,4222.05127,4200.0,4195.897461,4200.0,4196.922852,4199.487305,4202.563965,4200.0,4202.05127,4203.077148,4201.538574,4187.179688
20,4184.615234,4185.128418,4213.846191,4194.871582,4191.282227,4200.512695,4191.282227,4202.563965,4205.128418,4204.615234,4200.0,4197.94873,4195.897461,4185.128418
21,4190.256348,4192.307617,4218.461426,4196.922852,4196.410156,4200.512695,4190.769043,4202.05127,4202.05127,4213.333496,4196.922852,4200.0,4195.897461,4182.563965
22,4212.820313,4207.692383,4233.333496,4211.794922,4203.077148,4204.102539,4202.563965,4201.025879,4200.512695,4217.436035,4202.05127,4218.461426,4208.205078,4200.512695
23,4221.025879,4216.922852,4238.974121,4221.025879,4202.05127,4202.563965,4205.641113,4209.743652,4196.410156,4215.897461,4209.743652,4231.282227,4213.333496,4215.897461
24,4217.436035,4215.897461,4233.333496,4213.846191,4202.05127,4199.487305,4201.538574,4213.846191,4190.769043,4207.179688,4216.410156,4229.230957,4204.102539,4210.256348
25,4214.871582,4212.820313,4233.846191,4206.666504,4204.102539,4200.512695,4204.102539,4207.179688,4189.743652,4204.102539,4218.461426,4222.05127,4202.563965,4197.94873
26,4214.871582,4213.846191,4240.0,4206.666504,4201.538574,4200.512695,4205.128418,4206.153809,4199.487305,4215.384766,4214.358887,4218.974121,4213.846191,4200.0
27,4215.897461,4211.794922,4238.974121,4207.692383,4200.0,4201.025879,4203.589844,4209.743652,4215.384766,4221.538574,4211.794922,4219.487305,4212.820313,4202.05127
28,4213.333496,4203.077148,4229.743652,4203.589844,4202.05127,4202.563965,4205.641113,4202.563965,4216.410156,4214.358887,4207.692383,4217.94873,4202.05127,4190.256348
29,4209.230957,4203.589844,4229.743652,4200.0,4202.563965,4202.05127,4206.666504,4199.487305,4204.102539,4210.769043,4198.461426,4214.358887,4197.436035,4186.666504
30,4213.846191,4213.333496,4234.871582,4207.179688,4203.589844,4200.512695,4204.615234,4206.666504,4198.974121,4215.897461,4203.589844,4219.487305,4202.05127,4206.153809
31,4218.974121,4217.94873,4234.358887,4214.358887,4205.128418,4201.538574,4208.717773,4208.205078,4202.05127,4214.871582,4217.436035,4229.230957,4209.743652,4219.487305
32,4217.94873,4216.410156,4231.794922,4208.205078,4207.692383,4208.205078,4209.230957,4206.666504,4198.974121,4212.820313,4216.922852,4228.717773,4208.205078,4211.794922
33,4212.820313,4214.871582,4228.717773,4201.025879,4213.333496,4215.897461,4207.179688,4214.358887,4207.179688,4218.461426,4207.692383,4218.974121,4202.563965,4201.538574
34,4209.230957,4213.846191,4226.666504,4200.512695,4215.384766,4220.0,4213.333496,4220.512695,4229.230957,4225.641113,4204.102539,4216.922852,4203.077148,4201.538574
35,4209.743652,4214.358887,4229.743652,4200.0,4209.743652,4219.487305,4215.897461,4213.846191,4228.205078,4221.538574,4204.102539,4220.0,4201.025879,4204.102539
36,4215.384766,4217.94873,4231.794922,4204.615234,4211.282227,4214.871582,4211.282227,4206.666504,4207.692383,4210.256348,4206.666504,4220.0,4199.487305,4205.128418
37,4218.461426,4222.563965,4231.794922,4214.358887,4216.410156,4207.179688,4212.307617,4208.205078,4197.94873,4207.692383,4212.307617,4224.102539,4208.205078,4208.717773
38,4214.358887,4222.05127,4232.307617,4212.307617,4214.358887,4201.025879,4215.384766,4211.794922,4198.974121,4213.333496,4215.384766,4228.205078,4217.436035,4218.461426
39,4209.743652,4219.487305,4231.794922,4206.666504,4211.282227,4203.589844,4211.794922,4212.820313,4198.974121,4219.487305,4220.512695,4227.692383,4218.974121,4218.974121
40,4202.05127,4216.922852,4221.538574,4204.102539,4210.256348,4214.358887,4204.615234,4207.179688,4201.538574,4219.487305,4211.794922,4217.94873,4208.717773,4199.487305
41,4183.589844,4204.102539,4201.538574,4191.282227,4203.589844,4217.436035,4197.94873,4198.974121,4202.563965,4204.615234,4185.128418,4197.436035,4184.615234,4178.974121
42,4171.282227,4194.358887,4192.820313,4184.102539,4198.974121,4216.922852,4195.897461,4196.922852,4203.077148,4194.358887,4180.512695,4185.128418,4175.897461,4174.358887
43,4182.563965,4207.692383,4203.077148,4196.410156,4208.205078,4224.102539,4207.692383,4200.512695,4213.333496,4199.487305,4198.461426,4197.94873,4191.282227,4184.615234
44,4196.410156,4219.487305,4216.410156,4206.153809,4214.871582,4227.179688,4217.94873,4202.563965,4217.94873,4203.077148,4205.641113,4212.307617,4202.05127,4194.871582
45,4198.461426,4219.487305,4221.025879,4206.153809,4211.794922,4218.461426,4215.384766,4207.179688,4214.871582,4206.666504,4203.077148,4213.846191,4208.717773,4202.05127
46,4205.641113,4227.692383,4222.563965,4212.307617,4207.692383,4209.743652,4206.666504,4209.230957,4213.846191,4217.94873,4208.717773,4221.025879,4218.461426,4210.769043
47,4217.436035,4235.897461,4227.692383,4217.436035,4207.179688,4203.077148,4201.025879,4207.692383,4207.179688,4223.077148,4218.461426,4232.820313,4216.922852,4220.0
48,4224.615234,4233.846191,4235.384766,4215.384766,4209.230957,4198.461426,4202.05127,4213.846191,4197.436035,4216.410156,4224.102539,4237.436035,4221.025879,4225.641113
49,4225.128418,4234.358887,4234.358887,4216.922852,4213.846191,4206.153809,4202.05127,4215.897461,4197.94873,4215.897461,4223.077148,4234.358887,4232.307617,4223.589844
50,4219.487305,4235.897461,4224.615234,4213.846191,4215.897461,4216.922852,4202.563965,4209.230957,4207.692383,4216.922852,4215.384766,4231.794922,4224.615234,4214.871582
51,4212.307617,4226.153809,4221.025879,4202.563965,4209.230957,4217.94873,4205.128418,4205.641113,4213.846191,4213.333496,4203.077148,4229.230957,4207.179688,4210.769043
52,4210.256348,4220.512695,4221.025879,4197.436035,4203.589844,4220.512695,4207.692383,4207.692383,4217.94873,4208.205078,4196.922852,4225.128418,4206.666504,4213.333496
53,4213.846191,4225.641113,4222.05127,4204.615234,4206.153809,4223.589844,4209.230957,4210.256348,4223.589844,4212.307617,4212.307617,4229.230957,4213.333496,4218.461426
54,4218.974121,4231.282227,4227.692383,4212.820313,4215.384766,4220.0,4215.897461,4214.871582,4226.153809,4226.666504,4229.230957,4236.922852,4221.538574,4220.512695
55,4220.512695,4229.230957,4229.230957,4208.205078,4215.384766,4216.410156,4218.461426,4217.94873,4219.487305,4226.153809,4225.128418,4236.922852,4232.307617,4218.461426
56,4217.94873,4221.538574,4228.717773,4202.563965,4207.179688,4211.794922,4213.846191,4217.436035,4206.153809,4214.358887,4218.974121,4233.846191,4233.846191,4215.384766
57,4218.974121,4216.410156,4231.794922,4207.692383,4206.153809,4200.512695,4211.282227,4216.410156,4204.102539,4216.410156,4221.538574,4235.897461,4225.128418,4218.974121
58,4214.871582,4215.384766,4228.205078,4209.230957,4210.769043,4202.563965,4210.256348,4217.436035,4212.820313,4222.563965,4218.974121,4233.846191,4215.384766,4217.436035
59,4205.641113,4215.897461,4216.410156,4202.05127,4212.307617,4217.436035,4208.717773,4217.436035,4215.897461,4217.436035,4215.384766,4229.743652,4212.820313,4206.153809
60,4204.615234,4215.897461,4211.794922,4200.0,4213.846191,4219.487305,4209.230957,4210.769043,4207.692383,4214.871582,4214.871582,4227.692383,4214.358887,4197.94873
61,4212.307617,4215.897461,4213.846191,4202.05127,4216.922852,4216.922852,4210.256348,4205.641113,4201.025879,4215.897461,4211.794922,4225.128418,4214.358887,4200.0
62,4216.410156,4217.436035,4217.436035,4202.05127,4218.461426,4223.077148,4213.846191,4207.692383,4208.717773,4208.717773,4204.615234,4227.692383,4209.743652,4207.179688
63,4214.358887,4222.563965,4216.922852,4201.538574,4216.922852,4224.102539,4217.94873,4205.128418,4212.307617,4207.692383,4200.512695,4229.743652,4200.0,4210.256348
64,4218.461426,4230.256348,4216.922852,4204.615234,4218.974121,4225.641113,4225.128418,4205.641113,4207.692383,4215.384766,4206.666504,4231.282227,4203.077148,4214.358887
65,4229.230957,4234.358887,4226.153809,4212.820313,4223.077148,4229.230957,4234.871582,4214.871582,4209.743652,4215.384766,4217.94873,4242.05127,4224.102539,4223.589844
66,4234.871582,4233.846191,4232.820313,4215.384766,4221.025879,4222.563965,4236.410156,4219.487305,4214.871582,4212.820313,4221.538574,4253.846191,4233.846191,4226.153809
67,4231.282227,4230.256348,4226.153809,4206.666504,4214.358887,4212.307617,4226.153809,4217.436035,4212.307617,4210.256348,4218.974121,4249.743652,4220.512695,4216.410156
68,4226.153809,4230.769043,4219.487305,4203.589844,4214.358887,4213.333496,4217.94873,4216.922852,4210.769043,4205.128418,4217.436035,4237.94873,4210.769043,4213.333496
69,4222.05127,4231.282227,4220.512695,4206.666504,4218.461426,4218.974121,4216.410156,4218.974121,4216.410156,4204.615234,4213.333496,4234.358887,4213.846191,4216.410156
70,4216.410156,4223.077148,4216.922852,4201.538574,4215.897461,4216.410156,4215.897461,4216.922852,4218.461426,4214.871582,4211.794922,4233.846191,4215.384766,4208.205078
71,4213.846191,4214.358887,4213.846191,4196.922852,4213.333496,4216.410156,4213.846191,4210.256348,4217.436035,4224.615234,4217.436035,4231.794922,4216.410156,4204.615234
72,4216.410156,4216.410156,4216.922852,4201.025879,4214.358887,4213.333496,4207.692383,4207.179688,4216.410156,4226.153809,4220.0,4231.794922,4219.487305,4209.743652
73,4217.94873,4217.94873,4214.871582,4197.94873,4211.282227,4202.563965,4202.563965,4212.307617,4214.358887,4225.641113,4218.461426,4233.333496,4221.025879,4207.692383
74,4215.897461,4214.358887,4211.282227,4191.794922,4209.230957,4204.615234,4207.179688,4215.384766,4215.897461,4227.179688,4222.563965,4232.820313,4218.974121,4204.615234
75,4217.94873,4217.436035,4217.436035,4197.436035,4212.820313,4216.922852,4219.487305,4216.410156,4216.410156,4222.563965,4222.563965,4232.307617,4218.461426,4211.794922
76,4227.692383,4226.153809,4221.025879,4202.05127,4215.384766,4218.461426,4227.692383,4216.410156,4214.358887,4214.871582,4214.871582,4232.307617,4218.974121,4214.871582
77,4235.897461,4229.743652,4218.974121,4199.487305,4214.871582,4212.820313,4226.666504,4217.436035,4217.436035,4221.538574,4217.94873,4235.384766,4216.410156,4213.846191
78,4233.846191,4229.743652,4218.461426,4195.384766,4210.769043,4213.846191,4220.512695,4223.589844,4223.589844,4230.256348,4224.615234,4243.077148,4216.922852,4220.0
79,4227.179688,4230.256348,4215.384766,4189.743652,4206.153809,4213.846191,4216.922852,4225.128418,4222.563965,4223.589844,4218.974121,4241.025879,4218.974121,4217.94873
80,4225.641113,4225.128418,4212.820313,4186.666504,4208.205078,4212.820313,4219.487305,4219.487305,4217.436035,4212.307617,4214.871582,4232.307617,4215.897461,4205.641113
81,4227.179688,4218.974121,4212.820313,4193.846191,4214.871582,4213.846191,4215.897461,4214.358887,4213.846191,4203.589844,4215.384766,4232.307617,4210.769043,4199.487305
82,4226.666504,4223.077148,4211.794922,4201.538574,4211.794922,4209.743652,4206.666504,4210.256348,4203.077148,4196.410156,4209.230957,4233.846191,4212.307617,4204.615234
83,4229.230957,4231.794922,4211.282227,4200.0,4209.230957,4209.230957,4205.641113,4204.615234,4188.717773,4196.922852,4210.769043,4230.769043,4213.846191,4211.282227
84,4230.769043,4229.743652,4214.871582,4198.974121,4212.820313,4211.794922,4207.179688,4204.615234,4182.05127,4198.974121,4213.846191,4226.666504,4205.128418,4206.666504
85,4219.487305,4218.461426,4208.717773,4197.436035,4208.205078,4206.666504,4203.589844,4203.589844,4181.025879,4190.256348,4202.563965,4217.94873,4195.897461,4193.333496
86,4214.358887,4215.384766,4201.538574,4195.384766,4202.563965,4198.461426,4200.512695,4201.538574,4186.666504,4189.230957,4204.102539,4212.820313,4204.102539,4189.230957
87,4224.102539,4223.077148,4206.153809,4194.871582,4204.615234,4196.922852,4199.487305,4207.179688,4205.641113,4207.692383,4218.974121,4219.487305,4219.487305,4201.538574
88,4222.05127,4217.94873,4206.666504,4190.769043,4202.563965,4199.487305,4200.0,4214.358887,4219.487305,4220.512695,4218.461426,4220.512695,4220.0,4201.538574
89,4211.282227,4203.589844,4197.436035,4183.077148,4197.436035,4201.538574,4201.538574,4216.410156,4220.512695,4216.410156,4209.743652,4212.307617,4210.769043,4185.641113
90,4212.820313,4205.128418,4195.897461,4183.077148,4201.025879,4201.025879,4204.102539,4214.871582,4216.922852,4212.820313,4209.230957,4211.282227,4209.230957,4187.692383
91,4223.589844,4216.410156,4202.05127,4187.179688,4203.589844,4202.563965,4211.794922,4216.922852,4214.358887,4219.487305,4212.820313,4224.102539,4214.358887,4204.102539
92,4228.717773,4214.358887,4203.589844,4184.615234,4201.025879,4208.205078,4216.410156,4216.922852,4206.666504,4216.922852,4214.358887,4230.256348,4213.333496,4205.128418
93,4227.179688,4206.153809,4200.512695,4181.025879,4201.025879,4207.179688,4211.282227,4211.282227,4194.871582,4198.461426,4204.615234,4223.077148,4204.102539,4197.94873
94,4227.692383,4209.743652,4203.077148,4184.615234,4200.0,4203.077148,4211.282227,4211.794922,4192.307617,4192.307617,4194.871582,4222.05127,4195.897461,4202.563965
95,4230.256348,4214.871582,4206.153809,4187.179688,4198.974121,4204.102539,4215.897461,4215.897461,4200.512695,4203.589844,4205.641113,4232.307617,4200.0,4206.666504
96,4229.743652,4215.384766,4204.102539,4186.666504,4200.0,4202.563965,4215.384766,4215.384766,4203.077148,4204.615234,4217.436035,4234.871582,4212.307617,4204.615234
97,4225.128418,4215.897461,4201.538574,4189.230957,4203.077148,4205.641113,4216.410156,4214.358887,4199.487305,4198.461426,4214.358887,4225.128418,4215.897461,4204.615234
98,4217.436035,4211.282227,4197.436035,4190.256348,4205.641113,4212.307617,4217.94873,4215.897461,4207.692383,4202.563965,4211.282227,4215.897461,4207.179688,4197.436035
99,4211.282227,4207.692383,4189.230957,4185.128418,4204.615234,4205.641113,4212.307617,4214.871582,4213.846191,4203.589844,4214.358887,4211.282227,4203.589844,4182.563965
100,4213.333496,4213.846191,4187.692383,4185.641113,4203.589844,4198.461426,4209.230957,4215.897461,4206.153809,4203.589844,4220.0,4213.333496,4209.230957,4183.077148
101,4214.871582,4220.0,4190.256348,4190.769043,4204.102539,4203.589844,4206.153809,4217.436035,4202.05127,4209.230957,4215.384766,4214.358887,4205.641113,4184.102539
102,4210.769043,4213.846191,4183.589844,4187.692383,4201.538574,4202.563965,4201.025879,4213.333496,4203.589844,4206.153809,4204.102539,4205.641113,4199.487305,4169.743652
103,4211.794922,4210.769043,4183.589844,4183.589844,4200.0,4197.94873,4201.025879,4213.846191,4200.0,4199.487305,4203.589844,4198.974121,4200.512695,4168.205078
104,4216.922852,4213.333496,4191.282227,4185.128418,4201.538574,4200.512695,4203.077148,4213.846191,4188.717773,4201.025879,4207.692383,4202.05127,4203.077148,4182.05127
105,4217.94873,4213.333496,4191.794922,4186.153809,4202.05127,4202.563965,4200.0,4203.589844,4182.563965,4198.461426,4203.589844,4204.102539,4204.102539,4185.641113
106,4216.410156,4212.820313,4190.769043,4184.102539,4199.487305,4201.538574,4196.410156,4202.05127,4191.282227,4193.333496,4198.461426,4203.077148,4200.0,4183.589844
107,4220.0,4210.769043,4191.794922,4183.589844,4196.410156,4199.487305,4197.94873,4213.846191,4202.563965,4196.922852,4200.0,4205.641113,4196.410156,4186.153809
108,4229.230957,4212.307617,4195.897461,4185.641113,4195.897461,4195.897461,4201.025879,4216.922852,4204.615234,4203.077148,4207.179688,4216.410156,4206.153809,4190.769043
109,4235.897461,4216.922852,4206.153809,4187.179688,4197.94873,4196.922852,4203.589844,4212.820313,4203.589844,4204.102539,4215.897461,4228.205078,4220.512695,4198.974121
110,4233.846191,4212.307617,4207.692383,4186.153809,4197.436035,4197.94873,4205.128418,4213.846191,4201.538574,4202.563965,4216.410156,4226.153809,4218.461426,4205.128418
111,4230.256348,4208.205078,4202.05127,4186.153809,4195.897461,4198.974121,4209.743652,4214.358887,4198.461426,4197.436035,4213.333496,4217.94873,4204.102539,4198.974121
112,4232.307617,4212.820313,4203.589844,4187.179688,4200.0,4208.205078,4217.94873,4215.384766,4202.05127,4196.922852,4214.358887,4218.974121,4205.641113,4195.384766
113,4229.743652,4211.282227,4204.102539,4184.615234,4204.615234,4212.307617,4216.922852,4217.436035,4204.615234,4208.717773,4217.436035,4221.538574,4219.487305,4202.05127
114,4221.538574,4202.563965,4195.897461,4184.102539,4202.563965,4203.589844,4206.666504,4215.897461,4201.538574,4213.333496,4222.563965,4218.461426,4224.615234,4201.538574
115,4215.897461,4200.0,4189.230957,4181.025879,4199.487305,4198.461426,4195.384766,4208.717773,4201.025879,4203.589844,4223.077148,4213.333496,4215.897461,4189.743652
116,4212.307617,4198.974121,4183.589844,4172.307617,4198.461426,4200.0,4188.205078,4201.538574,4196.922852,4198.974121,4217.94873,4204.615234,4205.128418,4184.615234
117,4210.256348,4198.974121,4180.512695,4174.358887,4199.487305,4198.974121,4183.589844,4200.0,4196.922852,4203.077148,4212.820313,4197.94873,4203.077148,4188.717773
118,4213.333496,4205.641113,4184.615234,4184.615234,4201.025879,4197.436035,4185.641113,4204.102539,4206.153809,4203.589844,4211.282227,4204.615234,4201.538574,4182.563965
119,4217.436035,4207.692383,4187.179688,4185.128418,4202.05127,4198.461426,4191.282227,4203.077148,4207.692383,4203.589844,4214.358887,4209.743652,4201.025879,4177.94873
120,4217.436035,4203.077148,4188.205078,4181.025879,4201.025879,4198.461426,4196.410156,4204.102539,4200.512695,4207.692383,4217.94873,4209.743652,4207.692383,4191.794922
121,4217.94873,4204.102539,4191.794922,4182.05127,4200.0,4200.512695,4199.487305,4210.256348,4202.05127,4206.666504,4218.461426,4214.358887,4213.333496,4204.102539
122,4219.487305,4203.589844,4192.820313,4182.563965,4202.05127,4203.077148,4204.102539,4209.743652,4203.589844,4203.589844,4212.307617,4214.358887,4205.641113,4195.897461
123,4222.05127,4202.05127,4193.333496,4182.563965,4205.641113,4203.589844,4209.230957,4204.615234,4197.94873,4200.512695,4204.615234,4211.282227,4197.94873,4188.205078
124,4227.692383,4209.743652,4198.461426,4186.666504,4204.102539,4203.589844,4208.717773,4207.692383,4199.487305,4198.461426,4197.94873,4214.358887,4202.563965,4194.871582
125,4229.743652,4216.922852,4200.512695,4187.692383,4203.077148,4204.102539,4206.153809,4211.282227,4202.05127,4198.461426,4200.512695,4216.410156,4202.05127,4200.0
126,4228.205078,4214.358887,4197.436035,4186.153809,4208.717773,4204.615234,4205.641113,4205.128418,4187.179688,4196.922852,4208.717773,4214.358887,4200.0,4198.974121
127,4225.128418,4212.820313,4197.94873,4185.128418,4211.794922,4203.589844,4203.077148,4205.641113,4179.487305,4197.94873,4214.871582,4215.384766,4208.717773,4199.487305
