,AF3,F7,F3,FC5,T7,P7,O1,O2,P8,T8,FC6,F4,F8,AF4
0,4222.563965,4223.589844,4212.307617,4214.871582,4227.179688,4235.384766,4216.410156,4200.512695,4234.871582,4235.897461,4200.0,4212.307617,4214.871582,4209.743652
1,4231.282227,4225.641113,4213.846191,4215.897461,4223.077148,4231.794922,4217.94873,4203.077148,4231.282227,4233.846191,4204.615234,4214.871582,4217.94873,4214.871582
2,4238.974121,4231.794922,4219.487305,4218.974121,4219.487305,4217.436035,4214.358887,4205.128418,4220.512695,4229.743652,4209.743652,4214.871582,4216.410156,4217.436035
3,4247.692383,4235.384766,4229.230957,4221.538574,4221.025879,4216.410156,4215.384766,4210.769043,4219.487305,4237.94873,4218.461426,4224.102539,4223.077148,4225.641113
4,4245.641113,4223.589844,4232.820313,4215.897461,4217.436035,4218.974121,4217.94873,4211.794922,4213.846191,4231.282227,4218.974121,4230.256348,4230.769043,4232.307617
5,4241.025879,4217.94873,4230.769043,4213.333496,4210.769043,4205.641113,4215.384766,4207.179688,4200.0,4215.384766,4215.384766,4231.282227,4228.717773,4232.820313
6,4249.230957,4230.256348,4232.820313,4223.077148,4213.846191,4203.077148,4221.538574,4214.358887,4209.230957,4227.692383,4225.128418,4241.538574,4233.333496,4242.563965
7,4255.384766,4236.410156,4237.94873,4226.153809,4219.487305,4217.94873,4231.794922,4223.589844,4232.820313,4240.0,4231.794922,4244.102539,4238.974121,4247.179688
8,4248.205078,4226.153809,4231.282227,4216.922852,4219.487305,4221.025879,4230.256348,4219.487305,4234.358887,4221.025879,4215.384766,4227.692383,4222.563965,4232.307617
9,4241.538574,4215.897461,4220.512695,4211.794922,4215.897461,4216.410156,4226.666504,4214.358887,4226.153809,4213.846191,4204.615234,4221.025879,4215.384766,4224.615234
10,4244.102539,4215.897461,4218.974121,4215.897461,4215.384766,4225.128418,4232.307617,4217.436035,4232.820313,4231.794922,4214.871582,4230.769043,4230.256348,4232.820313
11,4247.179688,4220.0,4222.05127,4216.410156,4217.436035,4232.820313,4233.333496,4217.94873,4236.922852,4237.436035,4219.487305,4232.820313,4229.230957,4236.922852
12,4243.589844,4224.102539,4217.94873,4215.897461,4217.436035,4230.769043,4231.794922,4214.871582,4227.179688,4231.794922,4210.769043,4226.153809,4217.436035,4231.282227
13,4234.871582,4221.538574,4215.384766,4217.436035,4216.410156,4226.666504,4229.230957,4210.256348,4214.871582,4232.820313,4203.077148,4222.05127,4218.974121,4222.05127
14,4231.794922,4218.461426,4221.025879,4215.384766,4214.358887,4220.512695,4221.025879,4207.179688,4214.358887,4235.897461,4203.077148,4225.128418,4217.94873,4221.538574
15,4242.05127,4223.077148,4226.153809,4215.897461,4214.871582,4214.358887,4221.025879,4212.307617,4225.128418,4235.384766,4211.794922,4233.846191,4216.922852,4231.794922
16,4249.743652,4224.615234,4230.256348,4217.436035,4215.384766,4215.384766,4230.769043,4218.974121,4231.282227,4234.871582,4215.897461,4234.871582,4224.615234,4237.94873
17,4245.641113,4216.410156,4228.717773,4215.384766,4213.846191,4216.410156,4230.769043,4224.102539,4226.666504,4232.307617,4212.307617,4229.230957,4222.05127,4231.794922
18,4245.128418,4214.871582,4225.641113,4214.871582,4214.871582,4216.410156,4231.282227,4230.769043,4234.871582,4239.487305,4215.384766,4236.410156,4218.461426,4234.358887
19,4251.282227,4220.0,4228.205078,4217.436035,4216.410156,4223.589844,4241.025879,4234.871582,4251.282227,4250.256348,4218.461426,4246.153809,4225.641113,4244.102539
20,4250.769043,4218.974121,4231.282227,4217.94873,4214.871582,4231.282227,4240.512695,4234.871582,4246.666504,4243.589844,4216.410156,4239.487305,4224.615234,4241.538574
21,4246.153809,4217.436035,4229.743652,4215.897461,4215.897461,4229.230957,4232.820313,4230.256348,4232.820313,4232.307617,4215.384766,4230.256348,4218.461426,4234.871582
22,4244.615234,4217.94873,4223.077148,4215.384766,4216.922852,4222.05127,4232.820313,4221.025879,4228.717773,4230.256348,4208.717773,4229.743652,4218.461426,4229.743652
23,4245.641113,4216.410156,4215.897461,4214.358887,4214.358887,4216.410156,4231.282227,4214.358887,4222.05127,4224.615234,4197.436035,4225.128418,4209.743652,4220.0
24,4245.641113,4217.94873,4216.922852,4213.333496,4213.333496,4213.333496,4227.692383,4213.333496,4212.820313,4213.333496,4195.384766,4217.436035,4198.974121,4210.769043
25,4245.128418,4217.94873,4223.077148,4214.871582,4215.897461,4214.871582,4227.692383,4214.871582,4214.358887,4213.333496,4200.512695,4219.487305,4201.538574,4214.871582
26,4251.794922,4218.461426,4224.102539,4215.897461,4214.871582,4213.846191,4224.102539,4214.871582,4216.410156,4218.461426,4201.025879,4225.128418,4208.717773,4219.487305
27,4257.94873,4223.589844,4225.128418,4216.922852,4214.358887,4207.179688,4216.410156,4214.358887,4210.769043,4215.384766,4198.974121,4224.102539,4209.743652,4215.384766
28,4252.307617,4223.589844,4224.102539,4217.436035,4215.897461,4201.025879,4213.846191,4215.384766,4213.846191,4215.897461,4199.487305,4220.512695,4206.153809,4212.307617
29,4251.282227,4218.461426,4222.05127,4217.436035,4215.897461,4204.615234,4216.410156,4218.974121,4228.717773,4226.153809,4203.077148,4225.128418,4208.717773,4215.897461
30,4260.0,4217.94873,4225.641113,4218.974121,4216.410156,4214.358887,4220.512695,4221.538574,4231.282227,4227.692383,4206.666504,4230.769043,4217.94873,4224.102539
31,4254.358887,4214.871582,4222.563965,4215.897461,4215.384766,4215.384766,4219.487305,4218.461426,4214.358887,4216.410156,4200.512695,4224.102539,4215.897461,4218.974121
32,4244.615234,4210.769043,4213.846191,4212.820313,4212.820313,4213.846191,4216.922852,4215.897461,4207.179688,4212.820313,4192.307617,4215.384766,4206.153809,4206.666504
33,4249.230957,4212.307617,4214.358887,4214.358887,4214.358887,4219.487305,4219.487305,4211.794922,4211.794922,4217.436035,4189.743652,4214.871582,4201.025879,4207.692383
34,4252.820313,4215.897461,4221.025879,4214.358887,4212.820313,4215.384766,4217.94873,4205.128418,4205.641113,4215.384766,4192.307617,4217.94873,4200.512695,4216.922852
35,4249.230957,4216.922852,4219.487305,4212.307617,4205.641113,4199.487305,4212.307617,4201.538574,4196.410156,4213.846191,4198.461426,4220.0,4208.205078,4218.461426
36,4247.692383,4216.410156,4215.897461,4210.769043,4207.179688,4196.410156,4212.307617,4202.563965,4196.922852,4220.0,4202.563965,4221.025879,4214.871582,4213.846191
37,4250.256348,4216.922852,4219.487305,4213.333496,4214.358887,4206.666504,4218.461426,4210.256348,4207.179688,4229.230957,4202.563965,4218.974121,4210.769043,4216.410156
38,4248.717773,4216.922852,4219.487305,4211.282227,4209.230957,4208.717773,4220.512695,4218.974121,4218.974121,4230.769043,4203.077148,4219.487305,4207.692383,4217.436035
39,4233.333496,4204.615234,4207.692383,4202.05127,4197.94873,4206.666504,4215.897461,4219.487305,4219.487305,4216.410156,4200.512695,4214.871582,4203.077148,4205.641113
40,4228.205078,4201.025879,4205.128418,4203.077148,4202.563965,4211.282227,4216.410156,4217.436035,4215.897461,4211.282227,4197.436035,4210.256348,4198.461426,4199.487305
41,4242.05127,4215.897461,4216.410156,4216.410156,4211.282227,4218.974121,4223.589844,4221.538574,4218.974121,4226.666504,4201.538574,4216.410156,4204.102539,4207.692383
42,4241.538574,4217.436035,4214.871582,4215.897461,4207.692383,4217.436035,4223.077148,4215.897461,4216.410156,4226.153809,4202.05127,4213.333496,4205.128418,4206.666504
43,4230.769043,4209.743652,4210.256348,4209.230957,4208.717773,4208.205078,4212.820313,4201.538574,4211.794922,4212.307617,4200.0,4205.128418,4200.512695,4203.589844
44,4234.358887,4212.307617,4213.846191,4212.820313,4211.794922,4200.512695,4207.179688,4202.563965,4220.0,4217.94873,4205.128418,4209.743652,4207.692383,4212.820313
45,4236.410156,4208.205078,4208.717773,4207.692383,4204.102539,4201.025879,4206.666504,4205.641113,4218.461426,4221.538574,4205.128418,4208.717773,4205.641113,4209.743652
46,4229.230957,4203.589844,4205.641113,4201.025879,4205.128418,4211.794922,4208.205078,4199.487305,4204.615234,4212.820313,4198.461426,4200.0,4197.436035,4197.94873
47,4231.282227,4213.333496,4213.846191,4208.717773,4211.794922,4215.897461,4209.230957,4198.461426,4201.025879,4213.333496,4201.025879,4205.641113,4206.666504,4205.128418
48,4234.871582,4214.871582,4215.897461,4211.282227,4205.641113,4204.102539,4208.717773,4200.0,4200.512695,4206.153809,4203.589844,4209.743652,4210.256348,4214.871582
49,4234.871582,4210.769043,4215.384766,4210.769043,4206.153809,4198.974121,4213.846191,4198.974121,4196.410156,4198.461426,4200.0,4210.769043,4198.974121,4215.384766
50,4233.846191,4215.897461,4218.461426,4215.897461,4215.384766,4204.102539,4218.974121,4207.179688,4200.512695,4209.230957,4203.077148,4220.0,4198.461426,4221.025879
51,4232.820313,4216.922852,4217.94873,4215.897461,4213.333496,4201.025879,4215.384766,4218.461426,4208.717773,4217.94873,4212.307617,4224.102539,4208.717773,4225.128418
52,4238.461426,4214.871582,4217.436035,4213.846191,4211.282227,4200.0,4214.871582,4218.461426,4215.384766,4214.358887,4217.436035,4225.128418,4214.358887,4226.153809
53,4242.563965,4217.436035,4219.487305,4215.897461,4214.871582,4213.333496,4223.077148,4220.512695,4222.563965,4216.410156,4216.410156,4230.256348,4216.922852,4228.717773
54,4233.846191,4211.794922,4216.922852,4211.794922,4207.692383,4218.974121,4222.563965,4220.512695,4221.025879,4220.512695,4213.333496,4226.153809,4213.846191,4228.205078
55,4230.256348,4206.153809,4215.897461,4207.179688,4202.05127,4213.846191,4214.358887,4208.717773,4213.333496,4215.384766,4213.846191,4218.974121,4209.230957,4226.153809
56,4243.589844,4213.333496,4218.974121,4214.358887,4207.692383,4214.358887,4215.384766,4202.05127,4211.794922,4218.974121,4220.0,4224.615234,4213.846191,4229.230957
57,4247.179688,4218.461426,4218.461426,4216.922852,4211.282227,4213.333496,4217.436035,4202.05127,4207.692383,4230.256348,4221.025879,4229.230957,4220.0,4231.282227
58,4236.922852,4213.333496,4216.410156,4211.794922,4208.717773,4201.538574,4208.205078,4201.025879,4203.077148,4230.256348,4215.897461,4221.538574,4218.461426,4229.743652
59,4234.358887,4212.307617,4216.922852,4213.333496,4207.179688,4199.487305,4206.666504,4206.153809,4207.692383,4223.589844,4217.94873,4217.436035,4217.94873,4227.692383
60,4233.846191,4213.846191,4215.897461,4214.871582,4205.641113,4210.256348,4212.820313,4211.282227,4209.230957,4216.410156,4214.358887,4216.410156,4211.794922,4221.025879
61,4228.717773,4210.256348,4212.820313,4209.743652,4203.077148,4206.666504,4210.769043,4202.563965,4195.897461,4211.282227,4201.025879,4206.153809,4200.512695,4210.769043
62,4230.769043,4212.307617,4215.384766,4212.820313,4207.179688,4203.077148,4212.307617,4200.512695,4194.358887,4215.897461,4203.589844,4203.589844,4207.179688,4215.897461
63,4236.922852,4214.358887,4217.94873,4218.461426,4211.794922,4213.846191,4218.974121,4211.282227,4205.641113,4220.0,4212.307617,4211.282227,4211.282227,4220.0
64,4232.307617,4210.256348,4214.358887,4210.769043,4203.589844,4210.769043,4207.692383,4206.666504,4196.922852,4200.512695,4200.512695,4205.128418,4189.743652,4206.666504
65,4227.179688,4209.743652,4211.282227,4206.153809,4197.436035,4198.461426,4195.384766,4196.410156,4185.641113,4190.256348,4191.282227,4193.333496,4185.641113,4202.05127
66,4231.794922,4214.871582,4214.358887,4213.846191,4205.128418,4205.128418,4205.641113,4201.025879,4199.487305,4211.282227,4204.102539,4201.025879,4209.743652,4214.871582
67,4239.487305,4214.871582,4216.922852,4217.436035,4214.871582,4217.94873,4215.384766,4205.128418,4211.282227,4221.025879,4214.358887,4211.794922,4215.384766,4223.589844
68,4246.153809,4218.974121,4218.974121,4217.436035,4218.461426,4216.922852,4214.871582,4202.05127,4207.692383,4213.333496,4215.384766,4215.384766,4214.871582,4229.743652
69,4251.282227,4229.743652,4226.666504,4221.538574,4216.410156,4210.256348,4217.436035,4207.692383,4213.333496,4220.0,4218.461426,4224.615234,4228.205078,4238.974121
70,4250.256348,4230.769043,4229.230957,4221.538574,4214.871582,4206.153809,4217.94873,4214.871582,4217.94873,4227.692383,4220.512695,4230.256348,4227.692383,4239.487305
71,4243.077148,4220.0,4221.538574,4218.974121,4213.846191,4209.230957,4216.410156,4213.846191,4206.153809,4219.487305,4220.0,4222.563965,4217.436035,4232.820313
72,4230.256348,4209.743652,4213.333496,4213.846191,4209.230957,4209.743652,4217.436035,4212.307617,4200.512695,4210.769043,4209.743652,4210.256348,4210.256348,4224.615234
73,4214.358887,4206.153809,4204.102539,4204.102539,4201.538574,4201.025879,4211.794922,4211.282227,4199.487305,4206.153809,4197.94873,4199.487305,4203.077148,4213.333496
74,4212.820313,4211.794922,4198.974121,4204.615234,4201.025879,4198.974121,4202.05127,4207.692383,4200.512695,4204.102539,4204.102539,4197.436035,4205.641113,4212.307617
75,4224.615234,4218.974121,4204.615234,4213.846191,4208.205078,4203.077148,4201.025879,4205.641113,4211.282227,4212.307617,4215.384766,4202.563965,4213.846191,4218.974121
76,4226.153809,4215.384766,4205.128418,4206.666504,4206.153809,4201.025879,4201.538574,4205.128418,4211.282227,4217.436035,4207.692383,4203.077148,4205.128418,4214.871582
77,4223.077148,4210.769043,4200.512695,4197.94873,4201.538574,4199.487305,4197.94873,4201.538574,4197.94873,4215.897461,4197.94873,4200.0,4196.410156,4212.820313
78,4231.794922,4216.922852,4208.205078,4211.794922,4208.717773,4201.025879,4199.487305,4199.487305,4204.615234,4222.563965,4208.205078,4203.077148,4208.717773,4221.025879
79,4235.897461,4222.563965,4217.94873,4219.487305,4213.846191,4202.563965,4207.179688,4204.102539,4221.025879,4226.666504,4216.410156,4206.153809,4218.974121,4223.077148
80,4227.179688,4213.333496,4210.769043,4204.615234,4204.102539,4203.589844,4212.307617,4208.205078,4215.384766,4218.461426,4211.794922,4201.538574,4213.333496,4216.410156
81,4224.615234,4198.974121,4203.077148,4196.410156,4197.436035,4202.05127,4211.794922,4208.205078,4201.538574,4212.820313,4209.230957,4202.563965,4204.615234,4215.384766
82,4231.794922,4204.615234,4209.743652,4206.153809,4202.05127,4198.974121,4212.820313,4211.794922,4201.025879,4217.94873,4214.871582,4209.743652,4210.769043,4223.077148
83,4236.410156,4216.922852,4218.461426,4208.717773,4203.589844,4201.025879,4216.410156,4216.922852,4206.153809,4215.384766,4215.384766,4211.794922,4218.461426,4229.743652
84,4228.205078,4210.769043,4212.820313,4201.025879,4201.025879,4200.512695,4210.769043,4211.794922,4202.05127,4203.077148,4205.128418,4202.05127,4207.179688,4223.077148
85,4218.461426,4205.128418,4209.743652,4205.128418,4202.05127,4195.897461,4200.512695,4202.563965,4195.897461,4202.05127,4197.94873,4197.94873,4198.461426,4213.846191
86,4226.153809,4216.410156,4216.922852,4214.358887,4208.717773,4193.333496,4201.025879,4205.641113,4200.0,4215.384766,4206.666504,4210.769043,4211.794922,4223.077148
87,4229.743652,4221.025879,4214.871582,4213.333496,4212.820313,4190.256348,4203.077148,4209.230957,4204.102539,4222.05127,4211.794922,4216.922852,4216.922852,4230.256348
88,4219.487305,4215.384766,4208.205078,4210.769043,4212.820313,4191.282227,4197.436035,4201.538574,4199.487305,4213.333496,4202.05127,4205.641113,4206.666504,4218.461426
89,4215.384766,4217.436035,4208.717773,4213.846191,4213.846191,4197.94873,4197.436035,4198.974121,4197.436035,4203.077148,4199.487305,4198.974121,4206.666504,4210.769043
90,4217.94873,4216.410156,4205.128418,4212.820313,4210.769043,4200.512695,4200.0,4198.974121,4197.94873,4200.512695,4201.538574,4201.538574,4208.205078,4213.846191
91,4222.05127,4214.358887,4206.666504,4211.794922,4208.717773,4198.461426,4200.0,4200.0,4200.0,4209.743652,4201.538574,4205.128418,4205.128418,4220.0
92,4233.333496,4228.205078,4217.94873,4218.461426,4215.897461,4202.05127,4207.692383,4209.743652,4208.205078,4220.512695,4212.820313,4213.333496,4220.0,4229.743652
93,4240.0,4234.871582,4221.025879,4218.461426,4218.461426,4204.615234,4214.871582,4216.410156,4209.230957,4217.94873,4221.538574,4217.436035,4230.769043,4234.871582
94,4232.820313,4221.538574,4215.384766,4212.820313,4213.846191,4202.05127,4209.230957,4211.282227,4196.922852,4206.666504,4206.666504,4206.153809,4216.922852,4229.230957
95,4232.820313,4216.410156,4214.871582,4210.769043,4213.333496,4201.538574,4201.538574,4209.743652,4192.820313,4202.05127,4196.922852,4202.05127,4210.256348,4225.128418
96,4231.282227,4216.410156,4209.230957,4207.179688,4211.282227,4202.05127,4203.077148,4214.871582,4202.563965,4209.743652,4208.717773,4208.205078,4217.436035,4224.615234
97,4218.974121,4204.615234,4201.025879,4198.974121,4205.641113,4201.538574,4204.615234,4210.769043,4204.102539,4209.230957,4212.307617,4199.487305,4215.897461,4215.384766
98,4212.820313,4202.563965,4201.025879,4197.94873,4207.692383,4199.487305,4202.563965,4209.743652,4197.94873,4204.102539,4202.05127,4187.692383,4211.794922,4203.077148
99,4214.871582,4213.846191,4198.461426,4202.05127,4213.333496,4200.512695,4201.538574,4212.307617,4201.538574,4211.282227,4201.538574,4191.794922,4213.846191,4204.102539
100,4215.384766,4213.333496,4196.410156,4200.512695,4213.846191,4203.589844,4202.563965,4206.666504,4204.102539,4215.384766,4210.769043,4197.436035,4212.307617,4213.333496
101,4219.487305,4212.307617,4203.077148,4204.102539,4211.794922,4200.512695,4201.538574,4206.666504,4200.0,4213.333496,4214.871582,4197.94873,4216.410156,4218.461426
102,4226.153809,4216.922852,4210.256348,4211.794922,4214.358887,4196.410156,4199.487305,4215.384766,4205.641113,4225.128418,4214.358887,4201.025879,4227.692383,4219.487305
103,4222.05127,4211.794922,4211.794922,4208.205078,4217.436035,4205.128418,4207.692383,4220.0,4215.384766,4231.794922,4214.358887,4202.563965,4225.641113,4218.974121
104,4214.871582,4203.077148,4210.769043,4201.538574,4215.384766,4215.384766,4217.436035,4220.0,4218.461426,4218.461426,4214.358887,4202.05127,4214.871582,4217.436035
105,4217.94873,4202.563965,4211.282227,4202.563965,4212.307617,4211.282227,4215.897461,4218.974121,4220.512695,4214.358887,4215.384766,4201.538574,4216.922852,4217.94873
106,4220.512695,4202.563965,4212.307617,4203.077148,4213.333496,4209.743652,4212.820313,4216.410156,4217.94873,4221.025879,4214.358887,4200.512695,4217.94873,4218.974121
107,4218.461426,4201.025879,4213.846191,4201.538574,4215.384766,4216.410156,4217.94873,4213.846191,4206.153809,4217.436035,4205.641113,4200.0,4204.102539,4214.358887
108,4217.94873,4201.538574,4210.769043,4204.102539,4215.384766,4211.282227,4213.333496,4208.717773,4196.410156,4211.794922,4201.025879,4197.94873,4201.538574,4214.358887
109,4217.94873,4203.589844,4205.641113,4204.102539,4213.333496,4198.974121,4201.025879,4199.487305,4195.384766,4213.333496,4209.743652,4196.410156,4214.358887,4218.461426
110,4218.461426,4202.563965,4205.641113,4203.077148,4213.846191,4197.94873,4198.461426,4200.0,4196.410156,4217.436035,4214.358887,4201.538574,4218.974121,4218.974121
111,4220.512695,4202.05127,4206.666504,4206.666504,4215.384766,4206.666504,4205.641113,4210.769043,4202.05127,4221.025879,4209.230957,4204.102539,4215.897461,4221.025879
112,4218.974121,4202.05127,4202.05127,4206.666504,4215.897461,4213.333496,4211.794922,4212.307617,4205.128418,4217.436035,4207.692383,4198.974121,4215.384766,4220.512695
113,4213.846191,4201.025879,4200.0,4204.102539,4215.384766,4215.384766,4213.333496,4205.128418,4205.128418,4215.897461,4211.794922,4199.487305,4215.384766,4217.436035
114,4218.974121,4203.589844,4208.717773,4210.769043,4216.922852,4212.820313,4215.384766,4208.717773,4206.666504,4223.077148,4216.922852,4204.102539,4217.94873,4222.563965
115,4228.205078,4206.666504,4215.384766,4214.871582,4216.922852,4209.743652,4217.94873,4216.922852,4204.102539,4226.153809,4219.487305,4206.666504,4221.538574,4228.205078
116,4224.102539,4205.128418,4211.794922,4208.717773,4215.384766,4211.282227,4217.94873,4215.384766,4204.615234,4214.871582,4216.410156,4206.666504,4216.922852,4225.128418
117,4218.461426,4202.05127,4213.333496,4206.666504,4215.897461,4216.922852,4218.461426,4213.846191,4213.333496,4209.230957,4211.794922,4205.128418,4214.358887,4224.102539
118,4221.538574,4202.05127,4214.358887,4209.230957,4217.436035,4215.384766,4218.974121,4219.487305,4222.05127,4217.436035,4214.871582,4205.641113,4218.974121,4225.641113
119,4219.487305,4197.436035,4207.179688,4202.563965,4215.897461,4205.128418,4214.358887,4218.974121,4215.897461,4210.256348,4214.871582,4205.641113,4216.922852,4218.461426
120,4214.871582,4192.307617,4208.717773,4198.461426,4213.333496,4206.666504,4212.820313,4214.871582,4205.641113,4198.461426,4210.769043,4201.538574,4210.769043,4211.282227
121,4222.563965,4198.461426,4220.0,4206.666504,4214.871582,4216.922852,4221.538574,4220.0,4214.358887,4209.743652,4213.333496,4203.077148,4215.897461,4218.461426
122,4232.820313,4207.692383,4220.0,4214.358887,4218.461426,4216.922852,4225.128418,4225.641113,4231.794922,4221.538574,4219.487305,4212.307617,4221.025879,4226.153809
123,4231.282227,4208.205078,4216.922852,4213.846191,4217.94873,4214.358887,4221.538574,4227.179688,4231.282227,4218.974121,4217.436035,4212.820313,4218.974121,4222.05127
124,4221.538574,4200.512695,4213.846191,4206.153809,4213.846191,4213.846191,4215.897461,4223.077148,4217.94873,4212.820313,4208.717773,4203.077148,4216.922852,4214.871582
125,4213.333496,4189.230957,4201.025879,4195.897461,4209.743652,4206.666504,4203.589844,4216.922852,4214.358887,4203.589844,4200.0,4197.436035,4210.256348,4210.769043
126,4213.846191,4187.692383,4198.461426,4198.974121,4212.307617,4204.615234,4197.94873,4220.512695,4216.410156,4201.025879,4198.974121,4199.487305,4207.692383,4210.256348
127,4218.974121,4200.512695,4207.692383,4210.256348,4216.410156,4213.846191,4209.230957,4227.179688,4216.922852,4213.333496,4209.743652,4202.563965,4215.384766,4216.410156
