,AF3,F7,F3,FC5,T7,P7,O1,O2,P8,T8,FC6,F4,F8,AF4
0,4075.897461,4111.282227,4203.589844,4089.743652,4198.974121,4201.025879,4118.974121,4071.794922,4134.871582,4160.0,4161.025879,4135.897461,4120.512695,4137.94873
1,4074.358887,4106.666504,4207.179688,4087.692383,4191.794922,4200.0,4115.897461,4066.153809,4135.384766,4160.512695,4165.641113,4134.358887,4123.589844,4140.512695
2,4078.974365,4101.025879,4204.615234,4090.256348,4190.256348,4200.512695,4109.230957,4067.179443,4138.974121,4168.205078,4169.230957,4137.436035,4128.717773,4142.563965
3,4076.410156,4102.05127,4202.563965,4091.281982,4189.743652,4198.974121,4108.717773,4070.256348,4136.922852,4167.179688,4168.205078,4141.025879,4125.128418,4141.025879
4,4079.487061,4106.666504,4202.563965,4091.281982,4187.179688,4197.94873,4116.922852,4072.820557,4135.384766,4157.94873,4165.641113,4148.717773,4122.563965,4147.692383
5,4088.718018,4107.692383,4201.538574,4093.333252,4186.666504,4201.025879,4123.077148,4075.384521,4136.410156,4155.384766,4162.05127,4154.358887,4126.666504,4154.871582
6,4087.692383,4102.05127,4201.025879,4092.307617,4187.692383,4202.563965,4122.563965,4078.461426,4138.461426,4158.461426,4158.974121,4147.179688,4123.589844,4148.717773
7,4076.410156,4091.794922,4201.538574,4082.564209,4180.512695,4198.974121,4120.0,4077.435791,4137.436035,4157.94873,4152.307617,4136.922852,4107.692383,4135.384766
8,4061.025635,4077.94873,4200.512695,4070.769287,4172.820313,4198.974121,4120.0,4076.410156,4133.333496,4152.307617,4139.487305,4134.358887,4091.281982,4125.128418
9,4049.743652,4070.769287,4202.563965,4068.718018,4174.871582,4202.05127,4123.077148,4083.076904,4135.384766,4151.794922,4135.897461,4136.410156,4090.769287,4121.538574
10,4050.769287,4075.897461,4204.102539,4071.281982,4175.384766,4200.512695,4121.538574,4086.153809,4138.974121,4155.897461,4140.512695,4132.820313,4092.820557,4121.025879
11,4054.871826,4077.94873,4201.025879,4069.743652,4172.307617,4196.922852,4113.333496,4074.358887,4132.820313,4153.846191,4132.820313,4123.077148,4084.615479,4113.846191
12,4045.641113,4071.281982,4200.512695,4064.615479,4169.230957,4198.461426,4108.205078,4064.615479,4121.025879,4146.666504,4120.512695,4120.0,4078.974365,4103.589844
13,4041.538574,4067.179443,4201.538574,4061.538574,4168.205078,4200.512695,4112.820313,4069.230713,4119.487305,4143.077148,4121.025879,4126.153809,4082.05127,4107.692383
14,4060.0,4073.846191,4199.487305,4073.333252,4173.846191,4200.0,4117.94873,4073.846191,4129.230957,4148.717773,4134.358887,4136.410156,4090.769287,4127.179688
15,4084.102539,4092.820557,4201.025879,4089.743652,4183.077148,4202.05127,4121.538574,4077.94873,4141.025879,4164.615234,4153.846191,4149.230957,4112.820313,4148.205078
16,4091.794922,4108.717773,4205.641113,4094.358887,4183.589844,4202.05127,4120.512695,4086.666748,4148.717773,4181.025879,4168.205078,4157.94873,4136.410156,4158.461426
17,4090.769287,4106.666504,4204.615234,4093.846191,4182.05127,4200.512695,4118.974121,4091.794922,4153.846191,4188.717773,4171.794922,4158.461426,4135.384766,4157.94873
18,4091.794922,4105.128418,4201.538574,4096.410156,4185.128418,4204.615234,4127.692383,4093.846191,4157.94873,4189.230957,4172.820313,4160.0,4123.589844,4158.461426
19,4080.0,4108.205078,4201.538574,4095.897461,4184.615234,4213.333496,4136.410156,4103.077148,4158.974121,4188.205078,4168.717773,4161.025879,4124.102539,4153.333496
20,4065.128174,4095.384521,4202.05127,4092.307617,4185.128418,4216.410156,4135.897461,4108.205078,4155.897461,4183.077148,4158.461426,4158.461426,4122.563965,4141.025879
21,4070.256348,4082.564209,4202.563965,4087.179443,4184.615234,4216.922852,4134.358887,4101.025879,4153.333496,4172.820313,4152.307617,4151.282227,4110.256348,4137.94873
22,4072.307617,4088.205078,4203.589844,4083.076904,4175.897461,4216.410156,4134.358887,4093.846191,4149.743652,4168.717773,4148.205078,4141.538574,4099.487305,4135.384766
23,4057.435791,4092.307617,4205.128418,4082.564209,4171.282227,4209.743652,4126.153809,4091.281982,4144.102539,4166.153809,4138.461426,4137.94873,4096.922852,4125.641113
24,4055.897461,4089.230713,4204.615234,4078.974365,4172.820313,4202.563965,4120.512695,4090.256348,4138.974121,4159.487305,4133.846191,4140.512695,4102.05127,4126.666504
25,4070.769287,4088.205078,4203.589844,4076.923096,4170.769043,4200.512695,4125.641113,4091.281982,4138.974121,4155.897461,4136.922852,4137.94873,4105.641113,4136.922852
26,4076.923096,4090.256348,4204.102539,4084.102539,4169.743652,4201.025879,4122.05127,4089.230713,4138.461426,4154.871582,4135.897461,4139.487305,4101.025879,4137.94873
27,4081.538574,4104.615234,4204.615234,4096.410156,4173.333496,4197.94873,4108.717773,4083.076904,4135.897461,4158.974121,4140.0,4151.282227,4107.179688,4142.563965
28,4093.333252,4123.589844,4202.05127,4105.128418,4171.282227,4188.717773,4102.05127,4075.897461,4134.871582,4167.692383,4153.333496,4157.436035,4131.282227,4156.922852
29,4099.487305,4126.666504,4202.563965,4107.179688,4167.179688,4182.05127,4103.589844,4072.820557,4134.871582,4171.282227,4160.0,4156.410156,4145.641113,4162.05127
30,4098.974121,4124.615234,4204.102539,4106.666504,4176.410156,4188.717773,4106.153809,4074.358887,4134.871582,4172.307617,4161.025879,4157.94873,4141.025879,4158.974121
31,4093.333252,4123.077148,4201.538574,4103.077148,4183.589844,4199.487305,4112.820313,4079.487061,4135.897461,4174.358887,4160.0,4153.333496,4135.897461,4157.94873
32,4074.358887,4109.230957,4200.512695,4091.281982,4174.358887,4199.487305,4122.05127,4085.641113,4136.922852,4171.282227,4148.717773,4140.512695,4128.717773,4146.666504
33,4055.897461,4091.794922,4204.102539,4078.974365,4166.666504,4196.410156,4122.563965,4090.256348,4134.358887,4161.538574,4135.897461,4130.769043,4114.358887,4126.666504
34,4057.94873,4087.692383,4202.05127,4076.410156,4172.820313,4199.487305,4124.102539,4092.307617,4134.871582,4156.410156,4134.871582,4132.307617,4111.282227,4121.025879
35,4060.512939,4090.769287,4199.487305,4075.897461,4177.436035,4204.615234,4130.256348,4092.820557,4137.436035,4157.436035,4130.769043,4132.307617,4120.512695,4123.589844
36,4050.769287,4088.718018,4204.102539,4071.794922,4172.820313,4204.615234,4127.692383,4092.820557,4137.436035,4155.897461,4120.0,4123.589844,4115.897461,4115.897461
37,4049.230713,4086.153809,4205.641113,4070.769287,4171.282227,4203.077148,4122.05127,4091.281982,4138.461426,4151.282227,4117.94873,4123.589844,4105.128418,4113.333496
38,4062.564209,4094.358887,4204.615234,4078.461426,4176.410156,4200.512695,4120.512695,4090.256348,4134.871582,4149.743652,4121.025879,4133.846191,4110.769043,4125.641113
39,4071.794922,4106.153809,4205.128418,4088.718018,4178.461426,4198.461426,4114.358887,4089.743652,4127.692383,4150.256348,4121.025879,4138.461426,4121.025879,4134.358887
40,4079.487061,4106.666504,4204.615234,4090.256348,4172.307617,4197.436035,4105.641113,4088.205078,4132.307617,4154.871582,4129.743652,4143.589844,4128.205078,4141.538574
41,4091.281982,4111.282227,4202.05127,4089.230713,4170.256348,4194.358887,4109.743652,4093.333252,4140.512695,4166.666504,4147.179688,4156.410156,4138.461426,4156.410156
42,4095.384521,4125.128418,4202.05127,4096.410156,4179.487305,4192.307617,4118.974121,4104.102539,4137.94873,4173.333496,4157.94873,4159.487305,4143.077148,4164.102539
43,4094.871826,4128.205078,4204.102539,4106.153809,4187.179688,4198.461426,4124.102539,4108.717773,4136.410156,4172.307617,4156.922852,4156.410156,4140.512695,4160.512695
44,4096.410156,4125.128418,4205.128418,4107.692383,4188.205078,4205.128418,4125.641113,4104.102539,4138.461426,4172.820313,4153.846191,4157.436035,4141.538574,4157.436035
45,4092.820557,4126.666504,4203.077148,4102.563965,4187.692383,4205.641113,4126.666504,4100.0,4135.384766,4169.743652,4149.743652,4155.384766,4136.922852,4153.333496
46,4090.769287,4121.025879,4202.563965,4098.461426,4188.717773,4206.153809,4133.846191,4098.974121,4135.384766,4167.179688,4145.128418,4155.384766,4126.153809,4153.846191
47,4090.769287,4108.205078,4205.641113,4094.871826,4188.205078,4210.769043,4138.461426,4100.512695,4138.974121,4167.179688,4140.512695,4156.922852,4123.077148,4154.358887
48,4082.564209,4108.205078,4206.666504,4091.281982,4187.692383,4214.358887,4133.333496,4102.563965,4140.0,4164.102539,4134.871582,4149.743652,4122.05127,4141.538574
49,4080.512939,4117.436035,4204.102539,4092.307617,4187.692383,4211.282227,4126.666504,4103.589844,4139.487305,4164.102539,4132.820313,4152.307617,4117.436035,4136.410156
50,4091.794922,4121.025879,4203.589844,4096.922852,4187.692383,4203.077148,4125.128418,4104.102539,4143.589844,4168.717773,4135.897461,4164.615234,4123.589844,4150.256348
51,4093.846191,4123.589844,4204.615234,4097.94873,4186.153809,4202.563965,4124.102539,4108.717773,4152.307617,4172.307617,4138.974121,4162.563965,4135.897461,4157.94873
52,4094.358887,4126.666504,4205.641113,4096.410156,4184.615234,4204.102539,4120.512695,4116.410156,4155.384766,4176.410156,4142.05127,4154.358887,4139.487305,4153.333496
53,4111.794922,4130.256348,4206.666504,4102.563965,4184.102539,4200.512695,4124.615234,4122.05127,4154.358887,4184.102539,4150.769043,4164.615234,4144.102539,4159.487305
54,4126.666504,4146.153809,4203.589844,4118.974121,4188.205078,4205.641113,4133.846191,4122.563965,4155.384766,4189.743652,4165.128418,4184.102539,4157.94873,4179.487305
55,4125.128418,4157.436035,4202.563965,4126.153809,4192.820313,4211.282227,4137.94873,4121.538574,4153.846191,4190.256348,4168.205078,4189.230957,4163.589844,4186.666504
56,4119.487305,4145.641113,4206.153809,4121.025879,4189.230957,4202.05127,4134.871582,4118.974121,4144.615234,4183.589844,4157.94873,4179.487305,4150.256348,4174.871582
57,4117.436035,4133.846191,4204.102539,4119.487305,4187.179688,4200.512695,4136.410156,4111.282227,4136.410156,4174.358887,4153.333496,4169.743652,4139.487305,4165.128418
58,4114.871582,4137.436035,4199.487305,4121.025879,4192.820313,4214.358887,4141.025879,4108.205078,4140.512695,4173.846191,4156.410156,4171.282227,4145.128418,4168.717773
59,4109.743652,4135.384766,4199.487305,4115.897461,4197.94873,4218.461426,4141.025879,4114.871582,4150.256348,4182.563965,4155.384766,4175.384766,4151.282227,4170.256348
60,4107.179688,4126.666504,4200.512695,4110.256348,4195.897461,4213.846191,4138.974121,4122.05127,4154.358887,4183.589844,4152.820313,4172.307617,4144.102539,4163.077148
61,4105.128418,4127.692383,4202.05127,4110.256348,4190.256348,4213.846191,4139.487305,4120.0,4153.846191,4173.333496,4148.205078,4169.743652,4128.717773,4155.897461
62,4105.128418,4128.205078,4202.563965,4108.205078,4187.179688,4216.410156,4138.974121,4119.487305,4153.846191,4167.692383,4142.05127,4168.717773,4123.077148,4153.333496
63,4111.282227,4128.717773,4202.05127,4111.794922,4193.333496,4219.487305,4136.922852,4129.230957,4161.538574,4176.922852,4148.205078,4168.717773,4129.230957,4161.025879
64,4117.94873,4141.025879,4203.077148,4124.102539,4199.487305,4217.94873,4140.512695,4139.487305,4173.846191,4190.256348,4161.025879,4175.897461,4140.0,4170.769043
65,4132.307617,4153.333496,4205.641113,4135.384766,4200.512695,4219.487305,4151.794922,4148.205078,4186.666504,4201.538574,4175.897461,4190.256348,4155.897461,4181.538574
66,4154.871582,4158.974121,4204.102539,4149.230957,4204.615234,4230.256348,4158.461426,4160.0,4196.410156,4215.384766,4192.820313,4204.102539,4176.410156,4198.461426
67,4161.538574,4166.666504,4203.077148,4157.436035,4205.641113,4228.717773,4156.410156,4159.487305,4193.846191,4219.487305,4194.871582,4207.692383,4183.589844,4207.692383
68,4153.846191,4173.333496,4204.102539,4150.256348,4200.512695,4216.410156,4150.769043,4145.128418,4176.922852,4208.205078,4184.615234,4197.94873,4173.846191,4198.974121
69,4151.794922,4171.794922,4204.102539,4142.05127,4198.461426,4214.871582,4145.128418,4134.871582,4158.974121,4195.897461,4181.538574,4189.743652,4169.743652,4189.743652
70,4147.179688,4166.153809,4200.512695,4144.102539,4199.487305,4217.94873,4138.974121,4127.179688,4151.794922,4187.692383,4177.436035,4189.743652,4172.307617,4192.307617
71,4135.897461,4159.487305,4198.461426,4143.589844,4197.436035,4212.820313,4137.436035,4120.0,4148.717773,4181.538574,4170.256348,4187.179688,4170.256348,4191.794922
72,4136.410156,4154.358887,4202.563965,4138.974121,4198.974121,4215.384766,4143.589844,4122.563965,4147.692383,4181.025879,4168.717773,4182.563965,4168.205078,4185.641113
73,4142.563965,4155.384766,4206.666504,4138.461426,4203.077148,4227.692383,4153.333496,4134.358887,4156.922852,4184.102539,4168.205078,4182.563965,4164.102539,4180.0
74,4133.333496,4147.179688,4206.153809,4136.922852,4201.538574,4233.333496,4155.384766,4145.128418,4167.692383,4185.128418,4167.692383,4177.94873,4154.871582,4173.333496
75,4119.487305,4138.974121,4205.641113,4134.871582,4197.94873,4229.230957,4151.282227,4151.282227,4170.769043,4188.717773,4168.205078,4173.846191,4154.871582,4168.205078
76,4124.102539,4148.717773,4206.153809,4136.410156,4197.436035,4221.538574,4152.307617,4152.307617,4175.384766,4196.922852,4170.256348,4179.487305,4165.641113,4170.769043
77,4140.512695,4160.0,4204.102539,4144.102539,4200.0,4219.487305,4156.410156,4160.0,4187.692383,4203.589844,4178.974121,4185.128418,4170.256348,4178.974121
78,4148.717773,4158.974121,4203.589844,4151.794922,4200.512695,4221.538574,4156.922852,4172.307617,4192.307617,4204.615234,4185.128418,4189.743652,4167.692383,4185.641113
79,4152.307617,4158.974121,4203.077148,4151.794922,4198.974121,4220.0,4154.871582,4168.717773,4184.615234,4203.589844,4186.153809,4196.922852,4173.333496,4192.820313
80,4163.077148,4170.256348,4203.077148,4158.974121,4200.0,4218.461426,4155.897461,4159.487305,4185.128418,4206.153809,4194.871582,4204.615234,4190.769043,4205.641113
81,4171.282227,4181.538574,4206.666504,4169.743652,4203.589844,4219.487305,4158.974121,4160.512695,4187.692383,4208.717773,4206.153809,4212.307617,4199.487305,4218.461426
82,4172.307617,4182.05127,4205.128418,4169.743652,4202.563965,4217.436035,4156.410156,4153.333496,4176.922852,4204.102539,4204.615234,4211.282227,4188.205078,4213.846191
83,4168.717773,4175.897461,4199.487305,4165.641113,4198.461426,4213.846191,4151.794922,4139.487305,4165.641113,4192.820313,4194.871582,4202.563965,4177.436035,4202.05127
84,4160.0,4171.794922,4200.0,4165.641113,4199.487305,4216.922852,4153.846191,4141.538574,4166.153809,4188.717773,4190.256348,4202.05127,4181.538574,4202.05127
85,4151.282227,4169.230957,4201.538574,4161.025879,4198.974121,4218.461426,4157.436035,4151.282227,4170.769043,4195.384766,4188.205078,4202.05127,4181.025879,4197.436035
86,4149.743652,4166.153809,4201.025879,4153.846191,4193.846191,4216.922852,4156.410156,4155.384766,4175.384766,4198.974121,4185.128418,4193.846191,4169.230957,4184.615234
87,4154.871582,4163.589844,4203.589844,4154.358887,4194.871582,4222.563965,4160.512695,4165.128418,4183.077148,4199.487305,4186.666504,4193.333496,4168.205078,4183.077148
88,4156.922852,4165.128418,4205.128418,4160.0,4200.512695,4230.256348,4168.205078,4179.487305,4192.307617,4207.179688,4194.871582,4198.974121,4177.94873,4189.743652
89,4154.871582,4170.256348,4201.025879,4166.666504,4200.0,4230.769043,4170.769043,4188.205078,4201.025879,4217.436035,4200.512695,4199.487305,4177.436035,4190.256348
90,4152.307617,4172.820313,4201.538574,4169.743652,4196.922852,4227.692383,4169.743652,4189.743652,4204.615234,4218.461426,4199.487305,4200.0,4171.794922,4191.794922
91,4157.94873,4176.410156,4205.128418,4168.205078,4198.461426,4227.179688,4167.692383,4188.717773,4202.563965,4217.436035,4203.077148,4203.077148,4177.94873,4198.461426
92,4169.743652,4184.102539,4203.077148,4175.384766,4201.538574,4229.230957,4168.205078,4188.205078,4198.974121,4216.410156,4210.256348,4208.717773,4187.692383,4204.615234
93,4172.307617,4188.205078,4200.0,4185.641113,4201.025879,4229.230957,4169.230957,4184.102539,4191.794922,4208.717773,4209.230957,4215.384766,4190.256348,4205.128418
94,4166.153809,4185.128418,4199.487305,4184.615234,4201.025879,4227.179688,4166.153809,4173.846191,4181.025879,4199.487305,4202.563965,4214.358887,4182.563965,4202.05127
95,4166.666504,4183.077148,4202.05127,4182.05127,4202.05127,4229.230957,4161.538574,4166.153809,4173.333496,4194.871582,4194.871582,4206.666504,4173.846191,4202.05127
96,4169.230957,4184.615234,4203.589844,4181.538574,4198.461426,4229.230957,4157.94873,4158.974121,4167.179688,4187.692383,4186.666504,4200.0,4171.794922,4200.0
97,4162.563965,4183.589844,4204.615234,4177.94873,4194.871582,4222.05127,4155.897461,4151.794922,4165.128418,4181.025879,4185.128418,4198.461426,4175.384766,4192.820313
98,4153.846191,4175.897461,4205.641113,4171.282227,4192.820313,4215.897461,4153.333496,4150.769043,4169.230957,4187.179688,4187.179688,4197.436035,4172.307617,4186.666504
99,4152.307617,4167.692383,4204.615234,4168.205078,4188.717773,4216.410156,4153.333496,4156.922852,4175.897461,4196.922852,4187.179688,4194.871582,4167.692383,4185.128418
100,4153.333496,4166.666504,4205.128418,4168.717773,4187.179688,4221.025879,4160.0,4170.769043,4189.230957,4201.025879,4191.794922,4196.410156,4176.410156,4186.666504
101,4152.820313,4171.282227,4206.666504,4171.794922,4192.307617,4227.692383,4169.743652,4186.153809,4202.05127,4206.666504,4201.025879,4201.538574,4182.563965,4190.256348
102,4152.307617,4170.256348,4201.538574,4173.333496,4195.384766,4231.282227,4174.358887,4190.256348,4203.589844,4213.333496,4203.077148,4202.563965,4175.897461,4188.717773
103,4151.794922,4158.974121,4200.0,4169.230957,4190.256348,4229.230957,4173.846191,4190.256348,4201.538574,4212.820313,4199.487305,4198.974121,4170.769043,4184.615234
104,4151.794922,4155.897461,4204.615234,4168.717773,4186.666504,4225.641113,4173.846191,4192.307617,4203.077148,4206.666504,4200.0,4202.05127,4172.820313,4191.282227
105,4158.974121,4168.205078,4204.615234,4178.461426,4191.282227,4224.102539,4173.333496,4190.769043,4201.025879,4205.641113,4203.077148,4211.794922,4174.871582,4200.0
106,4168.717773,4178.974121,4203.077148,4187.179688,4196.922852,4227.179688,4170.769043,4186.666504,4189.743652,4204.102539,4203.589844,4215.897461,4173.846191,4199.487305
107,4169.230957,4181.538574,4203.589844,4190.256348,4196.410156,4230.256348,4171.794922,4181.025879,4178.974121,4197.436035,4200.512695,4213.333496,4172.307617,4196.922852
108,4168.205078,4186.666504,4202.05127,4194.871582,4198.461426,4230.256348,4177.94873,4176.922852,4177.436035,4194.358887,4200.0,4214.871582,4175.384766,4203.077148
109,4177.436035,4188.717773,4203.077148,4201.025879,4202.563965,4233.333496,4184.102539,4179.487305,4182.05127,4198.461426,4207.179688,4221.025879,4186.153809,4213.846191
110,4187.179688,4185.641113,4205.641113,4203.077148,4201.538574,4235.897461,4182.563965,4183.589844,4186.666504,4206.666504,4216.922852,4222.05127,4195.897461,4217.94873
111,4182.563965,4188.205078,4204.615234,4199.487305,4201.025879,4235.384766,4183.589844,4184.102539,4192.820313,4212.820313,4218.461426,4218.974121,4197.436035,4213.333496
112,4169.743652,4185.641113,4205.128418,4190.256348,4197.94873,4233.846191,4182.563965,4186.153809,4193.333496,4211.282227,4208.717773,4211.794922,4189.230957,4206.153809
113,4157.94873,4172.307617,4207.692383,4178.461426,4189.230957,4230.769043,4171.282227,4186.153809,4186.153809,4202.563965,4196.922852,4202.563965,4175.897461,4195.897461
114,4151.794922,4164.615234,4202.563965,4176.922852,4186.153809,4229.230957,4171.794922,4184.102539,4186.666504,4197.94873,4196.410156,4197.94873,4167.179688,4186.153809
115,4150.256348,4166.666504,4198.974121,4179.487305,4185.641113,4230.769043,4183.589844,4191.282227,4198.974121,4205.128418,4202.563965,4200.0,4171.794922,4186.153809
116,4157.436035,4169.743652,4201.538574,4182.05127,4187.179688,4231.282227,4187.692383,4205.641113,4213.333496,4221.025879,4213.333496,4209.743652,4187.692383,4196.410156
117,4171.794922,4177.436035,4200.0,4192.820313,4195.384766,4233.333496,4194.358887,4216.410156,4222.05127,4233.333496,4227.692383,4220.0,4202.563965,4211.282227
118,4178.461426,4189.743652,4198.974121,4203.589844,4198.461426,4234.871582,4200.0,4211.282227,4216.410156,4226.666504,4231.794922,4221.025879,4203.077148,4218.461426
119,4174.871582,4191.794922,4204.615234,4202.563965,4192.307617,4232.307617,4189.743652,4198.974121,4201.025879,4212.820313,4221.025879,4216.922852,4197.94873,4215.384766
120,4174.871582,4191.794922,4205.128418,4198.461426,4196.410156,4231.282227,4181.025879,4189.743652,4190.256348,4211.282227,4216.922852,4218.461426,4197.94873,4214.358887
121,4182.05127,4196.922852,4201.025879,4203.077148,4200.512695,4234.358887,4187.692383,4186.153809,4186.153809,4212.820313,4221.025879,4220.512695,4204.102539,4217.94873
122,4188.717773,4193.333496,4202.05127,4204.615234,4191.794922,4234.358887,4187.692383,4189.743652,4184.615234,4209.743652,4219.487305,4218.974121,4204.615234,4219.487305
123,4187.179688,4185.641113,4204.102539,4198.461426,4186.666504,4231.282227,4184.615234,4192.820313,4188.205078,4211.282227,4215.897461,4216.410156,4202.05127,4216.410156
124,4178.974121,4186.666504,4203.589844,4196.410156,4188.205078,4232.307617,4190.256348,4194.871582,4194.358887,4215.384766,4217.94873,4213.333496,4208.205078,4211.794922
125,4175.897461,4188.717773,4201.025879,4198.461426,4189.230957,4235.384766,4191.794922,4197.436035,4198.461426,4214.871582,4216.922852,4211.794922,4218.461426,4210.256348
126,4181.025879,4184.102539,4200.512695,4199.487305,4191.794922,4235.384766,4192.820313,4200.512695,4201.025879,4215.384766,4214.871582,4212.820313,4227.692383,4214.871582
127,4187.179688,4189.743652,4204.615234,4201.538574,4196.922852,4233.846191,4201.538574,4205.641113,4201.538574,4218.461426,4223.077148,4217.94873,4229.743652,4218.461426
