,AF3,F7,F3,FC5,T7,P7,O1,O2,P8,T8,FC6,F4,F8,AF4
0,-0.034037620381556034,-0.6137385920105153,-0.020332208721066607,-0.2620149030421238,-0.21105350913006465,-0.2565286693494874,-0.5326925094721878,-0.06934927831833315,-0.4404192508748906,-0.8605513496676107,-1.0175782250831142,-0.9217521194394881,-0.7688436094850059,-0.8724402735898981
1,-0.5438219332343316,-1.3723177024732554,-0.5101053244593625,-2.3023261706353506,-1.5330968226875814,-1.150563377785354,-1.4746539102274496,-0.5006247506238909,-1.2346886268588844,0.4058786927553449,1.333705559313228,-1.5584752701766118,1.9866520245563675,1.1244931684296526
2,-0.9969783385638743,-2.0337236902087206,-0.8804243099022143,-4.146276479818342,-2.709916681783625,-1.9761176977187327,-2.2927651136215776,-0.8801055469889568,-1.926125888123233,1.5805066954245834,3.5701005424406396,-1.9822596601333162,4.559512383054655,3.073848136562558
3,-1.4348766021875075,-2.573972941777692,-1.1463825053065912,-5.649933987604532,-3.6524777820744116,-2.673085135840737,-2.954093554507143,-1.16981615254341,-2.4622558641164485,2.5050922368743063,5.467101595632338,-2.1765439578193373,6.657057827655599,4.7748658364180345
4,-1.899380330091559,-2.9788818944575257,-1.3422825506783942,-6.703044505551814,-4.295229080179764,-3.1941079317568857,-3.442712242960356,-1.3418226910050455,-2.8105011721270605,3.0508666811727454,6.82767776026805,-2.161620627466578,8.03419460195929,6.041792614332764
5,-2.4238462510351546,-3.2427372212289773,-1.5160936897375763,-7.238416408765772,-4.601455467037953,-3.508233648015508,-3.7596207645516024,-1.3814292810488866,-2.9617376056570937,3.1336479037545186,7.501426437452936,-1.9927441700491488,8.521294588904075,6.72238320456193
6,-3.024944528954978,-3.366104298806431,-1.7209972525294588,-7.2365445719104455,-4.565588794954318,-3.6025820688324424,-3.9200787338675753,-1.2887764896742055,-2.9299966755430766,2.7240883658532202,7.400321235482969,-1.7519174997650937,8.044168656318856,6.714599341945031
7,-3.696420261018365,-3.3532344936955454,-2.0050309597534777,-6.72512485597813,-4.21228083034481,-3.481965490197706,-3.9487333208321282,-1.0786317172137159,-2.7483720277589048,1.8519327524405684,6.509489678825744,-1.5341999712165342,6.633880133031159,5.9798234341041745
8,-4.405759437914503,-3.2096057014379133,-2.400294648806344,-5.773725995503499,-3.592398456698705,-3.166674122901869,-3.8733462406869523,-0.7783934890435691,-2.4618676653380067,0.6037894701794536,4.891732680385031,-1.430421913419424,4.425228942874747,4.550997688237135
9,-5.094441876247944,-2.940115671515359,-2.9134430140465706,-4.484446094071231,-2.7764473192602592,-2.68886676974017,-3.718228007730316,-0.42456449919369066,-2.118490743607798,-0.8854045444148748,2.6849257030344744,-1.5089980435561234,1.6439427031447518,2.5343725086230715
10,-5.682076037458294,-2.548339907684909,-3.5192008704613693,-2.979816287442212,-1.8462206736667965,-2.088161587107296,-3.4986041515725357,-0.05814871946132383,-1.7602343356855723,-2.4463914240913134,0.09201441219881518,-1.799947333329469,-1.416185868347571,0.10401890771892477
11,-6.074252231571507,-2.037077603024762,-4.158366412605271,-1.3894751424137528,-0.8856679875218345,-1.4070800083396915,-3.2170359269656794,0.28043109951541334,-1.4156411371900814,-3.893663735583819,-2.6359945294510685,-2.2841434676151477,-4.42389803932893,-2.5110887304848184
12,-6.173474201019127,-1.4101682984891784,-4.741234050070724,0.16279965445686773,0.027941535839030585,-0.6869537364008499,-2.862704009202004,0.5562358640715919,-1.0953654874436454,-5.045748241313851,-5.222900625811505,-2.8902094103935103,-7.045645444603796,-5.0468326373612395
13,-5.892093719703803,-0.6753079940260955,-5.156629778194767,1.5702483471128665,0.8315304774647927,0.035224568369515256,-2.4138882183774357,0.7438967851107904,-0.7916029552163029,-5.745584640779237,-7.39416415760857,-3.5003942569039164,-8.981666204670915,-7.229138204886894
14,-5.165831324779436,0.15263261348403878,-5.285903209365132,2.751324000056218,1.4815366887475299,0.7287119746200906,-1.843421543697148,0.8303609728640494,-0.4815373817661229,-5.878826531465216,-8.905269875406072,-3.9653765629047677,-9.999141460539898,-8.802389967449301
15,-3.966257951901794,1.0484480353318855,-5.020377735783384,3.654205310338081,1.956460759946088,1.3696010315290703,-1.1263559468402284,0.8159545246214492,-0.13420111549618677,-5.3880599811691745,-9.568719377464685,-4.126433118544231,-9.958860285641258,-9.558251097728306
16,-2.3105656117222466,1.974329400310037,-4.280048307103673,4.257411446444003,2.256407311427589,1.9401963201887469,-0.2486377495115457,0.7136541339664034,0.28050419656300524,-4.2813151206695785,-9.276651914916481,-3.842036598750495,-8.832433164615809,-9.361686429180917
17,-0.2670926641606558,2.879185714825444,-3.030855431008681,4.566817540709074,2.399791096141966,2.427471200279382,0.7846783706222703,0.5467060626823951,0.7823036286414194,-2.6338055855437066,-8.016309156889713,-3.0149399834439117,-6.708018021295209,-8.170960042863285
18,2.0445961114551747,3.7001010076069516,-1.2977557537312547,4.609828620021845,2.4177719810198246,2.82102552003297,1.9432011061343026,0.3449573593012941,1.3723680806382084,-0.5825186308471696,-5.876129581694963,-1.6153686631613906,-3.783678813343143,-6.048754341447291
19,4.459749357378842,4.366207000278526,0.8288841862472672,4.42781108418242,2.3473106490258897,3.1110436231194782,3.168306657179274,0.14043500201834394,2.028080751463758,1.6859721413132502,-3.0411552444223826,0.3038103009579993,-0.34878015333699325,-3.1623463809972847
20,6.780585074884678,4.804893017816098,3.195322617006915,4.068055467865977,2.2239456517868708,3.286765065118617,4.374526068433033,-0.0371992555233115,2.701920032289622,3.9533679914080078,0.22242082838985627,2.603131044462301,3.244893921654799,0.22807793576750565
21,8.793796402889878,4.9498718157486845,5.595590289731314,3.576526728685066,2.0754427975276277,3.3359139908866684,5.455592473135444,-0.16468805634544917,3.3249752843559914,5.991443609609792,3.592469687619948,5.065451227815787,6.619458835224438,3.792511379524865
22,10.291889207862754,4.750236723040459,7.791160683523316,2.9924518335555197,1.9173426320896274,3.245379245379448,6.294839584192904,-0.22816657615915245,3.8148610662622726,7.5855833665709875,6.723572860210535,7.417535781563813,9.410962015715656,7.163710317340291
23,11.096197567774917,4.179351403609488,9.537250886900209,2.3454307567777546,1.7511397373681326,3.003202833801103,6.778935811160041,-0.2247130362582252,4.087056499603572,8.55761517981737,9.283737899004135,9.362122004102407,11.30889257935974,9.976061455547963
24,11.079000706158475,3.242267101775072,10.612732857730348,1.6552927260914114,1.5654038318848567,2.601647798997122,6.813313451349338,-0.1622819231009852,4.068080295897659,8.78551272971461,10.991145796848445,10.61655397369,12.090866538556483,11.906525714409987
25,10.182027954866085,1.9803983326138281,10.84985924448521,0.9344283875759122,1.3396569053328657,2.0408316365225216,6.337214641986023,-0.058066321084866895,3.708517086758812,8.217802117300412,11.646683792391402,10.952846671594678,11.648592658628768,12.712936600185074
26,8.428824068758779,0.47241230437833337,10.159720087668568,0.19189069972081246,1.0503322531402062,1.3321995175581371,5.336115098173393,0.064447279364671,2.9938101229179894,6.8810079400413295,11.158321549892774,10.233516057454015,10.002069161151296,12.264971314483514
27,5.928957413232022,-1.1693201246567713,8.549618396328517,-0.5617530056198828,0.6777483071056981,0.5010390623203617,3.849456874189842,0.179287144726859,1.9509625074865404,4.87916249393255,9.554188801319562,8.437787995321568,7.300160154851534,10.563733137670814
28,2.8728559825097104,-2.806842870321903,6.129383439690439,-1.3099633264689172,0.2128106082561074,-0.4126622628132491,1.9721220826011296,0.26210321245110774,0.6498237822765242,2.385215840178958,6.982430139886581,5.673862477485837,3.8071327626935387,7.747036765114544
29,-0.4829168336417238,-4.288839299144245,3.1049535851934658,-2.0272325719045545,-0.33784290702892045,-1.3554610533825076,-0.15114792340707423,0.2939704372645612,-0.8015981926780047,-0.3749592515603271,3.6974156597552525,2.174638572935898,-0.12374150045350431,4.079062620691306
30,-3.838986245787571,-5.465903784693024,-0.24079384663621575,-2.67834489037396,-0.9493084403377348,-2.263893651759368,-2.3382425722756865,0.2643363802625464,-2.267492190294127,-3.1444679246386653,0.033500416610051466,-1.7235129229011676,-4.086960722523914,-0.0751251592149733
31,-6.88299010955582,-6.20728101533695,-3.578218088978811,-3.2202678450641438,-1.5791266954978191,-3.069817428212315,-4.387954612775069,0.17269067367387464,-3.599121389618751,-5.661032438583305,-3.63094216271249,-5.6169880274759505,-7.668147124884571,-4.2878252368356025
32,-9.322820585115862,-6.417128068180846,-6.568699670883131,-3.6065545388944176,-2.171321248679672,-3.7070427017259915,-6.102021856335025,0.02872366981812695,-4.652396197101306,-7.683743731926733,-6.9152263992366665,-9.082051518766445,-10.489316928235738,-8.11564152393294
33,-10.919522635626391,-6.048208906384123,-8.905365581172148,-3.793647918862167,-2.663269888877521,-4.118414023272941,-7.308263988020386,-0.14903653229235148,-5.305874670430317,-9.01809892044079,-9.478989267387576,-11.726921070162277,-12.251009066862185,-11.149768631427731
34,-11.515840604152835,-5.111051266131951,-10.351408579503058,-3.7480845378201493,-2.9944055684606785,-4.262408331490136,-7.881817057920365,-0.33589799848857527,-5.476787073634963,-9.536589235260617,-11.060683107174526,-13.241974527509612,-12.766381103088683,-13.063597267707495
35,-11.05666344816903,-3.676994701088415,-10.770712344311878,-3.453363804398838,-3.115396791843837,-4.118368806299925,-7.7615544681030935,-0.5045907967344725,-5.132871269562956,-9.192494339335841,-11.507224857800532,-13.441183817212336,-11.983126188916675,-13.651694469233284
36,-9.598394055557728,-1.8742099398040204,-10.146320391299477,-2.915223918273723,-2.9963334321693287,-3.689670054930334,-6.959292841989443,-0.6292381323436101,-4.298302364593291,-8.025211280356453,-10.79108732388633,-12.288831175987147,-9.990348782760108,-12.855078005949103
37,-7.305493002506368,0.12339075741401295,-8.583799304130098,-2.1642565142621275,-2.6325649342329562,-3.004377596498083,-5.560262444664159,-0.6891374155568938,-3.0527419773986297,-6.156345924345059,-9.012621844749027,-9.907406917367517,-7.009241945470169,-10.76928558283764
38,-4.433989604553911,2.1135030835764494,-6.29855660990767,-1.255171733575527,-2.04718237629607,-2.113278340836139,-3.714462494763508,-0.6718117364250076,-1.5234243645935455,-3.776832762058817,-6.387239684941849,-6.565085810842912,-3.36834607631144,-7.633858095935467
39,-1.3034263032446631,3.88729433515727,-3.588406120658313,-0.26253549721261893,-1.2896449652579252,-1.0854743664180775,-1.6197642243823767,-0.5749048276717045,0.1288790444111389,-1.1264071295847546,-3.219007364901145,-2.643985604223499,0.5339052684315898,-3.804239626152836
40,1.7397147209927395,5.253304387926054,-0.7948070380991541,0.7266390888630873,-0.4306416808981568,-0.0020128351738248522,0.5012112905608219,-0.40666276494332426,1.7283435062192267,1.5323025969778208,0.13603840249852686,1.4068768533294536,4.274994127445958,0.29058100128685244
41,4.362788299953882,6.060462732863292,1.7420835039075044,1.6225436093101602,0.44614391825900934,1.0517559246566652,2.427503992997486,-0.18494713844479874,3.104728107851649,3.942098909445845,3.3122254870148917,5.127798096351102,7.456982091045106,4.199430313284872
42,6.286904021675915,6.217231349351031,3.728384462996375,2.3431718752800306,1.2542244577878756,1.9942607707034474,3.966067327181659,0.06507126246562768,4.1135510780101034,5.8786508993358675,5.976891269285741,8.106248370118955,9.752079597620542,7.502798053976237
43,7.320832852007842,5.704227974630036,4.955186550979703,2.8243653747128055,1.915018652819965,2.755355032810005,4.974390585855966,0.3142090859931415,4.653220449620131,7.173816738446182,7.868008529721449,10.028529946742768,10.939499955520036,9.8622749754358
44,7.384371344999913,4.578420240650076,5.325450974571077,3.0278431103999397,2.367570170912591,3.282700935487522,5.3764938870800005,0.5330957347178467,4.676919140619478,7.732128430647964,8.822189648898433,10.718185893744154,10.929063046492905,11.05924681522153
45,6.517909873576068,2.9680237528436835,4.865218854116855,2.946021111418021,2.575918949917831,3.5462189780564963,5.170209359958278,0.6959988938293912,4.1977204135037205,7.538573120882345,8.789800823958409,10.155943583265248,9.768714948923247,11.017954336081006
46,4.876726642624605,1.0584495481259193,3.7174727162914154,2.602889072026344,2.5331203614194524,3.54015749526012,4.424878818087809,0.7841298803902951,3.2862885584017683,6.6569068830014615,7.835667121163213,8.478572322023176,7.635212705033549,9.810149291361062
47,2.7105581701334205,-0.9291422615384882,2.119497852728845,2.0507909866769354,2.26139987007069,3.2826190279551373,3.2699408900435007,0.7879890884592767,2.061485220187993,5.218935777413033,6.125766729347282,5.957007610742966,4.809402279339389,7.641068900249947
48,0.3309891817321745,-2.7640943060466068,0.36698991706004735,1.363557030604554,1.8084861518502973,2.812677298759654,1.8761473316225352,0.7084515730795321,0.6751290560109776,3.4063382105550777,3.9021334825060685,2.957005973792395,1.6394955596816938,4.81896001085744
49,-1.9291273241595677,-4.234025686176016,-1.2299171846189405,0.6269578739719744,1.2406995370102585,2.1854922405617705,0.4321487053270054,0.5564704467938072,-0.7070780246616734,1.427528893394197,1.4496614269467594,-0.11198333623054872,-1.5027425129692318,1.7125522150607837
50,-3.7589044413479082,-5.170590306811594,-2.392360147907811,-0.07217994155178994,0.6338080788141369,1.466044748978684,-0.8802237775145886,0.3514661867547305,-1.9259486467953995,-0.5073543961314373,-0.9405649563503391,-2.8524624770349396,-4.267161367560163,-1.297594315818019
51,-4.909609805724856,-5.469906509550944,-2.913607901074527,-0.6566976142070807,0.06294309527593107,0.7222408425159329,-1.9085635051383443,0.11864743491360497,-2.8478712504206385,-2.2101128368400893,-3.006525565605311,-4.931261138860472,-6.3659778016132496,-3.867257315249253
52,-5.22649953456618,-5.105014230913803,-2.6892086044333734,-1.0682265902722161,-0.40704204376741077,0.01816322916556685,-2.5473779134942336,-0.1143501331055428,-3.3800957356764387,-3.5338785926309253,-4.54463456610361,-6.121468654906096,-7.605093869307759,-5.729868056405279
53,-4.66810929849637,-4.128741265221351,-1.7321212260103631,-1.2735346098469247,-0.7294870876684414,-0.5918213237432829,-2.7483078747617005,-0.32103454352091704,-3.480367591455829,-4.386033868929233,-5.429778987073108,-6.328372443801244,-7.902367201153417,-6.725721109723753
54,-3.310513802546268,-2.6666071601938244,-0.17072076536536715,-1.2673463326268302,-0.8811051759781557,-1.0675413691050155,-2.522069957308751,-0.47934726015559076,-3.159852462283459,-4.733459311299795,-5.624037649969891,-5.596248597958604,-7.291076622299009,-6.815650727553639
55,-1.3361119526265257,-0.900697311544516,1.7699380449218531,-1.0714114787097797,-0.8638235218226529,-1.385733468286442,-1.932375239546164,-0.5742346355630891,-2.479236966936486,-4.600046100876763,-5.173752555845412,-4.095658933466201,-5.908856600433854,-6.0780116370097605
56,0.9913991161643497,0.9533746331390739,3.800778933208621,-0.7301296217053039,-0.7031542041679958,-1.540857414645122,-1.083247814867205,-0.599181700307835,-1.5388152493267777,-4.057483950136196,-4.1962332795899835,-2.093714103696807,-3.97428878458982,-4.6901708483558
57,3.3623322191967064,2.6733938635618966,5.610454400872957,-0.30350861707200727,-0.4434410562020472,-1.5440915668767263,-0.10205690823109251,-0.5565512222781046,-0.4641369767535717,-3.2111942067096124,-2.858696964747336,0.08785407155213736,-1.7548707350643937,-2.897838456114242
58,5.461716081693639,4.057843151131657,6.91007683602104,0.14143667834202864,-0.14074039118217854,-1.420755725249893,0.8789455995133632,-0.45674822114746266,0.6107018296871408,-2.1837914120029813,-1.3529034097456119,2.1203617772544927,0.4689722560033735,-0.9771296874545363
59,7.009866896492303,4.950040741303343,7.474460130825082,0.5395927935574218,0.14561469473710736,-1.2065289839802436,1.7397845446585642,-0.31639239632329663,1.5598519160956035,-1.0985709156896504,0.13076240039529416,3.714537995231275,2.4389172249417084,0.8049594179432594
60,7.797442864510484,5.256056970174015,7.174013974211735,0.835761811437182,0.36158036102541397,-0.9429002025773104,2.386264364958415,-0.15580479724420063,2.280438978109506,-0.06524925271600235,1.4262833858417046,4.659018382926105,3.948350231160538,2.2260523883513743
61,7.71050921089639,4.954241771602688,5.992909460194723,0.9908071440183438,0.4659427192663813,-0.6723159266548293,2.7582596233153254,0.0038137984890897368,2.7034781446937455,0.8303936317476514,2.4093564215012124,4.8458457659580105,4.863127888499968,3.135141724512611
62,6.742654158747798,4.095375977106199,4.031229017637692,0.9853078809037633,0.4358605031903577,-0.43348371302042316,2.8322309258551512,0.14312167158514605,2.7998291545943492,1.532084637675664,3.0074404791876863,4.279998582531283,5.131517580300769,3.467382587877293
63,4.9930641721908415,2.793750524646336,1.4911857752201156,0.8205033867727376,0.2697385525678939,-0.2572554035106948,2.6184048481913695,0.2469408957219683,2.580760059057154,2.0137670792613345,3.2020482826374446,3.0724479727692375,4.7829480087486465,3.2456295169297538
64,2.651400038632504,1.2106875458339252,-1.3502246016391588,0.516696403631982,-0.012865018011322199,-0.16345816721357787,2.153883889550706,0.3058601134286356,2.0934134834937277,2.276109604824914,3.0239416475543592,1.4186640560775572,3.916727073832632,2.5694000327163535
65,-0.02796471125574666,-0.4670281711419892,-4.177931194446129,0.10959405837512748,-0.3741994984045792,-0.15896072139399375,1.4934726166818388,0.316979768365176,1.4121178449787775,2.340026192452433,2.542777859430653,-0.43350892076400305,2.6831173614537507,1.5937214390216152
66,-2.7585032244386323,-2.0507685541409852,-6.679485873702987,-0.3547331490490115,-0.7636847557464008,-0.23715880261313685,0.7001540220361497,0.2837684889364611,0.6269784592583775,2.238723989349492,1.8533091432238689,-2.2213850579421948,1.2599540053087035,0.5016299197354764
67,-5.256369136395628,-3.3725726475732363,-8.584047143877257,-0.825516441264909,-1.1249175155185183,-0.37894233385507164,-0.16306858724955803,0.21511807923429946,-0.16853977555462893,2.0098303938525324,1.0604225818414268,-3.7046962776829764,-0.17172427242763844,-0.5252238992197866
68,-7.272955465738976,-4.303711347633742,-9.694444434274903,-1.2528574012210203,-1.4033733354316602,-0.5550733387325609,-1.0387665988853918,0.12378241092253761,-0.8892989041484506,1.688931732343672,0.2651459716504255,-4.697301730419886,-1.449773883648127,-1.3334198359002474
69,-8.62122799801368,-4.767168010588063,-9.908343637536065,-1.5926086821556555,-1.5537937488942302,-0.7297654822767715,-1.8776210043635944,0.024450833424448645,-1.4679258505784394,1.3054356488614534,-0.4466949237950793,-5.089220015202952,-2.448155348615242,-1.8182890139504275
70,-9.192982516855974,-4.742851042270333,-9.226272316751944,-1.8101614848604652,-1.546312758753244,-0.8651229166214403,-2.6381383669602707,-0.06826702437648836,-1.8609172511944627,0.8811284660442231,-1.0121010864644007,-4.85653683606778,-3.0875690701289806,-1.9355267447601894
71,-8.965584645932962,-4.265415377440919,-7.746226753111639,-1.8829384204715127,-1.3705561933698953,-0.9259821611520604,-3.2844172694857954,-0.1416816470766758,-2.050898939989903,0.43123583081678446,-1.3944250409694081,-4.0586680133276465,-3.3389129757662515,-1.7028180536708812
72,-7.998243854162357,-3.415577355288835,-5.646465788572017,-1.8015754126905597,-1.0372151514043753,-0.8846233119895287,-3.7832308160959482,-0.18647373763343536,-2.0451397102412225,-0.03268805264531179,-1.5830533523688217,-2.8243293503132443,-3.2200114414669967,-1.1919692684932135
73,-6.4192269232234755,-2.3066173798544516,-3.1596194794503187,-1.5699158514206402,-0.576916711208578,-0.7247928452347168,-4.101780446127859,-0.1976109387617053,-1.8709657613973645,-0.4990348102036867,-1.5900042172662348,-1.3291026857720087,-2.7869430457952022,-0.5134355488890675
74,-4.406446186169559,-1.068270196245372,-0.5421966127741443,-1.204022224545789,-0.036553539225299664,-0.44452208551264755,-4.2072479998791446,-0.17467184887994033,-1.5691190758010654,-0.9526737696867933,-1.4444948518247573,0.23152116440399817,-2.1218830900873784,0.20385115918125227
75,-2.1644445934565346,0.16964919302676956,1.9561407510295736,-0.7304370682792248,0.5264499654742196,-0.05733665300781139,-4.068780725700761,-0.12159910986165967,-1.186300180504154,-1.3727141197189845,-1.1866074753978886,1.6694146663834837,-1.3196141548900524,0.8339528136892413
76,0.09909419789662835,1.2917383155471769,4.119544313748994,-0.1839088650420702,1.0512016012521366,0.40837525853748385,-3.6618948892601977,-0.04596954410143705,-0.7681211574447638,-1.7321604665149313,-0.8610562248753449,2.827535126666537,-0.47474042397565763,1.2733608925866915
77,2.194511842661051,2.2079644625566246,5.786115436057487,0.39524181477119763,1.480838330681278,0.9118535395676257,-2.9746156057216773,0.04208671419475523,-0.3534894899721398,-1.9996943546877206,-0.5117896977211418,3.5971318425504277,0.32877563683606165,1.4556398067602683
78,3.966873921716644,2.8601096820863505,6.8594003368973775,0.963984090607999,1.7695076928573144,1.404104026443868,-2.014126632755126,0.13116562468867785,0.02890444220425186,-2.1433527906300065,-0.17783732996455073,3.9267366949200637,1.0247458380665226,1.359466565199818
79,5.306895890178622,3.223468075514436,7.310811434448789,1.4795624349933794,1.8879507727959923,1.8332557106914302,-0.8124051831717752,0.20991440209215512,0.36174694426906273,-2.135474866191959,0.1094937992017,3.822611404373666,1.5682206407780757,1.0093807991355745
80,6.1556675039836035,3.3042471964517803,7.1738129412419935,1.9025029273147878,1.826978472223928,2.150533336293338,0.5706659019429042,0.2682648790978545,0.6380827195505331,-1.9580220113957998,0.32818102824194756,3.3415804058534277,1.935557295675711,0.46967287913173533
81,6.503539011852709,3.1336640667845552,6.531704212263305,2.1995102350680504,1.5983969704793726,2.3161290505425733,2.047880208752304,0.2984638466580845,0.8586469063229798,-1.6072850519452686,0.46602384960791404,2.5781366140300013,2.121824403915683,-0.16722126181697192
82,6.384153147650852,2.760054165782521,5.501448195671156,2.346083185097751,1.2332625422649428,2.304228407744843,3.509564256868111,0.29582201912713135,1.0283018417240215,-1.0970749735873766,0.5203879040678788,1.648266341315684,2.1365433518006056,-0.7957924812071141
83,5.865009033291913,2.240403631070199,4.21618768613547,2.3286390710252016,0.7776922457385587,2.1065166785471163,4.832554823926497,0.2591376584170291,1.1524059141342218,-0.4597259395767372,0.49734356629116977,0.6725753114897753,1.99883605059265,-1.3136513349905856
84,5.036117265019435,1.6325846847024614,2.80889409271093,2.145925058651657,0.28678149964605437,1.733665125846473,5.892403943940078,0.19078237995721384,1.23386805221399,0.2554306648277719,0.41033045984454064,-0.2389471474798322,1.7329407062398823,-1.6365122513017185
85,3.998267923530092,0.9892686580830365,1.3990763808055335,1.8095221548168492,-0.182562867291438,1.214557705537183,6.577305529420113,0.09646263383339329,1.2714497312415198,0.9860895391693744,0.2784361404495386,-0.9987257126020834,1.36481128049213,-1.7099571971032776
86,2.852223254909781,0.354077030097295,0.08375098361533977,1.343312498563753,-0.5789143336310745,0.5933267648707277,6.801855408818496,-0.015309955061391736,1.2596054295268038,1.6630959983102882,0.124359400742725,-1.548875141325441,0.9201800682524682,-1.5165230268633112
87,1.6898172101294937,-0.23991618206945498,-1.0669331144782517,0.7818727841351035,-0.8627645219424501,-0.07543251190377742,6.518668455693671,-0.13399203102861598,1.189846216857012,2.2179634003422946,-0.027863179405672466,-1.8636454943969933,0.4240942228017265,-1.0773701321748497
88,0.5875560602737937,-0.7696248513020539,-2.0097740001770013,0.1678609191634761,-1.0112482038241353,-0.7326563816685175,5.726099218962049,-0.2479677268220922,1.0533180913136897,2.5908539024430253,-0.15525810243534244,-1.9474401101923213,-0.0983997749073646,-0.4485617953190523
89,-0.39707237190216915,-1.219936425950846,-2.7252508208045803,-0.45143210314190724,-1.020538870905379,-1.3212543857652528,4.470814198010022,-0.3456259660046727,0.8440537230739706,2.737992759634755,-0.23828814098817216,-1.8293646670819728,-0.6209955816715642,0.2872934100133904
90,-1.2267097161987197,-1.5810153416289605,-3.2122135857962766,-1.0280954595383176,-0.9056267106713514,-1.7921992173398569,2.8446687103720683,-0.41647749650586446,0.5622202613914191,2.637522571028464,-0.26299566041159145,-1.5556011352322687,-1.1149753801056457,1.0327062448734243
91,-1.8830407979018577,-1.84571273323131,-3.4819153301343344,-1.5178236306188468,-0.6975549839948557,-2.1095345905003997,0.9761418938172634,-0.452221752448035,0.2166683041173843,2.2929744545381836,-0.22268344941579316,-1.1809964974414082,-1.5488152958160915,1.688585487714673
92,-2.364049862029826,-2.0077411398957485,-3.5526073093370276,-1.8839406869294224,-0.4385369449657539,-2.253731140715024,-0.9826420480022473,-0.4476642008882526,-0.17380888746979808,1.7338191728560983,-0.11890299415190736,-0.7611311845431739,-1.8890190076104085,2.1673220426069255
93,-2.6802232942557027,-2.0610285279300435,-3.445556656922601,-2.100789991407813,-0.17565588472281987,-2.223043957598347,-2.8716486553091713,-0.4013825998524759,-0.5808886255541617,1.012927627161884,0.03843471799401741,-0.34583737491937944,-2.102370037266115,2.403996173642253
94,-2.850289904720477,-2.0003584471566502,-3.1828758164917046,-2.1560878066254565,0.045970194458148025,-2.0327813369785908,-4.539380762321291,-0.316050654313489,-0.9689099389459371,0.20116821513662633,0.2319224679689405,0.025253765423115304,-2.15946497864275,2.364355672364117
95,-2.897022395438451,-1.8230940263012303,-2.787075454182317,-2.0519328461715336,0.1896208750701362,-1.7126509868158033,-5.8579172438705225,-0.19835310994880015,-1.2986467563987742,-0.620256344818549,0.4384683102276682,0.3249644503631677,-2.0390773291819935,2.0486868569658414
96,-2.843525884455355,-1.5315317133220627,-2.2818627636816666,-1.804314272579622,0.2321329357720017,-1.3025771645361242,-6.734666029941348,-0.0584672574155876,-1.5321878372921147,-1.368828704602006,0.6318921025019917,0.5388060177118349,-1.7326607881042624,1.4912492382010867
97,-2.7103305416185566,-1.135280614102963,-1.6934747999200548,-1.441149273513644,0.16709966703201987,-0.8475547194715152,-7.1194831921802155,0.09086245038462021,-1.6382331184174854,-1.9700011624424358,0.7860186072605431,0.663636899723205,-1.248172318878891,0.7554994967819412
98,-2.513495569479145,-0.653036826959989,-1.0517934672407472,-0.9990776766904529,0.005692168498275632,-0.3922058384905522,-7.00653358092394,0.23557575865296485,-1.597001865737599,-2.3656040290263496,0.8778917415771066,0.7053134498420282,-0.6124015304166247,-0.07417137032662131
99,-2.2638231328295935,-0.11321639697998913,-0.3906245387362117,-0.5194098264042323,-0.2249927972937723,0.02427715313356226,-6.431062769003076,0.36174533316714075,-1.4039588451927838,-2.520337584098453,0.890701153789787,0.6759142149798221,0.12886111043842172,-0.9030734811834578
100,-1.9671721583189568,0.44689801252290723,0.25321060915013127,-0.04373485587254804,-0.485821137576061,0.3721855030783663,-5.461978780397562,0.4570602522087437,-1.0717049526170601,-2.425544993537586,0.8160353513732943,0.5910298475488656,0.9132133110151257,-1.637864914819143
101,-1.625752159989574,0.9835894350798772,0.8419963637767163,0.39026766693681214,-0.7312094716378058,0.6338686697136288,-4.191682738951399,0.512167182355317,-0.6296291620739484,-2.0998081873810497,0.6551509770081929,0.46746188089848384,1.666621009406049,-2.1977641465706306
102,-1.2401681243213856,1.4505403968115722,1.3401739901777243,0.7523114686684098,-0.9156502370075292,0.8045556403381416,-2.7248541028641675,0.5217017582379476,-0.12124054610785885,-1.5863129912094387,0.4190682870367999,0.32150534158843347,2.3106223739230796,-2.5239645627585467
103,-0.8118859980251032,1.8036453049131231,1.7178107258254505,1.0218921300439319,-1.0002875833650713,0.8913852120192806,-1.1678552368449349,0.4848777459384553,0.4005574363730924,-0.9473384249687609,0.12745767644121017,0.167838803418011,2.7710119916592086,-2.586129024702663
104,-0.3457084889063049,2.006194766878441,1.9538696114295067,1.189352930314911,-0.9586522051131606,0.9108496313910016,0.3799029423367484,0.4055578984226405,0.8796750514814574,-0.2565834293285563,-0.19354630195572825,0.01893639207621949,2.9869705883295343,-2.385219041423841
105,0.1481869320617369,2.0337285842130917,2.038691213861194,1.2555914638432808,-0.7807759655096661,0.8850724852432211,1.8318203345291855,0.2917988412824642,1.2637145063219763,0.4096929960704793,-0.5143064921715044,-0.11514044055735796,2.9194480079749168,-1.9523822467644845
106,0.6530698131196626,1.877856356501411,1.9752396443072606,1.2305595757710082,-0.47512338234188806,0.8375034613676121,3.1169987293002333,0.15493136625050008,1.5105806294416728,0.9816060032618397,-0.8050086406794531,-0.22672326682107014,2.5576089786060585,-1.3441275063500202
107,1.1456559256627277,1.5484432339298484,1.7788780207986765,1.1308659059253197,-0.06806816732484258,0.7886955754869936,4.180560401555864,0.008296163721933255,1.5938952395797474,1.4035469378852559,-1.0388974602621663,-0.31041785538878086,1.922318039831195,-0.6344965297113144
108,1.5974231575764688,1.0737402017768065,1.4756770873090204,0.9768911674926075,0.3990304291115591,0.7528189953244809,4.982234786817402,-0.1342050182858212,1.506435272446441,1.640094524193349,-1.1950076368456224,-0.36297313866481784,1.065959852145422,0.09467051082487166
109,1.977158673940271,0.49828402825768026,1.0994848402611948,0.789859647237701,0.8747790559013379,0.7354555945511805,5.49427404729063,-0.2595662417760284,1.2610873111893235,1.6792487872926753,-1.2600780799335218,-0.38317703299258093,0.06833291728225284,0.7640397640259534
110,2.254425490556274,-0.12132256879408117,0.6881627177699289,0.5892770621205405,1.304090445553874,0.7330201103180028,5.6997217668863565,-0.3569737286230336,0.8891673213815806,1.532661153973239,-1.2294835069626413,-0.3717754589818704,-0.971133131011316,1.3062760199942611
111,2.4034551358899807,-0.7223466968035224,0.2795022076650649,0.3910539965748561,1.6350921804217518,0.7338932454094294,5.591785742383916,-0.4188031701795288,0.4363357538714823,1.2329305584283352,-1.1071765502236492,-0.33138241252006945,-1.9440715711668262,1.6734923018785821
112,2.4068724432590676,-1.2429120264911688,-0.09263789500546302,0.20650000941020533,1.8257110708423765,0.7210693893336384,5.174623124050604,-0.44122522527731306,-0.043318607437722194,0.8284134607428754,-0.9047756451473775,-0.266338357399867,-2.7455738269969276,1.8417546896398986
113,2.2586577386983357,-1.6291848626299401,-0.40148930556103557,0.04221637066045402,1.8490838327457588,0.6758648967337729,4.465335075591845,-0.4243795336537376,-0.49420076940312563,0.37630585337046324,-0.6400314838996298,-0.18247981780004882,-3.2867676501910448,1.812191541784127
114,1.965851423376459,-1.8418308878793592,-0.6294686711179028,-0.09923757456859503,1.6970975470620824,0.5820477986270302,3.4965037611651626,-0.37213004089009705,-0.8661849574013442,-0.06504136034057674,-0.3349413290567937,-0.08679993893145843,-3.5059419990708287,1.6087579825690177
115,1.548688869927411,-1.860866189739425,-0.7690221420448028,-0.21814896527932173,1.3816045211815584,0.4296695474722105,2.318292162146569,-0.29145969745807077,-1.1206997091353106,-0.44354017127400047,-0.013756892676254167,0.012997980763489446,-3.3766859568275613,1.2731792913156705
116,1.0390876967272409,-1.6882073668752715,-0.8222216062918671,-0.3162361340066171,0.9331546712648718,0.217918201660818,0.9990406701040535,-0.19159541292025456,-1.2351188430638214,-0.7195494359323352,0.29893451551462175,0.10903016497096865,-2.911836690953516,0.8579697862754996
117,0.47765514710212675,-1.3475146291033968,-0.799286552467959,-0.39532517579169707,0.39740687946738584,-0.043535255993831165,-0.37653816004544427,-0.08297170134234969,-1.204905478473393,-0.870052847488302,0.5799566889173634,0.19380537548159293,-2.1625516114466983,0.4186465863487701
118,-0.09039928239669953,-0.881280615976891,-0.7163352107298031,-0.45637578134600665,-0.17032100596274571,-0.3349833370899419,-1.7120656854334402,0.023855157505547425,-1.0432850542548566,-0.8903564078475467,0.8090875201573118,0.26079517403590535,-1.2124677643794786,0.006304820609809512
119,-0.619905903815931,-0.3454968745684788,-0.5927384176658019,-0.4990170459719586,-0.7116640242259349,-0.628912002903969,-2.9070407947586343,0.1192374154989711,-0.7785831812080616,-0.7931922824185915,0.9703998657941045,0.30495828147270343,-0.16759764558666312,-0.3384087467242236
120,-1.0703235583678,0.19742367661944085,-0.44845675358816894,-0.5216358508755939,-1.1721350889903006,-0.8937036283335293,-3.8665401283158607,0.19531868681253098,-0.44969883307237385,-0.6054903596012147,1.0533934555577418,0.3231810545785117,0.8567649263860548,-0.5891706548917626
121,-1.4096955911563092,0.6865271000319503,-0.3016957450915428,-0.5219445339977081,-1.5074767866818974,-1.098243301550518,-4.511846132650147,0.246694647541788,-0.10043608103814995,-0.3634089510215808,1.0538692602811235,0.3145958984529376,1.7503887147292414,-0.735343338443309
122,-1.6175100029555698,1.0699233430499524,-0.16713115214603064,-0.4978616616432175,-1.6886331460157193,-1.216686097337116,-4.790413917480297,0.27079765161516584,0.2264539637295219,-0.1064485227110449,0.9744441222568556,0.28073364534672834,2.421730504464351,-0.7808976086940802
123,-1.6861785730070697,1.311054326310462,-0.054852502433534116,-0.44848418056559836,-1.704720805500192,-1.232591209209944,-4.683502118243407,0.2679755282551251,0.49467910490377076,0.12842917094021036,0.8245664791466718,0.22546276739627372,2.8089358230045867,-0.7413628426628194
124,-1.6210524910260389,1.3927429829192586,0.029937670376109123,-0.3749186747421068,-1.5636487435904631,-1.1417150427999465,-4.210020597018661,0.24126269230381908,0.6785507728395433,0.31180181900066833,0.6198990955102639,0.15467833171440812,2.8866685244128147,-0.6395571869684498
125,-1.4390822654187134,1.3184652787774438,0.08653593479242809,-0.28077437219073476,-1.2903548896864776,-0.9529712700598486,-3.425668305909431,0.19587244398980086,0.7653821507959737,0.42521493983843933,0.38099407965380505,0.075732718316072,2.6678357295699855,-0.5009731573334971
126,-1.1663791406486186,1.110711275664797,0.11781480559930713,-0.1721932829029323,-0.9229537247361873,-0.687375704103301,-2.4171655826310947,0.1384705861390747,0.7559324145329428,0.4626322529404259,0.13129368260910476,-0.0033547786723692836,2.20004772677966,-0.3496408025674613
127,-0.8350303496506254,0.8067559354120033,0.1289758716473716,-0.057387839648158724,-0.5073743512090518,-0.3751403667600276,-1.2921949050046158,0.07631832665651064,0.6629825647760089,0.42984530618605155,-0.10537340644441266,-0.07482257665416744,1.5574596749337026,-0.2050849006075375
