,AF3,F7,F3,FC5,T7,P7,O1,O2,P8,T8,FC6,F4,F8,AF4
0,0.1106703295549975,-0.2577320653415218,-0.011909370634062345,-0.24099547814899366,-0.5499349062403047,-0.603760822517069,-0.4981657074949116,-0.18309456660854823,0.11956198191531234,0.260866167157709,0.36853160814266883,0.32121391081787903,0.5430135677077214,1.0913379673568901
1,-1.8887343806746852,-2.7653903340203976,-0.8775464039501835,-1.5448223167171757,-1.6048998603514344,-0.8015392720091318,-0.9396856888426864,-0.7015587367930051,-0.7735584758906443,-1.1679243215900257,-1.124182958155409,0.9038810696043347,-1.1919612366967498,-2.678741196648911
2,-3.863913572258905,-5.085012145065632,-1.7920736386286145,-2.752207174339231,-2.5495196214684452,-1.0042722400170407,-1.3624672846815138,-1.192735053085864,-1.5898984971791217,-2.4960991372991805,-2.541069866498702,1.2947766442326052,-2.876191739305356,-6.305138900154102
3,-5.713192212074196,-7.029389688930565,-2.72970435717632,-3.755353050414435,-3.295963084481647,-1.2205325051361007,-1.7665069340747341,-1.6279034836421729,-2.2424357955940697,-3.6257549688104165,-3.782554790173655,1.3897756445937093,-4.415405077355394,-9.58754717420934
4,-7.326327349064972,-8.442854176840267,-3.6461108227194363,-4.46358957939407,-3.776158314373281,-1.4476892570749476,-2.1423994760631966,-1.9797615633314805,-2.661508431556038,-4.476754480278122,-4.763663038567937,1.130913189483689,-5.721611215356438,-12.340392822103164
5,-8.5903326686726,-9.215559013091333,-4.479494982046108,-4.812197029742076,-3.9488946999637715,-1.6700211065275283,-2.4695206016795836,-2.223641774426689,-2.8022075203566126,-4.9927376418496285,-5.420389241008135,0.5168012878465885,-6.718378536473976,-14.40171004976996
6,-9.398213742311883,-9.293227391829921,-5.155355847995714,-4.768705072037828,-3.803778258799395,-1.8595959145785648,-2.7171095309949447,-2.3390182525455065,-2.649130367314611,-5.144970956391991,-5.714139938445591,-0.39527257811362,-7.345700235503461,-15.642304107939333
7,-9.659915495061238,-8.681417773122508,-5.594575536785795,-4.336028881903005,-3.361615259845305,-1.9799046133695086,-2.8481830167441915,-2.3112434494936083,-2.218010638609407,-4.9337820603625655,-5.633945262124461,-1.49598234616332,-7.564142051060782,-15.97486875403547
8,-9.314224673884,-7.443974523950734,-5.723874257136743,-3.5521379745904778,-2.671248295581949,-1.9917314038215779,-2.8256635703613795,-2.1333538365360947,-1.5540698365468713,-4.387546350661864,-5.1963556279227445,-2.6384806932665685,-7.357976347734058,-15.362349638934104
9,-8.339968266372402,-5.695961828716829,-5.487224575826927,-2.4863146921278085,-1.80330869238415,-1.8603169857684247,-2.6196643263240142,-1.807704550503926,-0.7272732186268817,-3.5594106756633472,-4.443155651942755,-3.6587906849932263,-6.737038245754395,-13.824526258091854
10,-6.764683152783946,-3.5919524358172605,-4.85654115865982,-1.2324101515942028,-0.8417220190124793,-1.5626021262963847,-2.214613409600804,-1.3471505264205892,0.1750102955611763,-2.5221309508099914,-3.437212495649998,-4.399196923600231,-5.737083533605096,-11.441607775492892
11,-4.6690440103177995,-1.3109927681579028,-3.8399224634136835,0.10019276221704651,0.1259382261117219,-1.0932774915907637,-1.614864972846698,-0.7754921766963012,1.057182441650001,-1.3615409368883926,-2.2569059347140343,-4.731292271282717,-4.418481629223124,-8.35367094487467
12,-2.1857278815506147,0.9601555597733156,-2.485934324247622,1.3969796173591318,1.0180400666267988,-0.4685259454331121,-0.8476431404575255,-0.12694771159148868,1.825480422466209,-0.16924399544217836,-0.9896523606666733,-4.575334021715399,-2.863143274095852,-4.7550434418935765
13,0.5079687644142886,3.0438100728840154,-0.8828806004410223,2.549020236655759,1.7672581008731674,0.27330166626142144,0.037422851274167154,0.5554985679888029,2.3979020951410903,0.9648683314851508,0.2749571399702425,-3.9130410853560478,-1.169676647846535,-0.8832420084810245
14,3.2036308046803996,4.786602658826665,0.8473415500559459,3.4629437671112284,2.3267340395626235,1.0743484588928978,0.9723466941063956,1.2228940950952336,2.71297336876015,1.9596996277856964,1.4519115334361257,-2.791871973335694,0.5530954494627484,2.9972440794113866
15,5.680326801256372,6.0718028650148295,2.5604342899912775,4.069213078412834,2.673361710513234,1.8629863879796824,1.877962012732132,1.8241236781524057,2.736444263953028,2.749118574518091,2.466973065320018,-1.3200454651689837,2.193936196001258,6.615272616322156
16,7.7264648476546105,6.827726655202509,4.104792636510468,4.327927159079701,2.807917854139551,2.5618683302409893,2.6732024652901516,2.3104138692605374,2.4651878008998787,3.28676729849544,3.261892616863854,0.34707301971338134,3.647772051933735,9.715700216549429
17,9.162410728396601,7.031642365830434,5.3386842103154315,4.231640270784747,2.752186369818953,3.0971796686927755,3.285060502797583,2.6400760675077097,1.927834749296346,3.5491387729518866,3.798271813186237,2.0273044224815973,4.824294923665651,12.082048785151056
18,9.861040609841073,6.709022653613417,6.147260062722895,3.80499099869106,2.54362749151321,3.407794931154632,3.6576586378681952,2.7829290479750433,1.181992243390969,3.5366575093917128,4.059757155833745,3.5357775474773088,5.655690049168304,13.556611691590481
19,9.763449185735961,5.9284155797718086,6.457016757014026,3.101252027417423,2.2284666613422397,3.453071514758005,3.75901151225624,2.72381947643315,0.3082453958716319,3.2726402447250167,4.0523506395236435,4.709335717042627,6.102559125818502,14.055529329297311
20,8.887491060092849,4.792591110065215,6.245563426364961,2.196210972828156,1.8542711400492646,3.2182241797808,3.5844562455918814,2.4647275298883176,-0.5984990529313287,2.8001985115055,3.8027671721770258,5.427692292231723,6.157225487225204,13.576842150755839
21,7.32765900635314,3.4269369828147553,5.545125058813766,1.18004558073839,1.4631157117126175,2.716576783546682,3.1563009930008876,2.0251018991249907,-1.4394358577884943,2.1773593180969564,3.3549530036576916,5.628310839968131,5.84387464516768,12.20032644099424
22,5.24589825288503,1.9663071675053827,4.439062897245654,0.14804092340647604,1.086308150285157,1.9884224875389627,2.519877097316478,1.4402956390147514,-2.122900213963312,1.4708936156191945,2.7650785789556775,5.312956785392002,5.215365611350514,10.078920786495676
23,2.8541711183234444,0.541646128054728,3.0516926654607572,-0.8089030243422826,0.7413725010036328,1.0966762366980671,1.736762929850494,0.7582371493517234,-2.5747323135067313,0.7495138625197545,2.09550242972098,4.545137872090262,4.346985165762229,7.422606872730446
24,0.3907417350555615,-0.7322919647021084,1.5326764581107375,-1.6130157103752052,0.4316179236031813,0.11991400965917516,0.8763761825888293,0.03472260473207106,-2.74670009496283,0.07718978792117608,1.4083355425520359,3.439017400078831,3.3278343750975323,4.476554944464297
25,-1.9069308989961362,-1.7669426164343733,0.03809388728373649,-2.2067772454355308,0.14821183263835727,-0.856287029447011,0.0073355030695083515,-0.672090591848994,-2.6219175986033183,-0.4926926862679293,0.7592898531412274,2.1416339016978623,2.2508644722851896,1.4960444658300436
26,-3.8292636017288335,-2.506714211341348,-1.2891723956531955,-2.557709185158246,-0.12570749455061578,-1.7486012302167515,-0.8100556135838354,-1.307310436518684,-2.216567531475004,-0.9217400046150882,0.19245938102007026,0.8112059490834345,1.2027690229942194,-1.2789633184223128
27,-5.218078287498877,-2.9319648783466508,-2.336956646275576,-2.6603651294757458,-0.4096425591106987,-2.484650088646656,-1.5291298880610404,-1.8243851565070108,-1.577719379525813,-1.18915258264189,-0.26343051472418866,-0.4051896665345686,0.2549716244959062,-3.646722185081959
28,-5.983489005613654,-3.057982777644004,-3.036719689042667,-2.535338535355029,-0.720006435306582,-3.0100974499277067,-2.1193607327028294,-2.189057563395503,-0.7775469636432472,-1.2923886973289798,-0.596935523004929,-1.3912626459980604,-0.5431725619921078,-5.46153272075476
29,-6.111890083036911,-2.930195133674965,-3.369975989810702,-2.2254174838957455,-1.0650057802905144,-3.2933397851636057,-2.5659639227425264,-2.3818043489950584,0.09529366808201388,-1.245984203020682,-0.8137879991388094,-2.0756409775451656,-1.1681022590895747,-6.64461373734694
30,-5.6639736710871755,-2.6162252542817184,-3.3673069126504567,-1.7893261854053069,-1.4409697547942806,-3.327323806794763,-2.8670330349792015,-2.3985789700898716,0.946030290770372,-1.0787954312310604,-0.9347987057058144,-2.4385336681683123,-1.6222193806553347,-7.186973793007925
31,-4.763077052038565,-2.1957525706143093,-3.100138723247997,-1.2937703737957225,-1.8307183749111,-3.1284118003092174,-3.029063743824819,-2.2498980030340587,1.684611409124312,-0.8300455854715434,-0.9919882677055353,-2.510132756272102,-1.9304780289962138,-7.144217221342
32,-3.5755268682180916,-1.749375426352722,-2.666579918928854,-0.8047178826244479,-2.204249101524299,-2.7326014612297245,-3.0619643322912267,-1.958514608416652,2.235724861203115,-0.5446144026504636,-1.0233632984863692,-2.3612425622667765,-2.133859703505852,-6.624199495973601
33,-2.2858078410379843,-1.3478061122945257,-2.1735643431423095,-0.3789692625186007,-2.521679632991762,-2.189739804080596,-2.9746779431771597,-1.556088730872508,2.546837361193422,-0.26803373971471134,-1.0669219020686629,-2.08782962927162,-2.280660099060218,-5.769317800197235
34,-1.070157932252571,-1.042725824454717,-1.7181806652198794,-0.05708375908843425,-2.738067467149326,-1.5566065877677382,-2.772359535544655,-1.0793717452581788,2.5933450945291616,-0.04165093403964837,-1.1546014251674417,-1.792135045583167,-2.416869673574529,-4.735871727423679
35,-0.07244650692676927,-0.8604780270618708,-1.371266775861127,0.14139309856281665,-2.8094735108136777,-0.8898520899229387,-2.4556977189532154,-0.566452290229893,2.380278976318764,0.10160403903085902,-1.3069393188308613,-1.563527719315819,-2.577114929851773,-3.673259076486591
36,0.6141371729676369,-0.799472402327375,-1.1660466013436104,0.2197078173645493,-2.699473813126593,-0.23974367360601356,-2.0225151555047383,-0.05354599917038449,1.9404385472959202,0.14047336408944555,-1.5291768364403149,-1.4623030541502349,-2.777587305303193,-2.705722388407964
37,0.9569430449230183,-0.8317217172508558,-1.093803033026508,0.20236385361405504,-2.3852617172097736,0.3544894751351772,-1.4713018848027606,0.42733997452938316,1.3292908623220467,0.06737605723301826,-1.8093825666861143,-1.5091280868652293,-3.01210947460144,-1.9189316678083321
38,0.9839399054735396,-0.9083871882426363,-1.107421631120236,0.13040465168383752,-1.862522366088438,0.8671982990758866,-0.805917640235224,0.8497459128568454,0.6173997520825846,-0.11097964030431702,-2.118924869709822,-1.6818780795957988,-3.2520152745955198,-1.352942670690405
39,0.7742278962525491,-0.9686355458481994,-1.1322911097764794,0.054112005566363794,-1.1483937807259597,1.2865665471602716,-0.040416265302541686,1.1931971853282946,-0.11852538520384519,-0.37438386450883226,-2.415319731156153,-1.9203600239440322,-3.4499323797151864,-1.0021261176386194
40,0.4407125315095017,-0.9505938182372933,-1.0827371488891349,0.02412700964910551,-0.28203746882389447,1.6127482132630744,0.7971504466453398,1.443007703070968,-0.8047123816023872,-0.6912001450960367,-2.64717063032918,-2.1380848639836425,-3.546955913315673,-0.8216650116970533
41,0.10791606077170919,-0.8028071614830873,-0.8811260442101443,0.08228899079700168,0.6773946967430754,1.8543723885925634,1.6629796346997385,1.5898046048664216,-1.3783267826302008,-1.0215166416750399,-2.7606404937888698,-2.239054318967282,-3.482179111848567,-0.7393083206277457
42,-0.11132817729738262,-0.4944348367744047,-0.4761975313384292,0.25359900526610546,1.6553158413190372,2.0241220543824827,2.498535782741933,1.629119073946137,-1.7934016959850008,-1.3210881980918028,-2.7066860512031914,-2.136669911538344,-3.2031795907873546,-0.6703752051319881
43,-0.13639568194992926,-0.022511800438888157,0.14280486109562593,0.5406140924823124,2.568400601802061,2.1342008863327857,3.2345983595037424,1.5612848701368935,-2.0240867553653366,-1.5457377595947246,-2.44817009310806,-1.7714977345284306,-2.675901304565422,-0.5336215846602509
44,0.06680598430105303,0.5850286724354831,0.9390168930719425,0.921264064047947,3.3327670582785793,2.1924792703936977,3.798052476049775,1.3917141495880248,-2.0650689624846295,-1.655869198701241,-1.9659655829414082,-1.124798054381734,-1.8924478692982374,-0.26556496799109486
45,0.48005793785497214,1.2712697336371954,1.8295153768000365,1.3505917756484611,3.872772741941088,2.1999677051784157,4.120608681174784,1.1314226164722005,-1.9294775244292124,-1.620749394434097,-1.263277630838286,-0.22542278786752598,-0.8755978493185306,0.16878966091254904
46,1.0364864341510052,1.9571046380924038,2.695741376046231,1.7663250550741905,4.129430750762296,2.15003479964771,4.148230393605146,0.7975110272546146,-1.6449480741884177,-1.4222305864913158,-0.367615226359907,0.8512253005082389,0.3206859631084852,0.7702385152538231
47,1.6329496843791727,2.5520668979732157,3.401402715936109,2.097589870624996,4.067447486252674,2.029508720054037,3.849842945879117,0.41323114523170107,-1.2487191907594015,-1.0575927868109736,0.669888584696821,1.9921744757998971,1.6149292019490273,1.5052769864951514
48,2.1489834456643853,2.9676766610111356,3.8150989591204745,2.275566830811929,3.680005962297917,1.821512050588783,3.223935621078853,0.007297742250311317,-0.7826412629600702,-0.5411935251504124,1.7778179892368506,3.062505830219764,2.9056147216539574,2.311335980875141
49,2.469043750442815,3.1313268763433837,3.8339708057385877,2.244556897420669,2.990658623568363,1.5096128602778642,2.301936364839544,-0.3877538176997032,-0.2888170835969836,0.09536335422141436,2.870204574327247,3.925217110020922,4.081565142857274,3.1063063544201666
50,2.5042480372651843,2.9985757388222147,3.4043414373583154,1.9718097350250376,2.052024307121232,1.0826599499103535,1.1476866519227324,-0.7381557033648041,0.19368028472811163,0.8047647809833385,3.854128256534909,4.462216354531623,5.033987597617669,3.8007224906289725
51,2.2099123457551064,2.56188272778099,2.535661061005251,1.4545973493763988,0.9413617923738454,0.5395341720941574,-0.1471073038129968,-1.0121999529519197,0.6308847745398888,1.5273380599849327,4.63848232776748,4.593115901633461,5.66872967167034,4.310679472945289
52,1.595885051949061,1.8543006289394475,1.305041248310243,0.7233677926689599,-0.2465378537556116,-0.1069916306868801,-1.4710128664273114,-1.1837916992887274,0.994973133986309,2.1961397669254525,5.143074430861188,4.288809748213783,5.9172807251455,4.5695744286218885
53,0.7278599579556352,0.9473445477572665,-0.14888480358764977,-0.15966183133453682,-1.408389594614061,-0.828024484019078,-2.7036846619415154,-1.2357005012130504,1.2646253141574915,2.743476936866449,5.307181572742276,3.577604142023785,5.745209550382566,4.53706322065488
54,-0.28068647469306895,-0.05690209403462647,-1.6423535294976024,-1.1064893893734915,-2.442423868904139,-1.5785215599300273,-3.728103335771869,-1.161944558481504,1.4251489234980432,3.1082934772700663,5.096688059073326,2.542802530941647,5.157024995830063,4.204132819324916
55,-1.2847831317508907,-1.0385341604403895,-2.9710395509552603,-2.0132647242596624,-3.2583159052022928,-2.299758956677685,-4.442833121474475,-0.9688647974568454,1.4687388730206454,3.243614946953417,4.509010017996975,1.3119427574649578,4.196840481226066,3.5938073075081145
56,-2.130011709837446,-1.8757721188641885,-3.9393694728008226,-2.7729858059227213,-3.786009869273266,-2.924269622216282,-4.772921954294427,-0.6746708904504107,1.3950504974409574,3.123080794214604,3.575154537319949,0.039150738195888365,2.9446763901643864,2.757630411656914
57,-2.676922444087211,-2.4619331208430895,-4.390293155929212,-3.289339010807921,-3.98254407288973,-3.382868264674167,-4.678262268186712,-0.3075220158217385,1.2119957999644748,2.745556293014017,2.358482581237326,-1.1168720234773275,1.508707617073933,1.768614982819989
58,-2.8240253101909074,-2.7210192337265635,-4.231002807925908,-3.4898536924587535,-3.836197403474228,-3.613046460826003,-4.1585461029814415,0.09752320785514058,0.9364056180193365,2.136943154487201,0.9500443116189413,-2.0160160069760993,0.014218500888252696,0.7117629379593198
59,-2.525737362703041,-2.6196211099475426,-3.4505415151321928,-3.3365628185658314,-3.3675474177727622,-3.567744824927087,-3.2543288491763507,0.5021600784830142,0.5940272055477416,1.3486104046339256,-0.5392775126705354,-2.5576357638540905,-1.4095747206580735,-0.32649040394794665
60,-1.8023834512861419,-2.173269893408331,-2.126309255204165,-2.832621980044855,-2.627331547798218,-3.2233302613771455,-2.04410698986878,0.8685057566973007,0.21832363792804263,0.45232495108538356,-1.9891761165804334,-2.6959286306023307,-2.6433736386720494,-1.2684750905808728
61,-0.7405029602988462,-1.4460864526973611,-0.4180100424894032,-2.023816198345754,-1.6913110014218922,-2.585563499067446,-0.6376760073249719,1.1622790624850319,-0.1522606993703967,-0.4678852769036245,-3.281853300212388,-2.4473460392835666,-3.59070144199409,-2.0537901315772187
62,0.5168551403147478,-0.5434883711097354,1.4506236254313536,-0.9945295651264717,-0.6526294897027297,-1.6924672626596187,0.8336558419868325,1.35519049236216,-0.47853647886490636,-1.3259476113085082,-4.314144128356217,-1.888676063573294,-4.188268561052506,-2.6450334551535217
63,1.7886717475822314,0.4012973164795498,3.220196003445932,0.14150952613662707,0.38758731293881055,-0.6133117419735107,2.229170057926063,1.4264899790293615,-0.7258263100500884,-2.0446062335139694,-5.0083479315043595,-1.1457943108166173,-4.4124406114005135,-3.0300806209092594
64,2.8808190073185562,1.2452426067359639,4.630431314738241,1.2546648128654743,1.330454147388514,0.5565955626805211,3.412133435161978,1.3638390185407543,-0.8693561285900943,-2.5652618692986775,-5.320326720457017,-0.3744942920740975,-4.280880877220127,-3.2207278458248383
65,3.6137576275484045,1.8556520529658542,5.456656652405914,2.2153532293685254,2.089325629364436,1.705045414747061,4.263323550017274,1.1637968779303016,-0.8986665534081242,-2.8551769275854535,-5.243703791850041,0.26393370960594753,-3.849031282293912,-3.2480312000518796
66,3.8491192179043807,2.1296209215106416,5.542876925716219,2.910470692992525,2.5985223836789335,2.7151037475622926,4.6934418415477115,0.8322015356003348,-0.819971985042157,-2.9107980129556115,-4.809476984855052,0.628805846340739,-3.201778046544294,-3.1551369645883054
67,3.5113352093698467,2.0100061363595647,4.826670618462093,3.2580968238827253,2.8198386827050204,3.4789021465129193,4.653167661960719,0.38458981086834426,-0.6557281116723792,-2.7565757824980186,-4.080993666375019,0.6238748704621336,-2.441326427178747,-2.9887411929022267
68,2.6011439673285235,1.495495917161561,3.352159687247983,3.2184685222616825,2.7461000062424787,3.911242592985608,4.139700475447936,-0.15341574477671582,-0.4412235332422661,-2.439441045447941,-3.1449223203386096,0.21514234828929216,-1.6728775321354472,-2.79049462094229
69,1.1989291775962925,0.6431248057754891,1.2688816063900823,2.799670587762066,2.4013452658754626,3.9611000593770886,3.1988537216296065,-0.7460484454956334,-0.21865297704836661,-2.019874410951633,-2.0994835034794663,-0.5603011228006809,-0.9900647742984586,-2.5896638751629784
70,-0.54275713886121,-0.43739739330355326,-1.1837030137261693,2.0571738043094525,1.8375789398155802,3.6192877483578876,1.9221190369972934,-1.3481106805514653,-0.02969872100096184,-1.5611315698492847,-1.041657725538773,-1.5961012113827724,-0.46220339349132084,-2.3981775496796685
71,-2.4166595293237627,-1.5970327515803902,-3.7043654870591087,1.0871670109375062,1.1284325218392866,2.9210205694339826,0.4386110913317646,-1.906912198843617,0.09199507579761294,-1.1185341708841963,-0.05527973564132522,-2.7292789933491965,-0.12520732706239013,-2.2088520207861677
72,-4.186098412122324,-2.6668268936406125,-5.967468074055008,0.014469304918299146,0.3604439032070723,1.9428084077175942,-1.0976009900768255,-2.365735151486712,0.12700748682807866,-0.7307353156392529,0.7981904561762312,-3.7622282156737707,0.02245154481098218,-1.9971460693502017
73,-5.614843950690921,-3.4808677358305817,-7.664761910733823,-1.023443801761743,-0.37704137611120203,0.7939229763764066,-2.5236379422786053,-2.6688349127674074,0.07378236951221227,-0.414511804468997,1.4848545259774772,-4.49118397417813,0.018069895514287653,-1.7262833675648683
74,-6.497742982827749,-3.8996942883274617,-8.546176212494982,-1.8942148080225985,-1.002162185669476,-0.39652133202611684,-3.6857236496043706,-2.7676138648560333,-0.05098325706204438,-0.16398404380216053,1.9988244944173108,-4.737224642780727,-0.07251303943690808,-1.355065630707284
75,-6.688129782009531,-3.8308944616047573,-8.454182739333033,-2.4878170379272113,-1.4498017199210476,-1.4951820219697511,-4.456765224694409,-2.627242726229839,-0.21528492896309387,0.04565992493384982,2.3580387716321507,-4.375352613226402,-0.16668855142476088,-0.847246443218642
76,-6.118429124708169,-3.2439181216431554,-7.347068142801642,-2.7308864846010072,-1.6786987023027078,-2.380711115076876,-4.751373669888708,-2.232745987439616,-0.37754626103358496,0.2507000639506922,2.5963443682271965,-3.3573071299736075,-0.1796720019243416,-0.18101999733680676
77,-4.811198018776668,-2.176847019011215,-5.307827784131048,-2.596219827358225,-1.6755455700704078,-2.958417452052702,-4.536303829169289,-1.5934909912265935,-0.4941061439201453,0.4891380295655627,2.753383041687227,-1.7245054202063637,-0.039714046713067074,0.6429367980638159
78,-2.879050927931622,-0.733923349816232,-2.5372393469945016,-2.10613418574079,-1.4555824414036993,-3.1714405475926637,-3.834823339655473,-0.7451563822874705,-0.5271416804157536,0.790545009675593,2.864185354221482,0.39119131827318326,0.298416679510333,1.596308090424797
79,-0.5133237936533844,0.9260935907846986,0.6682561235419304,-1.3292264755427248,-1.0596464555133436,-3.0070195907695267,-2.724308005493293,0.25141746249633157,-0.4516767452007009,1.1674471065444039,2.950403668573261,2.779502595314867,0.8438050414754734,2.6219486806613848
80,2.037227598749536,2.6093729293773706,3.9512244233453644,-0.37098352349394303,-0.5481021286359916,-2.4971359821901657,-1.327281480826486,1.31464211352194,-0.2605153600345838,1.6099047403372684,3.0148010309744224,5.175326728740124,1.5651873023980274,3.6371907112829835
81,4.495118243591893,4.111745007778584,6.936137782006986,0.6404559391141302,0.007508684358389004,-1.713579468192154,0.20298096781674874,2.3495152901105163,0.033696155936732974,2.0843616331489483,3.0400157522570113,7.290992540822555,2.3929467909483986,4.541524281827072
82,6.58668201246388,5.24538921632875,9.275065232481142,1.5714208248217205,0.5339578750340455,-0.7582277624703738,1.7004271190087943,3.257087653115162,0.39959729210436007,2.537072542239394,2.991846134504222,8.852933376775969,3.2271534541125275,5.227866634418263
83,8.074441786688693,5.86378862330344,10.690314004338521,2.300354080028974,0.9656792883688884,0.2500640942280261,3.0054618566020386,3.9449439198905685,0.7912368266632149,2.9016054560669704,2.8264821306912276,9.637836703846927,3.950587084953752,5.596061334149709
84,8.785281325237214,5.881440821787197,11.008553429771423,2.7335767411185046,1.2527279021836337,1.1901783401776818,3.9829986384874725,4.337411106713467,1.1545281029498862,3.109198823774831,2.500395839622903,9.503317441828722,4.444937430551594,5.56684988533039
85,8.630934324496648,5.285517741211078,10.182052293657629,2.8170504605057185,1.3663236087634996,1.9531410825331394,4.537109091083758,4.384221343789363,1.4350236435587231,3.1002610013533207,1.9811155290537599,8.40887121518865,4.60789991159767,5.094394703232903
86,7.618294472895953,4.137800483581693,8.294346480479225,2.5426117984097,1.3013216927443128,2.45445020313032,4.620574269018044,4.066550317598555,1.5858195173318388,2.8351049068111576,1.2569288885459642,6.424176551735154,4.368747963454691,4.1755325767665195
87,5.848360623186135,2.5666088966066885,5.549701566286133,1.9479558174298137,1.0754094385108828,2.6429226809023443,4.2383747404138035,3.3996946799262733,1.5744163117232153,2.302138492266309,0.3437172722988165,3.7235356389997945,3.7001739163410163,2.854297073527035
88,3.5040861155073757,0.7498863831489238,2.247863599610081,1.1105391498639732,0.7253025045530275,2.5051865103930333,3.4449831480899995,2.432088791606726,1.3875632094489663,1.5221509303371943,-0.712413763374727,0.5671197203541204,2.6247122480057503,1.220829294185405
89,0.828800309373146,-1.108132897504293,-1.2524984324783404,0.1364189723849513,0.3006338253736946,2.065542682766981,2.3361162816849377,1.2408221413542218,1.0334527583567727,0.5479682451335914,-1.8373513243118214,-2.7285527272788244,1.2148106224549553,-0.595475053487406
90,-1.9019796419582047,-2.803349166710458,-4.576832411774979,-0.8542808861789457,-0.14347085690702352,1.3815084306147989,1.0362530232600375,-0.07576798528904474,0.5410506181835895,-0.540511994693436,-2.9358864024104916,-5.827078966664097,-0.41351827775492317,-2.4379639909125004
91,-4.4117817918652955,-4.157594823247917,-7.378658117106468,-1.743178252590517,-0.5539977134654862,0.5358474267676934,-0.3163474138636974,-1.407543194519386,-0.043238123657022655,-1.6451865891687973,-3.9024035817307854,-8.410905878859067,-2.1126750928647207,-4.138559395956552
92,-6.453637513961128,-5.040247488405676,-9.37889941374349,-2.4285291765739947,-0.8867378611713873,-0.37375873027195067,-1.5852209878341605,-2.6429857708199984,-0.6610136849813826,-2.6612234673059483,-4.6338327734134666,-10.217473789995148,-3.719569348567161,-5.535585737845319
93,-7.83619404581993,-5.382784062279551,-10.395827943684385,-2.837258156595221,-1.1111842342347935,-1.246068149647996,-2.650042285409884,-3.679490207775444,-1.248646959387728,-3.489513140396044,-5.043000164892344,-11.068370077463076,-5.073821056962215,-6.491487757184788
94,-8.442599828102349,-5.184490238439592,-10.36223490938693,-2.932666578403962,-1.2130783934463774,-1.9873351643845143,-3.4182050246100193,-4.432502885003233,-1.7444700120613912,-4.048371598291322,-5.070464830729323,-10.888108530444573,-6.035837322590323,-6.908322116799147
95,-8.240290040123986,-4.508859845024387,-9.328224030368064,-2.7170392194807835,-1.1944456124779321,-2.5208886628740044,-3.832559409304348,-4.842672514277382,-2.095520777975909,-4.282938896150332,-4.6931640028923365,-9.710556196948009,-6.502601287236905,-6.739164622301642
96,-7.280978540568163,-3.4715658656756476,-7.449929501417096,-2.229109542038354,-1.0713452430421966,-2.794325294518437,-3.874762945631991,-4.88043019304033,-2.2631046889598685,-4.171103667309034,-3.9286659089760594,-7.672622809461852,-6.419341737963241,-5.994053581549222
97,-5.691354112939549,-2.2220597161101296,-4.966243885114508,-1.5370424519438188,-0.8698903463151061,-2.783751636473424,-3.5642528966638483,-4.5477154750551065,-2.2266463889378443,-3.725324240166931,-2.834465828510972,-4.996400013359032,-5.785791816734899,-4.739731581491962
98,-3.656036770194312,-0.9216890056146873,-2.167059037097758,-0.7281555289274441,-0.6213105992812181,-2.494872874910705,-2.9533482417672468,-3.8768683291694384,-1.985553325177194,-2.990322365487889,-1.5024571975352712,-1.9622939336862075,-4.656418005583427,-3.09317825447086
99,-1.395151901270053,0.2783980173382217,0.6425962637728967,0.10304289726772206,-0.3569165724362745,-1.961066866225366,-2.1193796773125686,-2.926976651482842,-1.559059236245253,-2.0371930551770117,-0.04935498848146431,1.1233269473799863,-3.1347140446163237,-1.2096570523368957
100,0.8606558003963685,1.256415648173853,3.1778877224227577,0.8668065471508924,-0.10376342423153727,-1.2388664043670714,-1.15498685915408,-1.7781703627124277,-0.9842209130597868,-0.9549101576554091,1.3956546466600903,3.9619559825432815,-1.3623159290129898,0.7333655492611819
101,2.8948504668969925,1.933614004383986,5.204716366400692,1.4885330174570486,0.118375740553231,-0.40147702910001526,-0.15779571112350932,-0.5244688577563992,-0.3123783117253289,0.15954903329652229,2.7044804369325903,6.294269398651574,0.4957713246486219,2.554610559126426
102,4.526604892784494,2.280847329440342,6.562110773737139,1.9163505964378036,0.29839282896725383,0.46892549621515833,0.7793940236706242,0.7341744896397995,0.3955487861016348,1.2112003058329186,3.763295874889032,7.925497145144438,2.2681808056749686,4.0876335026171295
103,5.627226897296189,2.317553625582697,7.17437403694627,2.1251653640986348,0.43356084586596433,1.2893407121887208,1.576984413905088,1.900004556899933,1.0745427196837136,2.116051465909299,4.48385093362221,8.742309353311908,3.794591825428341,5.197677782911704
104,6.129980083012379,2.103798945892301,7.052310927662722,2.1169639758485457,0.5278481792945307,1.9837911224222426,2.1748662784277935,2.8851919792987815,1.661366346184963,2.808246342280874,4.811764521439769,8.719831998009717,4.941709792847763,5.794914241685639
105,6.0326746554309585,1.727015264492313,6.284248659069768,1.917687090601483,0.5893125375831618,2.490217695686584,2.536261036740567,3.618628732674281,2.1004423531180723,3.2448146259118356,4.731031732545463,7.918627289538428,5.616166118026921,5.842672440394251
106,5.3932210464692,1.2857454694673558,5.01875454761375,1.571417621041445,0.62716916134068,2.765886369686057,2.649038394414111,4.05132449269589,2.3493010325108012,3.4078110969080786,4.264422125729487,6.47262466390562,5.773025315680608,5.359841601146357
107,4.319089922186149,0.8730218822849307,3.4418250363464433,1.1329170681762253,0.6491289292037079,2.7909027465672858,2.524666206672344,4.160009288070301,2.3831192032666846,3.3039205511817706,3.469894877163889,4.569948341511595,5.419063572589721,4.417276757825343
108,2.9522377970873155,0.5619194953272016,1.751794786165777,0.6596663210690703,0.6595004803997645,2.569575604194976,2.195130985600521,3.94864405355594,2.197846757598384,2.961843563926788,2.4335724130737315,2.4292666725697694,4.610555886509188,3.12871861617613
109,1.4514748208131494,0.3953705560182268,0.13525491590428462,0.20452242109512292,0.6583691969088815,2.129522486107888,1.708293189717481,3.4476662767003203,1.8114384134543646,2.427944893176622,1.2601517737863053,0.274624796302999,3.4459144281061467,1.6373497188672665
110,-0.025577844577783733,0.38158107123548857,-1.253113505769716,-0.19009071389074256,0.641938290369288,1.5185769272635365,1.1222134414295954,2.7109550010202126,1.2628075830701655,1.7607345954967757,0.06185666890977521,-1.6883102838432973,2.054085627924893,0.09959272081534759
111,-1.3388876292503618,0.49546810102396466,-2.304625806254861,-0.4958445549510205,0.6038851521269212,0.7997405908238214,0.49901152791709585,1.8106879121141957,0.6083248955713696,1.0247737309516243,-1.0528732610948361,-3.2920434273999457,0.580069419743914,-1.331951472679414
112,-2.379052149375455,0.6855791122498363,-2.9634181046258083,-0.6997746871513638,0.5373929169878641,0.04461986444460255,-0.10119120965213672,0.8304761531913935,-0.08399932289834823,0.2845739818927522,-1.9897928461757897,-4.42119478778761,-0.8307813932244013,-2.5244659624094945
113,-3.075794736722095,0.885107925947627,-3.2259020942798027,-0.8032814149961126,0.4373982229160764,-0.6740249085296526,-0.6257363450235721,-0.14262213126926354,-0.7421204111044051,-0.400989368801297,-2.6773432686008554,-5.019539035687415,-2.047922533262515,-3.3779981194371356
114,-3.4013612869102365,1.0250179065786116,-3.1337468244150055,-0.8193092823466577,0.30257085189486416,-1.2898423994101278,-1.033856904727706,-1.0264278263128905,-1.2984460964123816,-0.9833042969547019,-3.072442263176932,-5.089977406529059,-2.968581544037554,-3.834269422752936
115,-3.368918862956481,1.0470154740453042,-2.762074872959812,-0.7683755199528969,0.13660964570595094,-1.7497214885842831,-1.2997188562297128,-1.7514207323392892,-1.698033848358563,-1.4273414133763689,-3.163090200001742,-4.6881100494997865,-3.5271487911513217,-3.8803842391712786
116,-3.0266381641417897,0.9142233427203594,-2.205034875241108,-0.6742099290396609,-0.051415321532070936,-2.0190828622484385,-1.413839541255425,-2.2670946707771016,-1.9052670358671706,-1.7134481340925516,-2.967649737919277,-3.91074925925109,-3.700054655382654,-3.547251619322637
117,-2.448579417717745,0.6178581545734568,-1.5610252973056131,-0.559724778567242,-0.24775258115186144,-2.084975176951255,-1.3827850442435126,-2.5461439218792568,-1.9079611721910752,-1.8375540357000837,-2.531006746453478,-2.881163269006218,-3.5057250847986863,-2.903175719640877
118,-1.7237520158685073,0.17893720282973186,-0.9196140653174601,-0.44387618137960577,-0.4355704781821082,-1.956579669833506,-1.2272090017439603,-2.5859910190866215,-1.718253169791762,-1.8098864909430867,-1.9181466685158826,-1.7330343394038525,-2.9997878316935362,-2.04362349871309
119,-0.9447761736370328,-0.35510542261073524,-0.3516998926110952,-0.33975230723371785,-0.5971822101276755,-1.6630645877112116,-0.9784727634857824,-2.40750441763713,-1.3701609183439682,-1.652445459392167,-1.2059486949464597,-0.5950587671147892,-2.266264458924629,-1.078579662766348
120,-0.19746284835895128,-0.9181708165687958,0.09619767010594873,-0.25397841340959215,-0.7165026495585635,-1.2490960163461209,-0.6742627871727109,-2.0511245610197126,-0.9142504401058446,-1.3956026440840132,-0.4741792611618638,0.42215470062341465,-1.4059587043382673,-0.1191131424535889
121,0.4476165261600711,-1.4362041590573231,0.4033357828609797,-0.1873068531456344,-0.781319057101398,-0.7686438404876924,-0.35376295561879084,-1.5709595360481512,-0.4103000825324315,-1.074258583748002,0.20326544667520988,1.2356629278620554,-0.5235757386713178,0.7352062857935663
122,0.9408354461886623,-1.839019557478429,0.5722934471496604,-0.13609261532607317,-0.7850105912946505,-0.27796189934573107,-0.05300870185904723,-1.027673693280602,0.08087620123518881,-0.7240046688609917,0.7658721506575794,1.7955458720511757,0.2847681631494717,1.4065846864880374
123,1.2561448100207244,-2.071285589429891,0.6236243876603045,-0.09425869179653729,-0.727465739805729,0.17127540329462765,0.198981421037604,-0.48113430749242597,0.5052269706821502,-0.3776956061087582,1.1719576782926349,2.085905341045051,0.9420830609002484,1.845874697736829
124,1.3906779013502575,-2.1009218018388336,0.5888771130293048,-0.05533438934867859,-0.6150922013548532,0.5377530591441523,0.38283515309202215,0.016219720759125873,0.8218076865293453,-0.06274928439362563,1.401510206850531,2.121891109605097,1.397838703941588,2.0354298253407577
125,1.3617274057797177,-1.923637807639269,0.5033143565941431,-0.014196144919945936,-0.4599586826077125,0.7944880633828661,0.4899650481142785,0.4244678124216576,1.0068917331736795,0.20062862637553153,1.4562336904523658,1.9435696710274517,1.6313263503494129,1.9878849821833533
126,1.2017677410848504,-1.5630186279643912,0.3995200477946444,0.03176057019619005,-0.27823000545605475,0.9305797776646761,0.5222022947661213,0.7192022484200007,1.0554479415128684,0.40022810595236974,1.3569738375861826,1.6077394109044187,1.6508671548916438,1.7413422351181629
127,0.9523623068857501,-1.0663072438673808,0.3027642536980576,0.08215803417098452,-0.08814367211123579,0.9506772570668193,0.4901286818456071,0.892213818130296,0.9799832604683911,0.5316805523504449,1.1390394618311241,1.178920885426147,1.4892840349411942,1.3518816114215964
