,AF3,F7,F3,FC5,T7,P7,O1,O2,P8,T8,FC6,F4,F8,AF4
0,-0.20261059986639177,-0.5780191474474577,-0.25109590360902556,-0.19032030761178817,-0.11628989647084953,0.13608998797699112,0.03692254671489781,-0.08366059244424619,0.09438484529114294,-0.34662398073973716,-0.3114076364328979,-0.10085642173845426,-0.5677569959370335,-0.24113733387156788
1,0.5171668065176311,1.1764290032128468,-0.3301705201384069,1.641302316125675,1.1167932129571596,2.0004939688481755,1.507074014108107,-0.40453032376956244,0.306074958563801,-0.8988061392207649,-0.10521710700571836,-2.3434251947752434,-1.6564919277156733,-1.1130459933552779
2,1.1895222510848502,2.8156440180245057,-0.42142920979218745,3.3446939158259847,2.259247738786306,3.7077308922632746,2.827785862919436,-0.6901257579736684,0.4860061391076935,-1.4047115513634194,0.118103056403759,-4.390556290370681,-2.5789032331342088,-1.8915040489568296
3,1.7682356697896318,4.218620061566331,-0.5287730116642865,4.794204785849383,3.2225541533487903,5.115545450307932,3.8682072737131707,-0.911383483831206,0.6410083676847558,-1.8131832238418013,0.3572613345659873,-6.057689271512384,-3.207524937801725,-2.5016451697386555
4,2.218677402318059,5.287174925729162,-0.6458470688255346,5.886918414893111,3.933626878608424,6.110942782302068,4.532601487838038,-1.0442242659656078,0.7838420187394988,-2.0800753229707687,0.6084907192173509,-7.195381502531135,-3.4507520953363007,-2.8844292905877373
5,2.520124576963004,5.953607235455344,-0.7558975750671384,6.550875780751785,4.340808135785314,6.620799796396302,4.770734570684371,-1.0721318516192537,0.930333551500956,-2.1736147948839744,0.8643420516646219,-7.7041588940870325,-3.265096220007658,-3.002503179446309
6,2.6661410272427095,6.185315394293878,-0.8339627805200174,6.750297660196645,4.418045999957176,6.617879578919874,4.581839248643804,-0.9881888482499253,1.0954925205921902,-2.0783110198613786,1.1131469332886437,-7.5443133666642845,-2.6609975860583255,-2.843793718893873
7,2.6631137682984036,5.986029666473637,-0.8511473330492549,6.48737147285927,4.166880724005584,6.121704429674998,4.01183321182387,-0.7963153045520466,1.2892435442851984,-1.7969263448116615,1.339328301803798,-6.739588662916911,-1.7014577661507622,-2.4224803306400666
8,2.5273183524419047,5.393659070021132,-0.780339046255459,5.80051933091378,3.616026001432077,5.194417201412563,3.14449905698051,-0.5115092337427137,1.51254744304174,-1.3503163421111413,1.524570249978816,-5.37436135126858,-0.4937700197680641,-1.777294959308688
9,2.2810983747842832,4.475093397493493,-0.6024210795481652,4.759423828554426,2.8185287495035447,3.9323867695229375,2.088223284155462,-0.15897302118290169,1.7546856371895985,-0.7752510966151991,1.649697750370206,-3.5846329081162542,0.8244163967251331,-0.967398569777157
10,1.9488554143810841,3.318593775202752,-0.3118702179508989,3.4574171078976006,1.8467134349467746,2.454799950833124,0.9604969614918991,0.22788106745807282,1.9923409365972227,-0.12059011980485061,1.69699335170872,-1.5438217159862715,2.1026988127603956,-0.06634470000343548
11,1.5535358133342254,2.0246251642727042,0.0793457373042488,2.0020965484708917,0.7853458122622006,0.8907655452053296,-0.1273961700814578,0.6104295738215127,2.190855281445088,0.5576341694878341,1.6526085614905845,0.5550934848618991,3.1967320935841044,0.845167942056375
12,1.114173632153262,0.6961105134062846,0.540443788179517,0.5051853346932086,-0.2763434417192211,-0.6334907627422409,-1.08326377925438,0.9485992961019167,2.307725344083362,1.2015880723591594,1.5087166464602286,2.519138186936373,3.985695364948271,1.6869525677499086
13,0.6448316647489628,-0.5708920576468026,1.0235700668656629,-0.9273077587048367,-1.2529856447888137,-2.0059275323766927,-1.8427653737796799,1.2050389623520352,2.2980558159613844,1.7568502373038797,1.2650968147083494,4.1745062147536744,4.386139139210551,2.386602624312723
14,0.1550169226511803,-1.6951693020726841,1.4686286227113652,-2.203655835071178,-2.070896683466229,-3.1374081518195442,-2.3731438467344073,1.3492665114452138,2.1213672826263092,2.176966264646213,0.9299264652895918,5.383289703988262,4.360534913802053,2.8856733446162965
15,-0.34861974901720716,-2.6162426626851887,1.8107053996451656,-3.2529172031048406,-2.6745734347571997,-3.9671989661974907,-2.671907971024,1.3613184953743258,1.7488867863862707,2.4270101997771882,0.5196717250686026,6.056048488076888,3.9196657190568955,3.1442573039666906
16,-0.8597159617616934,-3.2976640661000522,1.9891465803018646,-4.028843444017439,-3.0311746227075487,-4.465057258264715,-2.761265339877954,1.234443540355662,1.170272786479666,2.4859958815714456,0.058086766295078925,6.158989027655454,3.1188975418496003,3.1436590479755577
17,-1.369329898869351,-3.7275069627327966,1.9570239305738524,-4.51097173174503,-3.132516704070866,-4.630129718449843,-2.679722568395478,0.9764570248020796,0.3986817174812128,2.348126542153941,-0.425559821891772,5.715143287859092,2.0492158149320914,2.887103285332889
18,-1.8633984208775938,-3.916158894016838,1.6895718296893016,-4.703009780123986,-2.994400163082963,-4.487202158353398,-2.4725957272922043,0.6095067235282866,-0.5268003740327194,2.0229589376164134,-0.8988323911764374,4.799605637938072,0.8245713677513566,2.398608642226502
19,-2.321106744247299,-3.8918314792067465,1.1902393286146549,-4.628932844237622,-2.65339830337147,-4.081053077325548,-2.183179317399225,0.16817772094105735,-1.5420563270461833,1.5345845953696495,-1.328803607078445,3.5295250690644036,-0.4325347122995352,1.7203009018217226
20,-2.7146242556732503,-3.694470393720201,0.493263730950149,-4.327467649940493,-2.161548342099037,-3.4697625615282193,-1.8460328720829957,-0.3039305792267113,-2.562442384297501,0.9199123369440209,-1.684801580491243,2.0500930433228097,-1.6052271740984618,0.9085189254458975
21,-3.010458511288367,-3.3689368129603072,-0.33789109533451933,-3.845802825559224,-1.5796393195993517,-2.7178191255218707,-1.4833321156423618,-0.7588184435385449,-3.490670911094616,0.22610480258140508,-1.940992805479789,0.518160140988265,-2.5944189693764415,0.02909026355375155
22,-3.1724314228130206,-2.95841290764406,-1.2163315902167722,-3.2334132181496664,-0.9699542877500972,-1.8897652522257438,-1.1045986419694527,-1.1493791097808437,-4.227323787979141,-0.4927859347123282,-2.0786025703457294,-0.9146780290916743,-3.327640654532288,-0.8478606947370255
23,-3.166018600308235,-2.498937147086848,-2.0412593974475235,-2.5368059949318202,-0.38937051246341087,-1.044951774526003,-0.7094820741602791,-1.4347413169531837,-4.6827868154054855,-1.1798937968655705,-2.087612002045639,-2.117678382178739,-3.7638087171243884,-1.6532397347986
24,-2.9635487106453273,-2.0157978119983566,-2.7101426318596955,-1.7958004825549116,0.11635550109726435,-0.23376135113826618,-0.29272820150215106,-1.5849911389970155,-4.789066274547574,-1.7801316325708387,-1.9677983836993673,-2.9935743854508288,-3.8938295749842182,-2.324142192286365
25,-2.549569140095702,-1.5222259139959033,-3.1319981084925232,-1.0416745144816548,0.516479454709131,0.5045589110461692,0.14988960432719797,-1.584655448491094,-4.509822481416231,-2.244968204942872,-1.7290064090303763,-3.486937119106753,-3.737500545765732,-2.808561903711601
26,-1.9255778079298735,-1.0204737730507247,-3.239994953156497,-0.29719651821918686,0.7969689629343821,1.1425203389614074,0.616018289456066,-1.4344739200033947,-3.847077827553113,-2.5369240508881115,-1.3905647761528626,-3.587491039260861,-3.337597810770967,-3.0693770413794166
27,-1.113321202459829,-0.5049974563086929,-3.0015881101998874,0.4217336038072612,0.9599540329612093,1.6637028196800574,1.0927669567389129,-1.1512075253437422,-2.8434321119004897,-2.63324578976826,-0.9798091800623423,-3.3281933605007104,-2.7522863756282994,-3.087346326955345
28,-0.15597671498579904,0.03286386928553988,-2.42465464754602,1.1033471326186495,1.021173363570155,2.061097284331125,1.555212849003453,-0.7654984155637843,-1.5792029592453858,-2.528235777616044,-0.5297505936739068,-2.7784942459739552,-2.0470356009746675,-2.8628642868511904
29,0.8832324417526229,0.5995525956333314,-1.558606602539376,1.736829733552059,1.005911316460644,2.3348789410906194,1.9677499569772987,-0.318068415339008,-0.16462286587437153,-2.2338392291528426,-0.07603710644653029,-2.0337500616357453,-1.2870989358079217,-2.416264758760639
30,1.9251256071205514,1.1942506092251424,-0.49012101577863837,2.3094013146451866,0.9440854639491326,2.4900069837531147,2.28811318779103,0.14522270613193333,1.272038687880606,-1.7783144877735493,0.3465186363900173,-1.2021977152565249,-0.5313657551204076,-1.7865386636894756
31,2.8811352231320506,1.8050464098164825,0.6661381600672662,2.8042824192418663,0.865209107722683,2.533999573595802,2.4734112501752508,0.5787814314752044,2.598915790517477,-1.2030974556718845,0.707467388281567,-0.3911590370851493,0.17192618506964502,-1.0284446276696948
32,3.6617912675301203,2.4070572303838924,1.780739377437672,3.200018573427649,0.7939174096891447,2.4751573634469044,2.4871345277094807,0.9424166573605459,3.6955990924769573,-0.5582594922379016,0.9838705535896254,0.30580720092777464,0.7874617411703085,-0.2081300068971494
33,4.18625879485225,2.962969117418491,2.725025905438032,3.471405872502675,0.746623913084565,2.3214205574344517,2.3059293083949637,1.2055375201486744,4.466711760745718,0.10281619541484692,1.162644900675154,0.8192620203323457,1.2932442683960497,0.6024680734509614
34,4.391863384931309,3.4260988855160264,3.3870265985940047,3.5919925341229675,0.7296895169249455,2.0799537762486406,1.9249674881494863,1.3499052844866037,4.852127246007441,0.7288026119669595,1.2417694481869774,1.1105805193475313,1.6794821670459108,1.3320226510332858
35,4.242447569616219,3.745690676470867,3.6856985311529176,3.5378568346032195,0.7392648326197017,1.7574614148727665,1.3609719316268045,1.3706678878909428,4.832483081422346,1.2751281238108179,1.230159957620866,1.174326570375367,1.9464594348735833,1.916470586086088
36,3.7344419384279393,3.873787502683097,3.5816451489769543,3.292119919744594,0.7627356747894805,1.3611417040119762,0.6523320282968506,1.2756734887247758,4.4294102907173185,1.7074444761266543,1.1461863592756634,1.0362312065880925,2.10190887436621,2.3052863504988914
37,2.8997190933030548,3.7727213798656347,3.08287364489762,2.849479580278556,0.7814871126471974,0.900093047352057,-0.14380449994419087,1.083312797520359,3.700741826660246,2.003547079444741,1.0149860049513382,0.7472668565641166,2.158344254647491,2.4667179321261297
38,1.804620666028543,3.422097681294493,2.244766144528503,2.219977856342133,0.7745311439433276,0.3869014447169053,-0.9571201190562012,0.8193372933874612,2.7317187885062175,2.153717929258741,0.8648913306729534,0.3747950223209225,2.1306878577940935,2.3913778090879987
39,0.544976569405562,2.8241454529484664,1.1641654362281653,1.4312578085645975,0.7224394336413581,-0.1609228520012072,-1.7116588799184895,0.5132101540041124,1.6237369361033254,2.1597243396138652,0.7234217518766665,-0.007894656791653814,2.03438731136532,2.0937089661993995
40,-0.7625794993906981,2.006474292091707,-0.03177759765249423,0.5287239949944718,0.610998499266292,-0.7200129509291494,-2.334290132256654,0.1945538772659264,0.4823826797833855,2.0328866650151087,0.6133645495641021,-0.33218374075674884,1.8840809518738173,1.6110373933774473
41,-1.9922139768417637,1.0216026520620305,-1.2006798868394608,-0.4267170084778834,0.4340607179804589,-1.2610410093583226,-2.762978195837815,-0.10983109095405835,-0.5936108441252576,1.7916944970741426,0.5494751781601386,-0.543443122731079,1.6927670563546298,1.0001610505327208
42,-3.022217689888812,-0.0569372165530482,-2.2021073018869393,-1.363323859193793,0.19518992914782093,-1.7496793653362506,-2.953783846517597,-0.378063971482137,-1.521235504651362,1.4594067046869286,0.5362620335834394,-0.6078886157751195,1.4713727053630126,0.33169132102309695
43,-3.748558546967683,-1.141613252520372,-2.9147659500005605,-2.205215625189668,-0.092123870900042,-2.148726134533435,-2.8857284555695615,-0.5942808651281357,-2.2391805287260698,1.0619456983685776,0.5671912369300595,-0.5161788784047749,1.228604740427303,-0.3173676347662293
44,-4.097046220807743,-2.1402347447047534,-3.2515893708732144,-2.8803689091802163,-0.4057047514153958,-2.421319356987904,-2.5629707311729395,-0.7488042185237765,-2.7107216264747134,0.626234952600983,0.6254680487642893,-0.2834373282383813,0.9709885217004827,-0.872074530668611
45,-4.032566160505133,-2.966431903650049,-3.17084629762988,-3.328924259582755,-0.717209930985998,-2.5349752971249466,-2.0141245615560357,-0.837603219516527,-2.9237963006474486,0.17897703144449484,0.6863444133692045,0.054121006446649154,0.703042244978415,-1.268135950265494
46,-3.564119608857965,-3.549852406064711,-2.6818615147181455,-3.5106738972153155,-0.9955799432419202,-2.466011294557705,-1.2889241535092322,-0.8613429228282463,-2.8888345472647647,-0.25424012953310104,0.7206918063275135,0.4453233886266763,0.4275751098286646,-1.4596319685324883
47,-2.744869674355165,-3.844635813938447,-1.844583457592257,-3.410633117477779,-1.2109516834902427,-2.2037785771729985,-0.45276313823635217,-0.8243252361433664,-2.6350471679388825,-0.6496744521046681,0.6993920336248692,0.8319511549153255,0.14611987286240874,-1.4249270504226215
48,-1.6669891370278582,-3.8349356783484554,-0.7629703782137315,-3.041801906155796,-1.3385120210154489,-1.7540603749627002,0.42014585177971053,-0.7335651408755939,-2.2058624111956244,-0.9861620840893147,0.597964747688079,1.1572455922441414,-0.14049289079667623,-1.169965568713704
49,-0.45175786175609545,-3.536664608121393,0.4270853645485652,-2.4445797382473606,-1.3617865766204547,-1.1410066428497987,1.2541467142376246,-0.5981410251288005,-1.6540863642941124,-1.245965309834786,0.4007949777635369,1.3737939453327341,-0.4314352191838564,-0.7284166168014352
50,0.7640216695186836,-2.9951762761830634,1.573906935739242,-1.6827547055232295,-1.2749408642818802,-0.4070935908217337,1.979225780651657,-0.4288357552261935,-1.0371924270930184,-1.4157691959217151,0.10436018702699783,1.4497227337004237,-0.7251043894017082,-0.15848408236550812
51,1.8437210095272407,-2.2791850893018695,2.5283607225897264,-0.836475736497884,-1.0838052013900676,0.38918478804148543,2.537098545269595,-0.23797333020857755,-0.41296954835573774,-1.4877657347418745,-0.28102007805266416,1.3724156451487224,-1.0183409623433608,0.46340298747577613
52,2.666816894729389,-1.4717661791535313,3.162182293827739,0.006945333308931142,-0.8054999599752652,1.1778862315866512,2.8857699992783528,-0.03927914017611083,0.16438159198263905,-1.460674797389656,-0.7311977061368174,1.1493683764002416,-1.3057308761224924,1.0514065323484436
53,3.143109748089295,-0.6596922846112339,3.384095918335878,0.7632338507900835,-0.46671089335282023,1.8841071305582826,3.002260374519944,0.15243306978467278,0.6476940084327586,-1.340484266096071,-1.2100302171121025,0.8062300652303208,-1.579088324964408,1.5206425859829074
54,3.2234606627067097,0.07740897509877416,3.151758506014468,1.36102584029361,-0.10082460520342956,2.4357256427917173,2.883411767433312,0.32191087153830594,0.9998181221957451,-1.1406654045936762,-1.6728629469820413,0.38248737817320866,-1.827220439735833,1.7978823008960787
55,2.905680508455328,0.676583193224274,2.4780262859228093,1.750107037557869,0.25573548407629015,2.771498172537244,2.544891794374149,0.4545266807341851,1.196086607497348,-0.8816477096571192,-2.071284229282888,-0.0744428148653128,-2.0360718494680032,1.8312663974886971
56,2.234783929733224,1.098473462755477,1.430690519100355,1.9069144085888714,0.5675456870096082,2.8484896662674997,2.0186719472016694,0.5377123964648238,1.226121265942524,-0.5894219740900243,-2.3586218088711948,-0.5157745687411505,-2.1893281781022145,1.59775537694698
57,1.2975100525186685,1.3307423959839852,0.12558729241548452,1.8365650698685079,0.80412932377543,2.647855442678938,1.349374034316135,0.5625968306311117,1.0947783435183704,-0.2932695135623729,-2.495546368685687,-0.8976093228517539,-2.269516566477889,1.1072579749233233
58,0.2117279926301984,1.3876110582596355,-1.2862281916189784,1.571159139692596,0.9433704976911257,2.178181116228848,0.589943495241814,0.5255770833861954,0.8220198113118955,-0.022769413568444353,-2.4551087466399997,-1.1860477584433333,-2.2595811290047947,0.4027576441388673
59,-0.8880023793837755,1.305699405734028,-2.635830915229784,1.1646252611188062,0.9740136788557874,1.4758928626433458,-0.20288133979784534,0.4295048750186776,0.44155800711236676,0.1956106345133335,-2.2265720343343127,-1.3605461659305176,-2.1448405011769465,-0.4437518444989729
60,-1.8669419304238626,1.1368805079749498,-3.756315440450796,0.6848594185824245,0.8969676971195072,0.602617059059747,-0.9728806505289352,0.284183484635078,-0.001764300170359244,0.34190895780039937,-1.8175156925780163,-1.4152048455539303,-1.9151624361975186,-1.3391663332232704
61,-2.606699448813608,0.9392740728721,-4.502891402072677,0.20427636854092673,0.7252570802954693,-0.3602649490071083,-1.668115444870802,0.10595152730838277,-0.4557558381766752,0.405549631719558,-1.2538821382113987,-1.357995381835951,-1.56712453102523,-2.1801243898013647
62,-3.01969073095039,0.7677469349062718,-4.7707692310036025,-0.20990501754338234,0.48260346705535584,-1.3193064519821236,-2.2439348020728804,-0.08373529585768304,-0.8655792272324995,0.3872147903674999,-0.5778870490734215,-1.208224179471995,-1.1058784372732247,-2.8654945573956963
63,-3.0596824017584785,0.6653284139955669,-4.5086251818194745,-0.5043124710926749,0.20076571056848558,-2.1781385632280483,-2.6651513107728673,-0.2606458179708009,-1.1790112590537174,0.2993120100264047,0.1560118420615268,-0.9927488683828288,-0.5464072651321388,-3.3088987314482337
64,-2.727050738098975,0.6567834619901227,-3.7259131307776068,-0.6458581322338561,-0.08409221692520721,-2.8471424463012713,-2.9074177959347494,-0.40078774809711415,-1.351802687761544,0.1648163436637912,0.8866391140676226,-0.7415856479501012,0.08612466387655054,-3.4496040174083658
65,-2.068053927835618,0.7452407491302752,-2.4929976436361456,-0.625155394920007,-0.3356158654097041,-3.2526873116626347,-2.957910539527122,-0.48369851230331634,-1.3526163059831822,0.01450306416969601,1.5524767086951028,-0.483564284014167,0.7571698695900373,-3.26028235563833
66,-1.168199568342869,0.912297634561006,-0.9339436382172712,-0.4565567188897468,-0.5215832505144854,-3.3450185246221733,-2.81545112531523,-0.495526232086465,-1.1670048357595229,-0.11715479854928537,2.0981381859519157,-0.2426178211930274,1.424862463046467,-2.750536037210577
67,-0.14058915597542745,1.1214924448718417,0.7872880326840942,-0.17494551897171345,-0.6178273777068565,-3.1040006518050416,-2.4901838931797258,-0.4314009083602206,-0.7999314774782376,-0.19691503511090971,2.480175613245017,-0.03516150801207375,2.0432904750988463,-1.965674154732849
68,0.889175565922077,1.3245303195772549,2.4856393253369355,0.170128967534668,-0.6112741956428623,-2.542099045413862,-2.0028804731797245,-0.296666973771601,-0.2764409088484656,-0.1978413411528243,2.6715291492169775,0.13115540529481123,2.566705629066257,-0.9809153651910909
69,1.7994442597010842,1.4692510069840936,3.9764788786955707,0.52203399500142,-0.5016972401867431,-1.7042114436306541,-1.3838855194918156,-0.10669745632017096,0.35974884728506146,-0.1037705092820642,2.6640902950764707,0.25723302952025484,2.9541993287316206,0.10812826624920993
70,2.488046989823712,1.5080960650691595,5.0971932355877545,0.8252152588613046,-0.3019307656959219,-0.664234786029858,-0.6716703525300575,0.11478317230699492,1.0497577245287886,0.08754503292080973,2.46908093483674,0.35094642933278114,3.1742332168896747,1.1972833857492868
71,2.8847578935849807,1.4058024038891654,5.726145725691791,1.0327789359480186,-0.036465291423089255,0.4814361221602695,0.08905802719813727,0.33870696721932886,1.724953131334878,0.3631847899382919,2.115226896165357,0.42451007551231185,3.2083741151741965,2.1862422853686234
72,2.9590157160921895,1.1452185523840894,5.796626757804582,1.112483543894935,0.2614476688230269,1.6229564484484327,0.8497272339847048,0.5346182872512849,2.3138200978177306,0.6960108717647079,1.6449906144481146,0.4912353360951365,3.053662898129796,2.9898308851753432
73,2.7219453383167793,0.7304714577123881,5.3040707028544,1.050419643054405,0.5538565023140016,2.647803187791965,1.5607297636912567,0.6750198950247739,2.7496369457057313,1.0478080196961603,1.1093782677073027,0.5622351839266554,2.723230025371898,3.5466173388592526
74,2.2225852481428383,0.18713659647652237,4.305701471676325,0.8520273662767847,0.8028422830304524,3.4522108678728545,2.1746122929793814,0.7394559576908318,2.9781219252687734,1.3742422508882446,0.5620078740479967,0.6436489551437321,2.2450175762099507,3.8238450538202815
75,1.539082112867395,-0.4404968875607003,2.91276019520362,0.5404921546291294,0.9753153842669388,3.952069345186367,2.6494290550737967,0.71768094672366,2.964107984293412,1.6309388351844862,0.05318428978877005,0.7348828938130483,1.6587314846404317,3.818291839582282
76,0.7663272484172421,-1.094591262398014,1.2764225328620102,0.15290817160891398,1.047229825756366,4.092064455343209,2.951978685598493,0.6113707298315375,2.6963051587916977,1.779742493445049,-0.37533179598958544,0.8281934039368883,1.0113881032040055,3.553294257417796
77,0.0019756786139610806,-1.7106008452335901,-0.4306963588827422,-0.2651372961050113,1.0066229526891395,3.8519701211227204,3.0605893123417953,0.4340356277997098,2.189355789179964,1.7941298311925318,-0.6943276604581596,0.9097059560806029,0.3520077502195178,3.0727285527635733
78,-0.6670514953010253,-2.2248775271819,-2.0350220705841577,-0.6657511074016491,0.8550363540203015,3.2492776548304376,2.9671122444449276,0.20907057612924876,1.4826900225091677,1.6628328319769554,-0.8895852899846485,0.9617077014641117,-0.27387346437032994,2.433129514617839
79,-1.1756367578838887,-2.5820966529495144,-3.3818562369078973,-1.0048480173350762,0.6071030841255926,2.337752100813289,2.67784106764867,-0.033814279030371444,0.6361303224991371,1.391010398934305,-0.9626434098747504,0.9658260767574895,-0.8291628359964689,1.6953107353081656
80,-1.4876030292537454,-2.741632350866862,-4.352087065216597,-1.2474162247740352,0.2883639000504655,1.201989131788226,2.213187712215009,-0.26324947528119724,-0.27728466113272154,0.9987388195399517,-0.9299126156372056,0.9065506934883838,-1.2889746230578614,0.9168086559617573
81,-1.5980668515039862,-2.6821734278822236,-4.873781484162591,-1.3713206032919825,-0.06834630302862883,-0.05145481611199928,1.6061017688141548,-0.4512001765478534,-1.180283302739785,0.5171048363850382,-0.8203011326748729,0.774495060239501,-1.6426606775547365,0.146222640782374
82,-1.5309244298083426,-2.4041005930681716,-4.927419315239753,-1.3692542029752268,-0.42737303892657635,-1.3053425675941523,0.8993836544754571,-0.5774559372316299,-2.0008071113102774,-0.01732755344122895,-0.6715942743711891,0.5688326253173228,-1.8937816567699268,-0.5798908869854438
83,-1.3321470798343327,-1.9294192044849963,-4.544437928660757,-1.2487067751471255,-0.7548743825961637,-2.4441081065174717,0.1421835896980137,-0.6328269278889116,-2.680429130514474,-0.5685484234705237,-0.5258977590917793,0.29846882760287147,-2.0579672153024346,-1.2374166350716804
84,-1.0601929061315978,-1.2993297939804094,-3.7996775311710116,-1.03007836632116,-1.0228912994235406,-3.365795210102313,-0.6139286853529312,-0.6204533529325061,-3.1803754778856828,-1.106358764579075,-0.4245126311394582,-0.018291494361909483,-2.1589190958106217,-1.8127194288005946
85,-0.7752394160956977,-0.5697872112332945,-2.7991124262101095,-0.7432949695000505,-1.2122448550531735,-3.9921549029550234,-1.3189074690631202,-0.5549440091910758,-3.484161535566545,-1.6096938879825855,-0.4026602698909135,-0.3555808792210229,-2.22310249413691,-2.2990794172490814
86,-0.5290446717762234,0.19438539223382956,-1.664807827055516,-0.42345428771161436,-1.3138647073150806,-4.275733739619764,-1.9278036377892902,-0.4594319840918997,-3.596437198924837,-2.0672260987243853,-0.4845193854506241,-0.6830605295754831,-2.2739008250176993,-2.692518116368536
87,-0.3570437967175611,0.9261251599554904,-0.519284548976215,-0.10612341277665541,-1.3284384058604746,-4.203211180218976,-2.403665506318616,-0.3610078513242072,-3.5383221554752735,-2.4750353787342396,-0.679068054856636,-0.9698003713496711,-2.3261355468786458,-2.9880438691852533
88,-0.27383042497301524,1.5627537834656873,0.5286121871095295,0.17708166947349316,-1.2645729977731541,-3.794769256989668,-2.7195830359217243,-0.2852978070962974,-3.340177061814727,-2.8318109494829624,-0.977231349905961,-1.188339740185552,-2.3818504591266074,-3.177179112328176
89,-0.272550716050659,2.0518968739552528,1.3946231376264289,0.4020788507255439,-1.1359228440476845,-3.099816431903662,-2.859814357927591,-0.25113852709488965,-3.0332710753139307,-3.132679538958154,-1.3508036580524174,-1.3182822865369481,-2.4281261036595496,-3.2473121821039705
90,-0.32806568941240777,2.3561209228067073,2.0256427187519983,0.5546509581964221,-0.9579107809057733,-2.1898558713153045,-2.820044319487982,-0.2663242039583819,-2.642063350401744,-3.3632072966126105,-1.7535293423089608,-1.3488564709789832,-2.437442498012767,-3.183018205459398
91,-0.403129438446522,2.455887761472405,2.401528277155452,0.6312988780618527,-0.7447206630943444,-1.1496173594283623,-2.606906904130493,-0.3252537834204084,-2.178751323599883,-3.4952787297740273,-2.124572227679535,-1.2800544733235897,-2.370776198036131,-2.969096423801354
92,-0.45637863920840244,2.35063331718177,2.5324419150202995,0.638598388275439,-0.5071585161850752,-0.06771712442495019,-2.2369481716049333,-0.4090073540597078,-1.6413461928267339,-3.4863548769740573,-2.3943739189505604,-1.1222113304621337,-2.1832338521761927,-2.594739513998401
93,-0.4506924900504645,2.05798814422872,2.4526212865708454,0.5912438381300303,-0.25178380108169085,0.971944052072849,-1.7352117062658372,-0.487977159768464,-1.0158761958957672,-3.2830594275971268,-2.4925972635828963,-0.8941518277243166,-1.8316298628575667,-2.05802798334737
94,-0.36048577612782545,1.6113462839917863,2.2118993669066596,0.5091312575118998,0.018559208453986765,1.8970698113526243,-1.133599646750595,-0.5267385432967505,-0.2825092609785098,-2.8292174989923105,-2.35750236031325,-0.6202638315043421,-1.2830630670963084,-1.3698558112571495
95,-0.17673075935172408,1.0561345683695054,1.8664839704897422,0.41394813399762315,0.3029745633848672,2.6515387041507954,-0.4691113370746425,-0.49044527155237116,0.5754197918910522,-2.0775228426367045,-1.9457610378550934,-0.3270139448753101,-0.5232944113052151,-0.5564527200726632
96,0.0910759777349761,0.44522290762531713,1.470450758920111,0.32578103199886677,0.5999391852640902,3.1974808875036307,0.2179950099604394,-0.35174125635474285,1.561144408760807,-1.0031123058486726,-1.2414499411791826,-0.0394830290574146,0.4363759950858652,0.34013250231909303
97,0.4162480572688065,-0.1660547765187696,1.069122816913883,0.2602202358337525,0.9045273288994296,3.5150976587748994,0.886117999282825,-0.09704605582433937,2.6550093992418944,0.3833446277427462,-0.262841240835181,0.2215383879946831,1.5549586310903691,1.2639105221849471
98,0.7592274621835099,-0.7248207046641119,0.6950663865274899,0.2263401264503725,1.2061111534415991,3.600783283760119,1.494328638278508,0.26888245880486994,3.8079046876941938,2.025732754250562,0.9343137421990184,0.4414799844868133,2.7613183550604408,2.149136789431147
99,1.0740737015892334,-1.185122729057094,0.36691264175279314,0.2257840905555317,1.4871532820948756,3.464289655010523,2.004499881857236,0.7209832508842263,4.939351967385511,3.8182774571898097,2.2580156221211296,0.6127205553257622,3.957957323887286,2.9263697352534446
100,1.3159684166885817,-1.5116364712802233,0.09071492346719737,0.2530097879502603,1.7235256500391811,3.1256859331814626,2.3835243368290033,1.215033810971727,5.941359019512041,5.608892560560888,3.586264330003338,0.7341075570615807,5.029039569048542,3.5296522564008708
101,1.4484446868810728,-1.6823622630924464,-0.13684378524036303,0.29658279126877085,1.886514590813079,2.612714108859105,2.605530989489903,1.6919492305474944,6.688259052495359,7.210864037476525,4.778159401708648,0.809468417258589,5.852061492673909,3.9038659072134947
102,1.4491431570730668,-1.6901507380921648,-0.3243044619806491,0.34126969418359054,1.9463531251737562,1.9588725992417975,2.653943201247958,2.084807747389543,7.051730220824679,8.422283221650595,5.688954607625693,0.8454827062289472,6.312001689208619,4.011255109871246
103,1.3131969451298662,-1.5429531389784772,-0.4812887941019612,0.3705946807520987,1.8768159908108433,1.2022473308467596,2.5231701232569193,2.327739037208806,6.919206681825718,9.051231105151519,6.187479526594097,0.849384860604106,6.3163267672953065,3.8362268577225724
104,1.0537916063460082,-1.2627553406299663,-0.6151521869090819,0.36949314815182316,1.6601760352958375,0.3848349026637049,2.219710253704548,2.3654939986053143,6.213122025543751,8.943501579386487,6.173817706774788,0.8269822534298578,5.8089579825364055,3.3877790580376437
105,0.6999439351442599,-0.8832356780231265,-0.7289502908419602,0.32671568772821924,1.2916945835222857,-0.448066805698243,1.762472855100748,2.162360615516554,4.90801989976025,8.008867094747973,5.594870894270604,0.7813964124828879,4.7812620485558925,2.699246127693975
106,0.29199827286916796,-0.446296885315198,-0.8209061754440204,0.23669122334685938,0.782827846650519,-1.2488522884261026,1.1821808881876714,1.709120421013847,3.0426192962898737,6.2417020613021,4.455500686613484,0.7127765806045833,3.2783396655168917,1.8254084816197849
107,-0.1243257869222007,0.002244851087504552,-0.8852526661335519,0.10063523913570797,0.16247822265825312,-1.9693267056259995,0.5197931352129965,1.0269465601747776,0.7244474872970407,3.7322567484562637,2.8233380877372127,0.6190227870305185,1.3993427135921213,0.8373353684439376
108,-0.5043307894452372,0.4174004198558701,-0.9140843394866597,-0.0732222390678275,-0.5241186673739658,-2.5632793633557545,-0.17603884135124523,0.16749931468305035,-1.8744183681018804,0.6659761226971564,0.8260572038078352,0.4973313376087865,-0.7087792963239521,-0.1844206354192032
109,-0.8101886682227849,0.7596699614220056,-0.8997166037143215,-0.2703202283732138,-1.218943131398584,-2.9897947596376744,-0.8523852230399033,-0.7910611338887868,-4.530766680391787,-2.690159248005853,-1.3591526351128023,0.34618594447249684,-2.863888782816589,-1.157503648013974
110,-1.0154104817233773,0.9990872743851276,-0.8370211270489141,-0.47129856621928606,-1.8568851999342049,-3.216957793930166,-1.4561475449523136,-1.751898239278465,-6.991802558213474,-6.01344976516917,-3.5231251883713943,0.16730480695552918,-4.866549432435511,-2.005478336548078
111,-1.1073963842573424,1.118151485392513,-0.7252740641844206,-0.6542233522704204,-2.372953747384067,-3.225452759351958,-1.938593109466504,-2.610377237010437,-9.002606039983622,-8.960791462712585,-5.447442917718366,-0.03295539068086027,-6.521327003253738,-2.6648038045516693
112,-1.0878674546882143,1.1132707102790627,-0.5691884701441287,-0.7972678514244013,-2.7101091610866055,-3.011492811521079,-2.2599406450536415,-3.266736941969987,-10.336298476339577,-11.20926854881461,-6.929675831267745,-0.24313773911996042,-7.659029931699888,-3.09037933849243
113,-0.9713191468820161,0.9945267254149,-0.37897093665542864,-0.881539755225405,-2.8266808258948566,-2.588551586980358,-2.393527769499749,-3.6389435839493176,-10.823114883103663,-12.496766245350921,-7.807933735714601,-0.4473718958570406,-8.157106435405456,-3.2591549686357633
114,-0.7819125137110903,0.7837963975423607,-0.16941456635905658,-0.8936982143502392,-2.7023242335872997,-1.987488883472271,-2.3290329531525162,-3.6739632219799234,-10.374441879211314,-12.657016688075046,-7.981438258443349,-0.6271673100046024,-7.955467291113375,-3.1715030054421645
115,-0.5493992185454752,0.511499440076301,0.041805132537101254,-0.827996320723134,-2.341614273444358,-1.2548473649565317,-2.074239784876486,-3.3557871567045505,-8.99826526834863,-11.643964981228304,-7.424205673606159,-0.7640215813872389,-7.065448847090229,-2.850266683368584
116,-0.30474756920405327,0.21244085695967643,0.236343532007502,-0.6874308836694991,-1.7746512603866578,-0.4493256442589524,-1.65494408033775,-2.7089076134193713,-6.8033816765615125,-9.54160528015039,-6.189764983266602,-0.8423611097823351,-5.570438446556545,-2.3376300804045043
117,-0.07610348778133111,-0.07865685230458912,0.3975480110355693,-0.4837836480559317,-1.0544452522450203,0.3633181871998346,-1.1128159845165095,-1.7965370465366692,-3.9910950425234644,-6.557345035046634,-4.406011161777203,-0.852242515067731,-3.617756682425478,-1.6901771811410924
118,0.11440005328601213,-0.33130554088213127,0.5125909707903199,-0.23648491376204767,-0.2512924520264822,1.116439068859227,-0.5013127843494877,-0.7136131495073847,-0.8347871222279034,-2.9992465982102012,-2.2606443082388337,-0.7912779771354762,-1.4025767264218791,-0.9727042639217426
119,0.25264889904536647,-0.522532469010775,0.5740439986582275,0.02959856289003785,0.5552009568641477,1.7490678443933205,0.11995646400731413,0.42458480212304456,2.3505063956104384,0.7601743076963852,0.02102794419384282,-0.6653972531085204,0.8542156252945657,-0.2514891946288749
120,0.33323207929411547,-0.6388977065198576,0.580658087903854,0.2871796062117479,1.285428327112724,2.212073592936801,0.6917477544909991,1.4966969896204876,5.24483363156232,4.328908459609881,2.203047328539458,-0.4882878400967187,2.931429739483405,0.4122223511086376
121,0.3588611602417986,-0.6770762840571878,0.5372456308599907,0.5099591718674774,1.869182757747764,2.4731439033119544,1.1617446304368313,2.390443584933802,7.561601510987378,7.343127765579431,4.06694335055804,-0.27960826852677106,4.63294817929616,0.9677954510850717
122,0.33874875521216374,-0.6430681691122987,0.4537074131706175,0.6759368420746168,2.2538655342695404,2.5199307046065478,1.490294361005011,3.0165444006200137,9.082173157271123,9.51104629325226,5.437289493714578,-0.06229138728812917,5.8097460254116715,1.3792711144453123
123,0.2862962967546624,-0.5502995271232151,0.34338971427726583,0.7701359755480053,2.410378603600729,2.360940539963476,1.654549861126791,3.3194305571232547,9.68190780646911,10.646927158841317,6.201278369494727,0.1405977984220227,6.375683400247703,1.6275602831009874
124,0.21651029317053488,-0.41701004130342717,0.22106695766252754,0.7863452086103746,2.33591257140756,2.024047308867574,1.6504742511398642,3.2832632148071013,9.343872252925765,10.690604758341872,6.31978320413866,0.308932158510892,6.315090028252196,1.7106727865894442
125,0.14356865335756985,-0.2633708950008094,0.1008995659713489,0.727634843793519,2.053299922767966,1.5528266628886782,1.4924704715512238,2.9324863872689315,8.158204725187344,9.710021111714767,5.82861094320904,0.4280431996118207,5.681333819361656,1.642145778284702
126,0.07889385218666556,-0.10875506465217848,-0.00529965861078249,0.6055996080005452,1.6071056925941114,1.001202873704876,1.2107335740796112,2.3269655437023467,6.30724669710214,7.88679138380865,4.83007033812036,0.49033145305217013,4.5868370703564425,1.4480407740537022
127,0.029968932680649256,0.030495196674312983,-0.0892408196843727,0.43847327392745034,1.0570911385968749,0.4271143629775186,0.8467375978119427,1.5525658945646168,4.0387226182874905,5.487310567275858,3.4763552417626475,0.49576977224699426,3.1861751973285624,1.1629980484571083
