,AF3,F7,F3,FC5,T7,P7,O1,O2,P8,T8,FC6,F4,F8,AF4
0,-0.10563682566037784,-0.20221677182882247,0.025028987442412675,0.2706143377592841,-0.19834567816967655,-0.046995039214938236,0.1929823114041383,-0.02417754020956358,-0.21185016311551616,-0.18039054658330397,-0.2308682936496045,-0.3169746599661746,-0.007250286408228798,-0.4070211624307208
1,-1.4881360460228974,-0.7587539827982175,-1.6695062886760308,-0.640920744449951,-0.018595732772693146,-0.4696067177435431,-2.5758334841360013,-0.6038772641051156,2.290679420496442,1.308623503723659,0.7489228092138279,-1.4245597318370098,1.8016686527782844,-0.9316397559492876
2,-2.649780985960048,-1.2266893254072617,-3.1493354412696486,-1.4658278386882568,0.13233824739599212,-0.9126077415258166,-5.115811831808776,-1.1999429710816445,4.40588111360713,2.57363275166253,1.59557639706448,-2.391964775368384,3.4250570758317482,-1.3735316204970078
3,-3.4516429941057805,-1.5889905185574247,-4.260032114383049,-2.1334818883483195,0.23601986399082117,-1.330730223259726,-7.174552811258183,-1.788972303435429,5.867869246519209,3.439441956001823,2.17425063435423,-3.1394288318446826,4.675072538817894,-1.717298948923031
4,-3.8011362756065084,-1.8387631616436124,-4.890659155902185,-2.5916224283712315,0.28328196492137514,-1.6776775648789461,-8.55168415044435,-2.336252669333362,6.504974193147873,3.7859226379935667,2.390182773262073,-3.6088361752500977,5.407821387634971,-1.9552714955528612
5,-3.6621096732894913,-1.9771530333325062,-4.9852928685916496,-2.810660072141656,0.27505221024781645,-1.9131136320192164,-9.121088439795997,-2.7970665146371223,6.2595427917161315,3.563755488483236,2.2029075234640505,-3.7679294690079024,5.541832542875609,-2.085243165295978
6,-3.057973264316782,-2.01081491519743,-4.548189355249738,-2.78535915830742,0.22169191892627815,-2.0085135212311815,-8.8441161592024,-3.120784738799759,5.192088077862228,2.8009257240381995,1.6327016028916173,-3.612028103856752,5.068674919324535,-2.1081799543784303
7,-2.0676221918048436,-1.9494796412789404,-3.642089347148636,-2.533879600849743,0.14094821252874107,-1.9510013882105506,-7.772252453938265,-3.2573447177111214,3.4695643404078376,1.5990579360129697,0.7582629021127117,-3.1632583335736304,4.0542301575818165,-2.026428499929389
8,-0.8148004852849585,-1.804049266203134,-2.3799484059712044,-2.0944722355137517,0.054786449223610756,-1.7447098122222178,-6.039083241158613,-3.165205601445794,1.339703786988691,0.1199730794161342,-0.29412526598436983,-2.467525550672509,2.6303462377067057,-1.8428070426807388
9,0.5476741354230128,-1.5854714804845926,-0.9111256255299408,-1.5203582886405929,-0.014476611575818948,-1.409657859421187,-3.8427940773043545,-2.8195070879627004,-0.9047748431939555,-1.4358532113589833,-1.3684677858013816,-1.5896296483187313,0.9778786089694932,-1.5607382995634307
10,1.8568226167792192,-1.304431223151976,0.59632014861671,-0.8734623362743887,-0.04819511454092422,-0.9785677651464524,-1.4216364698286996,-2.219000206195898,-2.9669543713271507,-2.8561288517094354,-2.301458804307987,-0.6070347208840258,-0.6966973976051107,-1.18532641070619
11,2.9592294876932503,-0.9717002307546401,1.9751567335704792,-0.2177119014935805,-0.034959997670544966,-0.4923416511791207,0.9743592357765882,-1.3904050991486765,-4.585790046732378,-3.9452976678195504,-2.9462133522223586,0.3971398076282752,-2.188013299608458,-0.7250434166656217
12,3.729211393333016,-0.5988495199790269,3.0780698283208543,0.38741336526460995,0.02688921815634222,0.004952438849421142,3.111773343972402,-0.3891768483718066,-5.569979141042753,-4.550921542347418,-3.193903447399719,1.3413215547913493,-3.3182902320461594,-0.1935332842091758
13,4.083282163815474,-0.19898388060462585,3.794119046816895,0.8924790762670253,0.12829072833000657,0.47079425592137664,4.798779821034132,0.7038205885878329,-5.821139832112888,-4.584256322446523,-2.9901489392704033,2.152299189896154,-3.960003092375224,0.38899600576022947
14,3.98922385020279,0.21279636537089158,4.060656567712386,1.262347319482801,0.2502995678536037,0.868047461785843,5.903830357019769,1.7896038790348574,-5.343410547229585,-4.0321673674061325,-2.3437644549498815,2.771087823875862,-4.0516764486829695,0.9952336927457754
15,3.4687197471248505,0.6193865039430704,3.8693220786407756,1.478725647395125,0.3667372774311207,1.1676413838098767,6.366125357388038,2.7615619631854647,-4.238545584107485,-2.9587361011678666,-1.3265766498704508,3.157339467620179,-3.604731538746723,1.5913392989065396
16,2.5932823701493297,1.0021586754575875,3.265419491727077,1.5408183235346022,0.4483486089669332,1.3501209638222447,6.197136723739237,3.517855921832223,-2.6876263200107156,-1.4963574450298744,-0.0643247697304353,3.291897852138432,-2.700566884418412,2.1386611686077375
17,1.4740389571922794,1.3418427010314113,2.3407807814477084,1.4640657483193302,0.46788495920187884,1.4063014184482299,5.473645648945096,3.974085366393943,-0.9223469225179151,0.17239378239257644,1.2800597350304705,3.1772642582270705,-1.4784168931254535,2.596422991226449
18,0.24672548931929497,1.6196394476329499,1.221039201523378,1.277153399876453,0.4053294979816582,1.3373382906249192,4.323804953579919,4.074469060760656,0.8097719624825961,1.8395537260575452,2.5284234480419845,2.8359631242418666,-0.11578825629311504,2.9250490191922123
19,-0.9461155621602004,1.8183923843628762,0.0489639155648892,1.0176663858987685,0.252388204839477,1.1544511889061833,2.9084933054161435,3.799930283614303,2.2811144334813953,3.2997160991582635,3.5115246132148696,2.307047936864894,1.1957585467069238,3.0897329228199224
20,-1.973338640760826,1.9236971861790921,-1.033954492305761,0.7269339646529529,0.015421256366428538,0.8783641580788938,1.4006140210907367,3.1718548234220276,3.3154644870965853,4.377208362270635,4.0919821305181925,1.6412290061852777,2.2761644168656687,3.0638740836833334
21,-2.731327487871568,1.92491354907989,-1.9052245195646798,0.4447172035103375,-0.2838164210830535,0.5383264589719114,-0.03501706848792005,2.250850922078098,3.810764614887905,4.94871479753904,4.182907555105285,0.8952874394992872,2.980366919359107,2.8320787186311933
22,-3.1558657652547053,1.8161160847609028,-2.4760244413373487,0.20441508386913798,-0.6099403105743755,0.1704424733601211,-1.2589083024852454,1.130509850366911,3.7499763390416336,4.958258971940475,3.759733811476269,0.1265207616445407,3.2167153651346148,2.3925092821485774
23,-3.228172224868656,1.5970466683970264,-2.7008988196134003,0.02938982611041846,-0.9181268862924301,-0.18496384167864258,-2.169578235006728,-0.07314857030012757,3.1987080233837064,4.422604609564315,2.86372573709286,-0.6120800004731953,2.9580385809541543,1.7584306450338762
24,-2.974395499047243,1.2740905537852385,-2.5812750409780945,-0.0691499208945685,-1.1602348052487137,-0.48707001678809647,-2.710754820902429,-1.2352531992746205,2.290330664308933,3.4265570754839816,1.5968098148708618,-1.2753913123217346,2.24411101542421,0.9588312228025612
25,-2.45885140058695,0.8611971423006758,-2.1624934682287185,-0.09249581644020201,-1.2919991441745422,-0.6991948220663325,-2.872893353460684,-2.2369422585641474,1.201266037055993,2.109124621704829,0.10853095464984354,-1.828186151934678,1.1753960860995403,0.03799595439909851
26,-1.772234454509223,0.38053144393278543,-1.5249888977895356,-0.053062597945588784,-1.2802019229311017,-0.7938448260163461,-2.689464202893592,-2.979547493245566,0.1206734091509891,0.6427978612786309,-1.423027104104054,-2.245659075016436,-0.10094577493904082,-0.9461043043231864
27,-1.0167890917561717,-0.13747888049221912,-0.771104558488887,0.028415186409662337,-1.1086611228406347,-0.7573577107470923,-2.2289515784857397,-3.3961898464389026,-0.7803951412797445,-0.7908698569816285,-2.8137711686203497,-2.5127505133188652,-1.4108486052388496,-1.924735656760593
28,-0.29085559678383666,-0.6550886913741444,-0.009628912642449531,0.12661065896448223,-0.7820183229961024,-0.5931854455343402,-1.5838210206883254,-3.459201233617041,-1.3753166080448895,-2.0257793609974253,-3.896612693667371,-2.6227695506712427,-2.5763166706183416,-2.822707686786237
29,0.324767572006119,-1.1294986514775607,0.659580549815586,0.21563746933597874,-0.32662239522994774,-0.3229358640490519,-0.8578665716949796,-3.1823586083402975,-1.5995249662537954,-2.93242899576282,-4.542028083094504,-2.5758890789108704,-3.438627343957483,-3.5640059609036316
30,0.7765903453669065,-1.5165662057183928,1.1586300078936098,0.27276485247353355,0.21175124067005047,0.015396209273706371,-0.15336273572774903,-2.617654868474302,-1.4568699407088217,-3.432853098660889,-4.673630213283523,-2.3780217510300705,-3.878825423358723,-4.078491698330129
31,1.0430046060263283,-1.7757837581361129,1.4404895997251588,0.2813001724327755,0.7731163989876741,0.3720765372379794,0.44065248121751105,-1.8471248737573895,-1.0141496695426502,-3.5075550018608874,-4.276920855344379,-2.0403921974124577,-3.8329449838030047,-4.309162166020052
32,1.1332857781134762,-1.8759832153835636,1.4927101893650871,0.23231592601705184,1.2907427076624736,0.6926418323911236,0.8578263673277441,-0.9709689571011437,-0.3853264666901935,-3.193883488959647,-3.4002955571226505,-1.5798456277583968,-3.3000698632652092,-4.219220538162358
33,1.0816199356644136,-1.8009069202133887,1.3357753121807832,0.1251248688843219,1.699841870801078,0.9262234140123082,1.060796274746701,-0.09375347123523685,0.2913349808938194,-2.5765718739599794,-2.14835416728401,-1.0196428205336083,-2.3422438791159967,-3.7980248722543046
34,0.9375845659806755,-1.55359881628886,1.016755375836698,-0.033380284998005536,1.946254479838121,1.0337804088116391,1.0437932651975736,0.6892715260179105,0.8788869671910943,-1.7722566182646908,-0.6685095175431955,-0.39025899751402565,-1.0762621832957062,-3.0649330699849626
35,0.7550490610211135,-1.1585825980397715,0.5996201336695006,-0.23024488918133676,1.9939120711900682,0.9947544609565983,0.8313526540333307,1.3037591542100746,1.2655001594950435,-0.9105602655333325,0.867328234115053,0.2704105787190285,0.3416034866319038,-2.0701756409676446
36,0.5816179985317182,-0.6610313733779556,0.153992926498179,-0.4484632032962199,1.8300195337930296,0.8108751403344859,0.4733393080131256,1.7041557084614205,1.3824460041349909,-0.1146669777649939,2.2836672655287815,0.9179956487806777,1.73598893629011,-0.8921816981809858
37,0.45050143502279355,-0.12257647184913678,-0.25575797029240416,-0.6691098992755656,1.4672200762014946,0.5063290524554704,0.03690903443104751,1.876922643860469,1.2135088296493,0.5157817889773881,3.422364793178314,1.5041050841469268,2.9352948066859916,0.3687677641972804
38,0.376121797215272,0.38601388397563,-0.5794001100199817,-0.8732824013791163,0.9424208587904853,0.12416136660101647,-0.40358522209464975,1.8388949501465284,0.7947333862593537,0.9171423691151634,4.161031074087547,1.9803231357520614,3.7940163732753915,1.600139255765314
39,0.3539788076431666,0.7944380695484541,-0.7864686642794982,-1.0436530059447935,0.31241395935490207,-0.2805278979681007,-0.7774304930832081,1.6313637018020937,0.2051568198941239,1.0680456584211349,4.426705108514558,2.3033958964188583,4.211561399065367,2.689022387466383
40,0.3644513739874367,1.0433752398095157,-0.8680691849508444,-1.1655551409899447,-0.3531364435570497,-0.649441087324139,-1.027666355203066,1.3111225994212106,-0.4493114314884304,0.9889394027940076,4.203205255330101,2.4408990104035744,4.144993369233617,3.5348424127566984
41,0.3794810038184179,1.0942278700230086,-0.8349642155394024,-1.2276399065851984,-0.9804113916424919,-0.9304731330468465,-1.1190452800253128,0.9401281656916372,-1.0556651329029831,0.735343415210885,3.531365151705952,2.376436003727664,3.6139332075219133,4.061200850650553
42,0.370587553867484,0.9363912566875326,-0.7126781273784544,-1.2222131124892437,-1.5006966070958503,-1.0860315520040884,-1.0426694668690806,0.575530990369959,-1.5136281537624616,0.38616351016361744,2.5022800243352417,2.11335667103707,2.6969286011443003,4.225130948582093
43,0.3164938817747741,0.5906439626357427,-0.5347997071136528,-1.1453870658759155,-1.8589451512949013,-1.098891401297757,-0.8165881430959042,0.2616400448109972,-1.7521655679427157,0.02908674829769384,1.2445907732977644,1.6761344727930845,1.5198089374847856,4.022342014805129
44,0.20879706472634665,0.10782641222909525,-0.3358632525475928,-0.9971571574971183,-2.02049498601898,-0.9746398357619278,-0.4822364265365,0.02493636451338732,-1.7400981371321382,-0.25455367342589474,-0.09240295407233069,1.1088818657983894,0.23770497387321685,3.4875757954593287
45,0.054575183526942996,-0.43726541383951784,-0.14512756929301815,-0.7814554945086505,-1.9750402176505177,-0.74036439173048,-0.0972450693977849,-0.12735059417722772,-1.4894002225832603,-0.40305388383321605,-1.3574946643949846,0.47095153920523164,-0.9866583158908073,2.6899226407519627
46,-0.12453576987787007,-0.9560323089399799,0.017719929729223705,-0.5061655333803483,-1.7373277683995967,-0.43987691330998824,0.2742582434786314,-0.2052359960571066,-1.0510761248624942,-0.38373213026123143,-2.41569384323472,-0.1699198058149243,-2.005243462444822,1.7237174571712095
47,-0.29655019273294136,-1.3588208378328386,0.14435646105552966,-0.18302775828625545,-1.3445031785118118,-0.12633073215367424,0.5723054594425802,-0.23124635967024856,-0.5047504858231542,-0.19709965394736575,-3.1633951403399876,-0.7460188907737735,-2.704340807428254,0.6963148663351609
48,-0.42574481970707645,-1.568348380062433,0.23704774938522358,0.17265437007333315,-0.8505005125836007,0.14650999782660823,0.7509671210044796,-0.23406685792846835,0.055924595851919126,0.12463818864481387,-3.5387689159470392,-1.198404818962043,-3.018784036348516,-0.2854922306017638
49,-0.48034500851389267,-1.5317388118819248,0.3057129107653497,0.5425811022687502,-0.3182939165121053,0.3329151272434924,0.7858257098364139,-0.24184758951653937,0.5393909734792357,0.5242549318038159,-3.5262927725998376,-1.4846886369549588,-2.9388169812533143,-1.128473270392226
50,-0.43976905269125754,-1.2293036962001003,0.3636082357612911,0.9063210594785113,0.18886413847611977,0.4023863064574885,0.6778104943118,-0.27637346420523606,0.8711073471599807,0.9300302900080776,-3.1552085366364637,-1.584648220596079,-2.508829209573647,-1.7635791281895172
51,-0.3000088163603442,-0.6787034284672202,0.4226153463271883,1.242439598133969,0.6159502431940627,0.3443398796267001,0.45277888426057145,-0.34902065351612027,1.0049327433425879,1.2682492470138504,-2.4925368337879648,-1.5027919938856622,-1.8184118144885153,-2.15278868941324
52,-0.07607495865572421,0.06617046584344083,0.4891424624216807,1.5298029781368097,0.9232002431662479,0.1696545151712688,0.15695508994065505,-0.4590109827085877,0.9293714629983517,1.475568553234425,-1.631986099550495,-1.2674351191135718,-0.9873138279305385,-2.2913960350962626
53,0.19902823074759032,0.9214553295583465,0.5614907343349154,1.7489362225482643,1.0906665226906709,-0.0910239611435493,-0.15096563478165556,-0.59402783318842,0.6680197900070152,1.5092746764920264,-0.680557127318017,-0.9263727689697057,-0.14673105850870047,-2.205645640833295
54,0.4787113740378819,1.783825927496946,0.6292342618788904,1.883305258800535,1.1196852408090965,-0.3918408580850035,-0.40969452223248043,-0.7328568010185977,0.2745158235790509,1.3538901248628155,0.25518879982853365,-0.5397455467627648,0.5801897547371857,-1.9462948796683992
55,0.7099115542767007,2.5437556834246116,0.6747692265549294,1.9204144238129497,1.0311114351637547,-0.6783891407750648,-0.56555441790558,-0.8494214602887479,-0.17688317280594565,1.0232376828664589,1.0813688732597266,-0.17111119015574316,1.0957525109821948,-1.579232224507544
56,0.8417626526228594,3.0996761024790294,0.6767736990852644,1.852652865713654,0.8606778737329055,-0.8954652351358069,-0.5813431765885307,-0.9174320151347874,-0.6034036873571978,0.5578334811945198,1.7260977583866814,0.12199964158368301,1.34057920583921,-1.1746341113869225
57,0.8344162084742266,3.3711084865962375,0.614954628550668,1.6778756922879148,0.6522747745416402,-0.9948565804072935,-0.44245134590151397,-0.9148582410873839,-0.9265924464403943,0.018225955488984102,2.145038582304985,0.2966906089944029,1.3002894249368118,-0.7962685364637949
58,0.6665729550209034,3.309049465751191,0.4752008890110586,1.399750562346107,0.45026093634565845,-0.942171186437192,-0.15932161603460337,-0.8275578314863797,-1.0839950643265965,-0.5244898314127296,2.322978344881163,0.3312309461285942,1.0053313026672686,-0.4924505550528751
59,0.34048037971757406,2.902324950918797,0.2541514312404669,1.027919315410658,0.2920518989913799,-0.7219043604896835,0.23403898736941728,-0.6515966825579982,-1.0380966000047804,-0.9993676855900683,2.2718041657388515,0.2285510494190885,0.5243386889954557,-0.2898550320807487
60,-0.11646634789567403,2.179206171820339,-0.03775602588999207,0.5780062084638731,0.20216549770506884,-0.3401876281881485,0.6851415859923673,-0.39404012916627823,-0.7814291724206093,-1.3457969800363836,2.0256902428465775,0.016148873170659966,-0.04769588288724125,-0.19094771370305413
61,-0.6538784233081263,1.2042174249375575,-0.375473301501046,0.07145383843267201,0.18864918537135258,0.17505542052885556,1.130789550586547,-0.07223077573420886,-0.3373282890816804,-1.5216477258225765,1.634535256209681,-0.2576639919424548,-0.604480619612587,-0.175273248778144
62,-1.2040900933604946,0.07067090583183284,-0.721136600902682,-0.4648954231989945,0.2424067753674377,0.776538849676936,1.5062664179945655,0.28823023319583385,0.2435827455102035,-1.5082744149358847,1.1567092088501794,-0.5307486591214361,-1.044434826414514,-0.20430915439094913
63,-1.6907248439851827,-1.1100359917528109,-1.0284091992102813,-0.999604088203606,0.3394520529841256,1.4023564448670727,1.7545086503818763,0.6564336693873573,0.8905420349415328,-1.311871216246189,0.6520137780449471,-0.7364766828197562,-1.285390217437939,-0.22912223971118542
64,-2.0389758498355017,-2.2209857827697643,-1.24887028361323,-1.4979737665958777,0.4456299647726356,1.9825303683585527,1.8339134735939004,0.9995951596259747,1.5223316003638785,-0.9613044158826847,0.1755011893060798,-0.8141888087974305,-1.2760581919585494,-0.1996986342212337
65,-2.1861977116241587,-3.152641883562857,-1.3395621483453581,-1.9240126419749268,0.5229520197381039,2.4466760188152534,1.7237111651786998,1.2865045785754128,2.0580828860772415,-0.5031014239599596,-0.22748188947198716,-0.7193453956657284,-1.0029058391122017,-0.07459508729661607
66,-2.0913304131141683,-3.8145975893214863,-1.2705453351429412,-2.2430481439789944,0.5364591452989772,2.7319699885642446,1.42625235647836,1.4905731086011627,2.4276807640960674,0.005349546458984729,-0.5248829068558054,-0.43192043495759463,-0.4917766688065861,0.1705007090713497
67,-1.7418054642530207,-4.1448925412066835,-1.0312225067383127,-2.424866412204946,0.46048397084454296,2.7905591552951816,0.9660509089455177,1.592158986604002,2.580346200385972,0.5031957785977578,-0.7001498152258266,0.038238767482824426,0.1957009832649263,0.5366003890458616
68,-1.1569036071346412,-4.115953975996758,-0.6343005249351806,-2.447114559585864,0.2833295291804678,2.595583311233157,0.38590469495618274,1.5799876777349242,2.4902930522622486,0.9330185769523799,-0.7530721707603489,0.6500193180219126,0.970247467343094,0.9986548358785166
69,-0.3870003006941876,-3.7366398142586386,-0.11655755568988897,-2.2985694028602066,0.009676921304770303,2.1451066127761558,-0.2591800385399193,1.4516303974148679,2.158835265711574,1.2464293926584264,-0.6992445669799804,1.334066452268525,1.7264500899996533,1.506794430112356
70,0.49131514858597725,-3.050311219058429,0.4639722132587851,-1.9817871298268992,-0.3395766436713706,1.4634617158142593,-0.9092639959282384,1.2131437096944597,1.612890449000548,1.4079505769294918,-0.5681067297846906,2.0001002445148037,2.3561929536560386,1.99162366877987
71,1.3837042302662805,-2.1292953696068815,1.0342537280870145,-1.5146291883242606,-0.7299350682181357,0.5997889874553216,-1.5068449386550842,0.8780802521626923,0.9003886245723228,1.39715993471371,-0.399533331439636,2.5478101551140395,2.762387043060138,2.3730423757012398
72,2.189097137823546,-1.0664727236351619,1.5152677965374084,-0.930228748768586,-1.1178938639112803,-0.37612974724823156,-2.003277380934914,0.46613751426489003,0.08354953565215091,1.2093782091579912,-0.2390496245381565,2.8800757905042698,2.871420887528436,2.5715216537270855
73,2.8118802530690488,0.03499720458035032,1.832651208652101,-0.275123636595263,-1.4567565566743346,-1.3803317353867737,-2.363406119826613,0.0017065016997941062,-0.768749880557477,0.8553252887488483,-0.13193326471993824,2.916859466522819,2.6429345627434424,2.520344018900829
74,3.1736990535031975,1.0726362515269499,1.927511466755745,0.3944783222955065,-1.7028004169470412,-2.322755253390887,-2.5678996949427444,-0.48748359735064883,-1.5882851081529712,0.3601483341974047,-0.11669520475589762,2.607914288997726,2.0758266315917075,2.177094820661684
75,3.2233589492065624,1.955089993125027,1.7658593555871802,1.0180503715645628,-1.8209282939461309,-3.116090730283783,-2.6131527215665775,-0.9715385266869347,-2.3134698488792496,-0.23793674648089194,-0.21866304234069622,1.9424933367933976,1.2098046043946349,1.5327058068621702
76,2.9435481796270047,2.6109532002888867,1.3452222169996464,1.5371810259140632,-1.789080656605775,-3.684468193531451,-2.5090116045279878,-1.4194298626384614,-2.8934313556009785,-0.8893825245392091,-0.4445606503268527,0.9545405944658092,0.12225274881204076,0.6166071640079809
77,2.353523172778075,2.995106072066685,0.6973399777264664,1.902332574068924,-1.6009071583630243,-3.971073456220867,-2.274909998307209,-1.8000335731259496,-3.290081785384552,-1.5356344548978014,-0.7790306392991334,-0.27763343259460066,-1.079317177152374,-0.5029848149452073
78,1.5074297709394067,3.09200659761475,-0.11363819921126464,2.0790420064334114,-1.2664656165514485,-3.943914925780001,-1.9352305879594627,-2.083387759220439,-3.4785412846055492,-2.1123649905063275,-1.1839358877513242,-1.6374983557034923,-2.2684853277534542,-1.723988866428602
79,0.48850440518870736,2.9157477451265548,-0.9974203431695386,2.052689010150758,-0.8109837368613521,-3.5991789349943604,-1.5148024717346065,-2.2423688103793395,-3.4465624112625877,-2.5538965175763475,-1.6009853836453842,-2.9818100421553857,-3.3136422960547782,-2.9202325611279667
80,-0.6000784597557008,2.5070466580848296,-1.8476370711174364,1.8310947219672307,-0.27194876144719904,-2.961878362079842,-1.0353790908696252,-2.254886951486628,-3.1936746365776294,-2.798882651300455,-1.9577804878872933,-4.156270967548504,-4.092719959664485,-3.955050270846914
81,-1.646548868988113,1.9276421006265203,-2.5544997599331594,1.4444674670490307,0.3050395842774541,-2.0837743127995956,-0.5137242320691627,-2.1065285231471527,-2.730606530290997,-2.796982056246459,-2.1768348197627243,-5.013532392898913,-4.507284399470288,-4.697129544919943
82,-2.5426903827974336,1.252804712137437,-3.0184693246650194,0.9425426597028882,0.8711135634137184,-1.0387995931171836,0.03840319314917238,-1.793360831204945,-2.079214380166224,-2.515879762858979,-2.186578207976228,-5.43134633844331,-4.4943585354627835,-5.036685503683351
83,-3.1953895339067206,0.5627976977588127,-3.1631958837906864,0.3891289993938182,1.3790999383626246,0.08358236065153692,0.6124698275395378,-1.3244242199876113,-1.2727607368926193,-1.9476921415301056,-1.9329151894631116,-5.328582978791323,-4.034552843022725,-4.899947985513144
84,-3.536337488162733,-0.06583370996332367,-2.94606658195889,-0.1453749654330165,1.7880420812775009,1.1864928344144126,1.2000754214917753,-0.7233272238019746,-0.35606666304965334,-1.1136288935703953,-1.3896609417206365,-4.677039690930624,-3.1554752730477693,-4.260111983356613
85,-3.5289267361592387,-0.5683019787547066,-2.3649902125484856,-0.592635237918231,2.066804873804876,2.174526659767607,1.7893150149309645,-0.02837967768761763,0.6150995392160613,-0.06583739539981125,-0.5661812019337062,-3.5074512646776723,-1.9299263422886936,-3.143302778980256
86,-3.1717498031698437,-0.8981990972859892,-1.4605054516794764,-0.895150420583244,2.196423955025412,2.962646252082524,2.3615028283000497,0.7091412634649858,1.5759949146796495,1.114368966605602,0.4891649620095373,-1.9088007121044201,-0.4689960568017548,-1.6286868368020493
87,-2.498488176535075,-1.0320929424329701,-0.3128618039340307,-1.0140036178354996,2.171040673604871,3.484288766462245,2.8891284203738032,1.428719660073617,2.456604240454047,2.3222323900272186,1.69066790861922,-0.020838316969274687,1.0892124139650263,0.1574584541723123
88,-1.5743360912947841,-0.9716662517274713,0.9656792070664908,-0.9345395490549352,1.997457637943225,3.697919972649935,3.3357091681998257,2.0661083540182,3.1870725080023785,3.4389739022100763,2.922201516338521,1.9794578904830453,2.593978276843715,2.0532019157270067
89,-0.4894096042780552,-0.7431724312527991,2.242507428848656,-0.6691229271944368,1.6935237403650947,3.5913534750266574,3.657866253758813,2.5600572989011066,3.7044388675532733,4.344062520661175,4.048902716387825,3.8960076963015613,3.897841492655131,3.8767863272639955
90,0.6501662362869907,-0.3942139704000737,3.3790013551795988,-0.2564729518557574,1.2856825395459943,3.1833067637807257,3.809545857155062,2.8594273379500352,3.9598463110651987,4.928945370767957,4.932341944379902,5.534306926381715,4.872144380456743,5.445155742431184
91,1.7326251317651062,0.01190203016075404,4.245917851689598,0.2425055728122549,0.806075946244274,2.5218880082473834,3.747903019521334,2.929698200182209,3.925128530722149,5.110502496726306,5.447371145835141,6.722311166467425,5.420461521658739,6.593180266336168
92,2.6514121352936595,0.4037258709093036,4.738068128548533,0.7520132068515725,0.2895833030943671,1.6799918215617913,3.4400317617892378,2.7578822216400134,3.5976037068921816,4.842392553536847,5.4985142587549385,7.329149262634917,5.488413682297345,7.191470227255055
93,3.3155232467628295,0.7104098737851269,4.786578392837133,1.190952729874946,-0.2288945419134508,0.7479110797439471,2.8695225924722423,2.3550292854004855,3.002078696478275,4.122644914691763,5.03373457490103,7.279551175897563,5.068822049015338,7.160808407792068
94,3.658383481756348,0.8707202313122613,4.367304143139096,1.483667654719243,-0.7167039452422289,-0.1761835454539458,2.041798090173452,1.7558351236700727,2.1894761979718953,2.9963090080167696,4.053683147952757,6.5623883003679095,4.201742108115644,6.481592756721232
95,3.6444368464148433,0.841296746461264,3.504409218827396,1.5704479225119246,-1.1451750393951634,-0.9969283087695693,0.9873242659593668,1.0152919896569832,1.2320644265192653,1.5526191339749178,2.6150649268498496,5.23241819577209,2.969534457457737,5.197223089862444
96,3.2728078297020065,0.6031388564896032,2.268676995767018,1.4163910168007803,-1.4908425512000545,-1.6324163748305194,-0.2379152485870453,0.20276990114266052,0.21586369459685897,-0.08313595665405012,0.8274804759837214,3.405104087551092,1.487694812956944,3.411013209571222
97,2.577638264976546,0.16541731217303204,0.77072387641021,1.017359726485708,-1.7362337047438987,-2.023525494545156,-1.5549279836674756,-0.6056952325023286,-0.7687140169490524,-1.7621501638474033,-1.1560850990359215,1.2451445656135856,-0.10739170179320649,1.2768922230067004
98,1.624999884793294,-0.4340347187984043,-0.8501343812761613,0.40211599627289824,-1.8703292763674995,-2.140726970156335,-2.8670757983254065,-1.3358720121525425,-1.6366750074195355,-3.327586736812644,-3.154153924752163,-1.0499844724988259,-1.6723279698939817,-1.015188921236017
99,0.5066160891232176,-1.1318223264523997,-2.44012080944723,-0.36980055962137426,-1.8887862911220517,-1.9874539601058312,-4.067836787868134,-1.9234405537349213,-2.317386693174772,-4.6311911593615385,-4.9753727001328505,-3.2696719425014193,-3.0706717095829004,-3.257666300522344
100,-0.6690358617109676,-1.8454989131991832,-3.846751885430127,-1.2143066722659772,-1.7939644002575605,-1.5995304305134992,-5.050258842820656,-2.3207042324982967,-2.761568499588114,-5.549082034761923,-6.438724611787069,-5.210903303230989,-4.1855301316703475,-5.2456902730511255
101,-1.7873745320220151,-2.4828380310113354,-4.934366925993217,-2.032408903748414,-1.5947417098364194,-1.0406678006515329,-5.717227578986277,-2.5011137690865755,-2.9456219376659845,-5.994893734624981,-7.392999709493615,-6.697930713943634,-4.929564372228457,-6.797253922557926
102,-2.739040362518437,-2.9528204003946033,-5.597750159035284,-2.7220505660677734,-1.3060615204499588,-0.3945429696306816,-5.9915765454223004,-2.4611474339841117,-2.8730037870320535,-5.928785023096206,-7.7332803082868145,-7.5989058147906,-5.2515587128173,-7.771018426970009
103,-3.430738967703534,-3.1770258829854754,-5.772427767180761,-3.190684674909761,-0.9481375234875841,0.24559735600010904,-5.825041354795887,-2.2194617849738703,-2.572704830411787,-5.361331955297741,-7.41257128575944,-7.837879035085653,-5.139157430124825,-8.079983850578866
104,-3.7944971698775727,-3.1000344896385124,-5.440648996783418,-3.366994475543757,-0.5452704691877599,0.7885612680959129,-5.205100302520773,-1.8135749302185735,-2.09515377795286,-4.351923227278136,-6.447300205072458,-7.4011024722468735,-4.617824942203065,-7.699618389783769
105,-3.794409282576046,-2.6975398202936307,-4.6325818897480895,-3.2103018233391696,-0.12428980762661705,1.1566807365320748,-4.158858146247673,-1.2946256836447,-1.5060273973493432,-3.0019039861242387,-4.916143026940308,-6.337192813162126,-3.746477013229701,-6.669676952477644
106,-3.430227747775438,-1.9811377586494645,-3.422791591907396,-2.7165002972171255,0.287287947635687,1.295762598600178,-2.7533268400493895,-0.7209413736361208,-0.8785548987599581,-1.443305851221524,-2.9523995743688776,-4.751342392526914,-2.610516689301304,-5.0896321374063405
107,-2.7374777947235076,-0.9991276413637283,-1.9225483111226433,-1.9197731949911834,0.6632212350647173,1.1823234671696494,-1.091743227664148,-0.1512341149997558,-0.28500409093302503,0.17550503242037202,-0.7308486540502973,-2.794338818727061,-1.313166331855767,-3.1083188203817835
108,-1.7841051667219023,0.16689968369126348,-0.2688771063181712,-0.8898484755931655,0.980422767069564,0.8271901838950181,0.6940662225201967,0.36176780228512645,0.2118456793968009,1.7055897593820266,1.5494321828696602,-0.6476077660237658,0.033984854520592786,-0.9089732054506796
109,-0.6639657844942229,1.4094606492511565,1.388514226534867,0.2749519581181183,1.2205573899357427,0.2749161626488542,2.4548318514706877,0.776548438250283,0.5663148670834645,3.012793075826621,3.68444941236826,1.4942069553445712,1.320381595679896,1.3087366865743641
110,0.5122790523219859,2.6059096682839784,2.9012052211968427,1.4581404522464934,1.3712059926287221,-0.40109799991704237,4.037605781983744,1.0663600440256882,0.7555130245966905,3.990957595444028,5.484919559955975,3.441475518879081,2.4451726346194063,3.34787213424557
111,1.6280867459727573,3.6314690728593315,4.135724832149018,2.5378451217173064,1.426514715842346,-1.1074029028889287,5.300842796119422,1.2207948803915765,0.7821480473361725,4.571554675557337,6.794250592840443,5.026985360067806,3.3246529840183388,5.032731344048443
112,2.5728226329782475,4.373221675781271,4.985780631069002,3.4005325719279806,1.387323177442813,-1.7423341620094095,6.129193116174059,1.2453070579579832,0.673741308371335,4.72876463858975,7.5032145554322245,6.120998417536326,3.8981385355737874,6.224989997006158
113,3.2533115953894276,4.7435242292129525,5.382041124847543,3.954106995185601,1.2608224423223249,-2.2095280102359554,6.446274114291902,1.158862396368194,0.47799668413337393,4.47962072986756,7.559976670561891,6.642654134047353,4.132033888467827,6.83601260859524
114,3.603952402751387,4.691227956516913,5.298593795437122,4.138826471142323,1.0598225264452863,-2.4314065472098934,6.223779349031663,0.9901136120143854,0.2547064189694506,3.879437544854576,6.974551321433657,6.56669158607642,4.021898481509399,6.834216738422306
115,3.5941957959560784,4.209195242870451,4.755388594408328,3.9346581451915075,0.8017122605344537,-2.3607539887583524,5.4856138425738825,0.7726723485447632,0.06527421573100158,3.0132986194688063,5.817226672607223,5.924823003918691,3.592338330969559,6.246797808914013
116,3.232337384104359,3.336913584178203,3.8162484356552753,3.3640533407064224,0.5071821180830496,-1.9885976965632122,4.306292487278985,0.5401580958123342,-0.03846043003524734,1.9848168873300303,4.211031403448395,4.801534430090091,2.894601133173808,5.155622144971891
117,2.5649086853324503,2.157533166464811,2.5824043454734893,2.4896433548670363,0.1987665245203892,-1.3469936434121395,2.8035406051072487,0.32172577616137404,-0.024070529857045983,0.9036577729691627,2.3188879577747104,3.324608782662256,2.0018712749655587,3.6876507928708024
118,1.6714581372053878,0.7893525875529966,1.1819833186829445,1.4069905778702296,-0.10074222545753021,-0.5059806169035868,1.1257970547993863,0.13869364002950552,0.11491329324599092,-0.1266038434604621,0.3266637457137042,1.6512279163828771,1.0024625177875053,2.0008288160828838
119,0.6551432090244644,-0.6274393210800718,-0.24360537374981836,0.23320036885946369,-0.36994456051488794,0.43516377166286807,-0.5639709952353905,0.0027122842258252163,0.3572463062491384,-1.0188453323404647,-1.5761676730370857,-0.04894818396356233,-0.008626973396532985,0.26690588665981024
120,-0.369797494111172,-1.9472138030344706,-1.5549571186816666,-0.9071957000679345,-0.5904581501131968,1.361293886111797,-2.1061893475369753,-0.08434287151226945,0.6576156845135378,-1.7098444645366837,-3.2161859239434385,-1.6118903674334055,-0.9390477595065603,-1.3469323570411391
121,-1.2920845987904237,-3.0364267867599493,-2.6298580543920194,-1.8972431872448456,-0.7483924279626589,2.157489658066859,-3.362099623343351,-0.12886745989513704,0.9552113319875102,-2.1641476288514885,-4.4537962961841515,-2.8964242190218568,-1.7083380389189637,-2.695529468759776
122,-2.0170312588263846,-3.789829571028832,-3.3764791276939574,-2.6414418112739884,-0.8355217334084782,2.7254181996847824,-4.228485390781072,-0.1428015415527587,1.1856668354039597,-2.3742385257651453,-5.197041916770015,-3.7985266781864913,-2.2559754979187994,-3.6702788923935583
123,-2.477840334311968,-4.143071698422526,-3.7428521551559,-3.0766158933233454,-0.8499978085819079,2.9973703607987057,-4.6478612255620515,-0.14027654623933794,1.294012836509424,-2.3574228774122115,-5.409797545242294,-4.260975981863011,-2.5472084019490624,-4.208995914749896
124,-2.6429473624290085,-4.079867133291336,-3.7213491887217653,-3.1783224685017313,-0.7964656132394667,2.945703142047225,-4.612909743875593,-0.1343231932462318,1.2459722333698358,-2.1502718109584302,-5.113348153362611,-4.277215970671792,-2.5758707187922187,-4.300023250646481
125,-2.5183804606852225,-3.6326718264182505,-3.347559753853173,-2.961994425542835,-0.6855053927357754,2.586159656443234,-4.164744795111247,-0.13427849675625356,1.0352098852258542,-1.8017119303291123,-4.381187051583431,-3.8890537601174793,-2.3637738751615087,-3.980208102188563
126,-2.1448798217182508,-2.876792717049374,-2.6937566354039344,-2.4787944449508763,-0.53241299801524,1.974563360152903,-3.385416819755063,-0.14434663443212067,0.6849850223429882,-1.365883122243502,-3.3277608435715402,-3.1786350779074546,-1.956742402870093,-3.3272021122183846
127,-1.5903386934749935,-1.918855419697133,-1.857927586781456,-1.8069331894547203,-0.3554337211414979,1.1975022925250882,-2.385834980275665,-0.16349334405654137,0.2438554790675387,-0.8957240884790084,-2.0927099257915756,-2.2559102671456115,-1.4178414635304786,-2.4472846686842207
