,AF3,F7,F3,FC5,T7,P7,O1,O2,P8,T8,FC6,F4,F8,AF4
0,-0.5776373268920644,-0.6684652824205695,-0.40332325888910603,-0.5148041610763939,-0.04953159019009483,0.37404233954018684,0.35742206066319343,-0.10896911307463197,0.9807578285586763,0.7648044846269669,0.22579291886885153,-0.0761114181648377,0.13261448288283115,-0.0051646517101402774
1,-0.445017841171448,-1.6643357770039509,-0.6644531361465067,-1.4331022681726713,-0.4843441896310763,0.7137310171079413,0.6510508021071735,-0.41223413392958363,1.1673548385544967,-0.2936121093827495,-0.3228453568246323,0.1859026254486483,0.5403502686361512,-0.1727085032660609
2,-0.2799571927233324,-2.4884502702891322,-0.8754643618499861,-2.1782550753166157,-0.8176021561553939,0.9869134607393629,0.8759584541556337,-0.7004154992127892,1.2280904422456753,-1.2565645244872572,-0.8099719727177018,0.4442081626462983,0.9329053323977776,-0.30785621338216373
3,-0.08289350174609483,-3.027633029540106,-1.015047180914773,-2.640969828688177,-0.9744979164252852,1.1811474618430657,1.0208600164637558,-0.9362724200983648,1.202321209569802,-1.9524962517040836,-1.1660969525993572,0.706731852466286,1.2886138865014376,-0.3898883617192982
4,0.1445478979312781,-3.1986424086475664,-1.0678494528667595,-2.7467992259817655,-0.9100860547962057,1.2883847750018993,1.079972019215363,-1.0894705344412137,1.1327360301527527,-2.2544787280285656,-1.3442540047200433,0.9774826170917248,1.5832805633105873,-0.4061393102083359
5,0.3974264646536535,-2.961328164477018,-1.0271881184533944,-2.467454628105885,-0.6181115659879381,1.3044864553201418,1.0528202005179124,-1.1400854584306686,1.0588452356463052,-2.098978766690706,-1.3273830350681626,1.2532336014317789,1.7902698712540699,-0.3546908145528453
6,0.6656649138431565,-2.3266508950574485,-0.8967213495810424,-1.8260667889269488,-0.13359453569367072,1.2291559297259986,0.9441090629025894,-1.0805614000049668,1.0116636906433238,-1.494852206682589,-1.1306430112740613,1.5216289743492486,1.882142650021525,-0.24531178763848002
7,0.9330428600279729,-1.358162414768117,-0.6907264826441459,-0.8954976362340802,0.4713965662950115,1.0663358523981847,0.763669040066522,-0.9159535776274257,1.010159420357292,-0.5214058576191437,-0.7982870826733761,1.7611655291932475,1.8338680898887798,-0.0983966261435819
8,1.177380141249937,-0.1664149431542434,-0.4328453859482613,0.21022902813874517,1.098262393535131,0.8249225714071369,0.5263788199983342,-0.6625316730862257,1.0597638712062196,0.6839792175970891,-0.3956575016973402,1.943181024626193,1.6272276828086507,0.05800066937603523
9,1.372074157364876,1.1032573916418436,-0.15340406247228408,1.3503326599937506,1.6371370655165802,0.5194941713269725,0.25186786065993083,-0.34505071561161677,1.152931509903734,1.9466128893287888,0.0023110001345280004,2.03562720917484,1.2556606453908425,0.19259936903360084
10,1.4889074160511793,2.2881985236038673,0.11435457512047313,2.3756262339155105,1.984561619596962,0.17066282259291443,-0.036231160697827766,0.006826288003056694,1.271441215943103,3.080375326405991,0.32409854839895114,2.008077834615452,0.7285619577868571,0.27608190824143614
11,1.5017985787067338,3.228971833020329,0.3386054676535537,3.1483340033223857,2.0607935375547304,-0.19532683054569752,-0.31166931634028566,0.3623690998241377,1.3899014266539562,3.914738478257557,0.513886680467153,1.8371812893704964,0.07399650430794634,0.28617822484670746
12,1.3909749514062184,3.7903306030642954,0.4932254280558613,3.560660137791223,1.8239777169242888,-0.5480190895220323,-0.5476798899485038,0.6932935510298209,1.4798000251751882,4.318896150246846,0.5410286262800589,1.5116596510659266,-0.6610382442536259,0.21178202139515517
13,1.1469302762989155,3.879828321791167,0.5614058755851729,3.549539928007233,1.2788454833194502,-0.8552553342224098,-0.7196863096692098,0.9764505481988045,1.5134545075709842,4.219545674489625,0.4051101145558956,1.0360019614113016,-1.4133010399816945,0.0553922222180102
14,0.7735178085013863,3.4615229143842066,0.5380671345350807,3.1055227989337566,0.47842970797781204,-1.0865855625858458,-0.8083233553957035,1.195376920071262,1.4673639300303674,3.6099691685955726,0.135789540597197,0.4321912625779659,-2.1089406917245785,-0.16654445826150063
15,0.2896167047131768,2.562823793605307,0.4307192555810612,2.2745486937084265,-0.48164164941779947,-1.2171507664208854,-0.8023098392719401,1.3406344632367428,1.324699027474719,2.5494943309466644,-0.2124739156456383,-0.26089291340950443,-2.671515783429074,-0.42545924663579915
16,-0.2710154432702053,1.273397491411109,0.25863557688934913,1.1523665748183927,-1.475556214896734,-1.231414392392938,-0.7006246511979374,1.4091089284443667,1.0769151733928493,1.1539180032301806,-0.5698098520205018,-0.9903981137457983,-3.031353206560147,-0.6843666296980593
17,-0.8618579417979614,-0.2639319884657683,0.05043888612470746,-0.12764075677843661,-2.3646662001455248,-1.1260437686839522,-0.5134697114130522,1.4026310972067535,0.7246512313041855,-0.42120812525538603,-0.86276300138689,-1.6944036397760451,-3.1348800826188516,-0.9028665884067733
18,-1.4276083053364301,-1.8693171079069635,-0.15959093177402348,-1.4115667982935676,-3.0172378053327895,-0.9113080937782732,-0.2616648812877861,1.3263707451404045,0.27812965389400257,-2.0016103963736693,-1.0265124615321182,-2.308185300794944,-2.9524873775872287,-1.0426839489341726
19,-1.909684549213194,-3.347171765398377,-0.3360240096900606,-2.5447201031821067,-3.3276903330690213,-0.6105697778713819,0.025612171195339088,1.187425271692384,-0.24280510190049986,-3.416424048928637,-1.0154580063965766,-2.7710555512072754,-2.4836712792710367,-1.072950777258777
20,-2.2527008628891836,-4.51004827708143,-0.4470531244838961,-3.3913673393238373,-3.2324952898164345,-0.25776809405287643,0.3145084560208719,0.9938960003498902,-0.8090343116929571,-4.518338947751198,-0.810525791284172,-3.0329587377995297,-1.7586149514183833,-0.9745383676122444
21,-2.411221700896293,-5.202185503034518,-0.4689650402079998,-3.8518988156032568,-2.72041787244704,0.10683355484715808,0.571066764052961,0.7545581004931344,-1.3830915041717824,-5.19927688509988,-0.42218958804766793,-3.0600818504259237,-0.8359328536082924,-0.7429413638636827
22,-2.356011823944104,-5.319796478215921,-0.3897809109867865,-3.8752172631858217,-1.8356317648348255,0.4420209862162133,0.7659376303313613,0.4790356063275342,-1.9209593149919992,-5.4000290753638405,0.1110290873880433,-2.838904635499127,0.20311216242950775,-0.3894511589898502
23,-2.078976340661165,-4.825502121296798,-0.21161217056796106,-3.4648079154454092,-0.6732762745392447,0.711267259841705,0.8784100112661216,0.17823949461255048,-2.3750054398262423,-5.1133172092833785,0.7280825362740247,-2.378315260930162,1.2631055323551341,0.059424666193832715
24,-1.5960371023623905,-3.7549669802284407,0.04861578700037455,-2.677782166777653,0.6319143406481833,0.8876986452431399,0.8990296603757086,-0.13524945306670835,-2.698165083253336,-4.380710150931486,1.3538669749826806,-1.709618668932798,2.2445434404885383,0.5641688394134465
25,-0.9473383122322059,-2.2146868546473044,0.3602829771737523,-1.6170873008639295,1.9223497753126502,0.9575498092381504,0.8303210279089493,-0.4471540615048792,-2.849200050119805,-3.284578703922297,1.9092369759230756,-0.8844411674145197,3.054184570760708,1.0758417748593394
26,-0.1944297957617359,-0.37092768739024,0.6820731543548203,-0.41793292884220645,3.0374504605600596,0.9215287910152128,0.6854851370364433,-0.7420280335501057,-2.7985289380548273,-1.9367130183981747,2.3210903887035133,0.02931466101141834,3.614482184931444,1.540726299232312
27,0.5855621995250981,1.5690880961752995,0.9666714678742175,0.7697955040202856,3.8340423927823566,0.793886862220265,0.48534161987320057,-1.0043717047071865,-2.5338072607947875,-0.4653436828875388,2.531208004169425,0.9531739804421854,3.8711074908022725,1.9056444549237292
28,1.3083323997856355,3.381632579446313,1.1667381699394868,1.8008646387928484,4.204667472971924,0.5994096859640904,0.25413818886956213,-1.2201875628527143,-2.0642239857031353,0.9978548321843748,2.5028537304047624,1.8050284511605268,3.7978882625249035,2.123503108200951
29,1.892474583432365,4.85363674071887,1.2414963879443337,2.5532683617714182,4.091512400112991,0.36892891665600025,0.015090176451341508,-1.37866770129784,-1.4224472259127428,2.329550133686629,2.2245508945012595,2.5067566324409665,3.3988328355007287,2.158574076610724
30,2.2699859826600974,5.809172208572658,1.163088522857528,2.9436469401346392,3.4942473813245996,0.13421205529118072,-0.21342008745664726,-1.473612904545622,-0.6633522192001443,3.424526739360131,1.7108760554169054,2.991864050543488,2.707240580873808,1.9909886658427627
31,2.395739484371901,6.131817845428083,0.9217808628032038,2.9375536880416484,2.4708445307432236,-0.07683611583555322,-0.4201830301015153,-1.5041877393484773,0.1408844517962687,4.203047928814444,1.000490897342877,3.212415567061784,1.7821844682417387,1.6199485800057758
32,2.254485793230041,5.7799195481395325,0.5291647768571455,2.553253199413084,1.1313163484073452,-0.24384771064552765,-0.6015469891340925,-1.4747273909175689,0.9090860098601764,4.615695482491463,0.15191746747003076,3.144532265715095,0.7028700298975128,1.065237904887221
33,1.864209798846986,4.792630569449687,0.018717564348617134,1.8585981425338947,-0.37482843928111054,-0.35600839134784845,-0.7597840160959903,-1.393514162493695,1.5617945328702532,4.645736620808581,-0.7622752106394971,2.7918003036127654,-0.43848685909372587,0.36675988614106153
34,1.2751331318862806,3.285815294068227,-0.5565853504864449,0.9614501537908342,-1.8758733031180492,-0.4122475097127566,-0.8998356374421591,-1.2706943393321546,2.032776870190953,4.309112551277549,-1.66216677049701,2.1860880211426945,-1.5445726366259802,-0.4180003281206968
35,0.5642522194269922,1.4382333571863153,-1.1295269414619469,-0.005050447409906037,-3.197849485279028,-0.41979191580213226,-1.0252368463232393,-1.1157509486132249,2.2792954949336526,3.652127454798613,-2.467423032890867,1.385479609880768,-2.521025212437754,-1.2184929190029374
36,-0.1740653199323955,-0.5303035580534707,-1.6263039213376527,-0.9004158005577647,-4.184804122240345,-0.3915492882048635,-1.1342569884774236,-0.9351192578115608,2.289128791681022,2.746904521938647,-3.10396869086181,0.4692967115609947,-3.284063787542468,-1.957316920211322
37,-0.8403226745238476,-2.386068887646368,-1.9757660313715846,-1.5956151901260827,-4.7170320570282795,-0.34293048256546504,-1.21731284797406,-0.7305741287506502,2.0827794549154848,1.6847266269882268,-3.510040172439129,-0.4695170692567078,-3.76726324826374,-2.557667579747453
38,-1.3434186453232186,-3.910440579805371,-2.1191579945599117,-1.990349015683121,-4.72519459679079,-0.28872249766379454,-1.256484188041001,-0.4989045173273677,1.7101533754739449,0.5675318418092209,-3.641380873874944,-1.3340443270239164,-3.927135923476133,-2.9513881199399634
39,-1.6136350458377198,-4.927146616480175,-2.019122879956356,-2.026603789782813,-4.198739726233358,-0.2405121341161582,-1.2275329324188307,-0.23313349618220805,1.2420620523147965,-0.5019126908799237,-3.475386732656527,-2.0341444136849476,-3.7472328762886473,-3.0868501117698735
40,-1.613231849303518,-5.324287367491073,-1.666698243127137,-1.696770148172492,-3.1876848551081243,-0.20498634399985866,-1.1042799195906259,0.07480564657490768,0.7579682862205791,-1.4303277795828153,-3.013980867619145,-2.497102190985926,-3.240475047350628,-2.9357852567152376
41,-1.343010093538382,-5.068313079815794,-1.085162214798444,-1.045267329514574,-1.7975553814030087,-0.18325167438765447,-0.8646419229183148,0.4303873466519897,0.33221406465673486,-2.1436213827634325,-2.284923475915253,-2.676810180039341,-2.4493994864763513,-2.498167283953503
42,-0.8436596898678348,-4.208111928744058,-0.3298755309877443,-0.16339357060126397,-0.17801990426476952,-0.17116030788120937,-0.4971943712159195,0.8325451460232033,0.021342963652859523,-2.5947109625229503,-1.3412029188754362,-2.5601332604954172,-1.4440064832832242,-1.8043267011686708
43,-0.19137294090230564,-2.8685834969160524,0.5162887846987537,0.8220670319166348,1.4935437271761893,-0.1605192275802354,-0.006899555142222996,1.2703426361865477,-0.14504618905236577,-2.7682713199820035,-0.25816762663184595,-2.169336821543296,-0.3169722823235396,-0.9136974959293851
44,0.5119925822848672,-1.2343978584148105,1.3517633930516617,1.7651815644702373,3.0317470259195476,-0.14098432474311362,0.5813169391696987,1.7211117054611418,-0.16817927130276822,-2.6815222563663625,0.8718055446544359,-1.5599160317456582,0.8238123579560969,0.09004709983813779
45,1.1530762552437415,0.47408279134922016,2.0685468857340155,2.5201988077208313,4.263966439455597,-0.10238279295041358,1.2221444796100847,2.1506801527010175,-0.07806236317160853,-2.380709459539875,1.9470356845282437,-0.8138051107383536,1.8650958735377114,1.107233540268674
46,1.6236220311206948,2.0296746569977917,2.566482223884532,2.9614669486432614,5.049860805450462,-0.03715003353878894,1.8530920233566335,2.5159393035709128,0.0739366333678445,-1.933612101419911,2.8661973307374775,-0.028680432773340245,2.699813810101127,2.0330267290803925
47,1.837123462191074,3.2282813721466836,2.7676447389357604,3.0013438110165236,5.29740703462223,0.05748555401437091,2.401143220419004,2.7695609750388193,0.2262637271511922,-1.4190988115085776,3.539032187788543,0.6952319794941436,3.239198799789755,2.769594813181577
48,1.7429183369134729,3.9158609814359164,2.6286962327693133,2.603638597097922,4.973594644474374,0.17796400188839837,2.792044450940335,2.866252248813481,0.31980587037589636,-0.9153006947077232,3.896868015755139,1.2689236107888386,3.423976849512475,3.237982177374016
49,1.3353876299099312,4.008786696833905,2.149164064249208,1.790598098351382,4.108503496254911,0.31386746150160444,2.9608906359390614,2.769619249601466,0.3094852178248621,-0.48825102717683017,3.9015013372630087,1.626825304553286,3.2330293421121907,3.3879811793266486
50,0.6565754962067307,3.504778083581694,1.3740716096544743,0.642232221481175,2.7922332980261304,0.4486631111935126,2.8623735498400102,2.4585572287401143,0.1726785226081027,-0.1827898516986246,3.5510377656499927,1.735540813293941,2.688026878811883,3.2045020371760775
51,-0.20845686363247404,2.4828437794898988,0.39013265220902765,-0.7122218063624255,1.1649774938357271,0.5617759060896093,2.479030804735872,1.93212008568123,-0.08692854600681815,-0.017153521359355342,2.8815827303710497,1.5976875457853963,1.8529560049186666,2.709433056753528
52,-1.14305654151598,1.092195636781184,-0.6842889128872744,-2.109800533054728,-0.5986566217558927,0.6317908855725796,1.8260902041497646,1.2120376134232416,-0.44047197001055155,0.017964392049518104,1.9642102655926312,1.250250548013056,0.8281207658976795,1.9586808817288037
53,-2.015547624030867,-0.4683500619304207,-1.7142281000362953,-3.3743566273800183,-2.3092838897383783,0.6403113543232247,0.9520022601431187,0.3423992875581833,-0.8394769888510825,-0.04413660388269564,0.897329353448513,0.7577909115510276,-0.26098716069713507,1.0348540538282103
54,-2.6983998223558374,-1.9776126208071283,-2.566079284138628,-4.339426508837204,-3.7840436127785675,0.5757841285948881,-0.06559392182978831,-0.6135579839093663,-1.224549944728719,-0.15346185574944077,-0.20470539947679356,0.2017292282579738,-1.2787306655976487,0.03674875569427547
55,-3.0869717311658937,-3.2221163041050906,-3.125825913000273,-4.870294542696747,-4.867059461094085,0.43651447676467603,-1.1280338981407037,-1.579208120921236,-1.5354542006924405,-0.25302347750487697,-1.2252679886826041,-0.3324292196326965,-2.096379840932448,-0.9327299320774041
56,-3.1148552474899263,-4.024805542656245,-3.314796444697181,-4.882178867795495,-5.44663981947856,0.23217270583322144,-2.126866462390554,-2.4721468068024466,-1.7207818878131405,-0.2892601924189574,-2.059552851145472,-0.7677794978356712,-2.608870240722784,-1.7784181445202203
57,-2.763434004525221,-4.268476631828289,-3.1005774697396102,-4.3519926168387855,-5.467201651995176,-0.01665905088541688,-2.956668163667153,-3.2127302459486615,-1.7457126128000862,-0.22145746113547538,-2.6271280126051106,-1.0465962744604211,-2.7489212493752784,-2.4228965730035794
58,-2.064276294425985,-3.9108262391010133,-2.5014960464403506,-3.322058060354043,-4.9345631684597056,-0.2809801500774596,-3.52771963017362,-3.732517563231419,-1.596842504940879,-0.028712441790703782,-2.8812261361821747,-1.1372890450595026,-2.496498436756147,-2.8134817360765947
59,-1.0942074955032621,-2.989274429745322,-1.5841184739532912,-1.895314451148214,-3.914085345789107,-0.5275656062662574,-3.7768659424192865,-3.9816268290817742,-1.2836407502165044,0.28652702426201515,-2.8135503209215815,-1.0369504174896995,-1.882240178560171,-2.9256521649759715
60,0.03589612419490525,-1.6151917900782125,-0.4543022430063059,-0.22276724922371582,-2.5220311367394537,-0.7241486787737085,-3.6751541994786323,-3.9341681402710584,-0.8366348430927744,0.6987194091338335,-2.4540372013729654,-0.7695185840010693,-0.984300520383748,-2.762981651835759
61,1.1966039866009006,0.04138650309287437,0.7567153933166543,1.5150147896338455,-0.911329793729573,-0.844642805682305,-3.231299568321133,-3.5911629999717714,-0.3028647933387295,1.1630497597910798,-1.8657350180590961,-0.38028566899921706,0.08104363146294909,-2.3541572741972043
62,2.2571873431941345,1.7742511001330232,1.9090580799063266,3.1297915237598595,0.7464241072076071,-0.8734126181016845,-2.490604711042338,-2.980660230844722,0.2605592871341264,1.6220716715932448,-1.1356126629910126,0.07201963957273685,1.1738397146360677,-1.7479600469154575
63,3.102028043825199,3.367562000900562,2.8713768110327735,4.448011910788909,2.2805151295819694,-0.8077702785534643,-1.5295591624077478,-2.1550724534956918,0.7938215441256253,2.0140770290889995,-0.3626313606717022,0.5241267305099339,2.148119024136421,-1.0071552098044394
64,3.6439342482658095,4.622920993864647,3.5361597125334754,5.330793697825474,3.5398668155570325,-0.6582149651218039,-0.4468877865420569,-1.1860456871575398,1.2417098262829362,2.2819309928388685,0.3552755227952468,0.9167051731326732,2.870517504649086,-0.20211089886321923
65,3.832806943109926,5.383559239735793,3.8313513953761476,5.68913042836736,4.408867425868838,-0.44638176738077034,0.6477692063111296,-0.15741288292904324,1.5599974555125955,2.38112183336803,0.9335837958059612,1.2013273410399188,3.2374898564561736,0.5952817241840853
66,3.6589577408198433,5.552763288781044,3.7271116082845777,5.4926778574062665,4.818540241007545,-0.20112742556153831,1.6461223748065528,0.8430413375754581,1.7202009180576021,2.2859428823984973,1.3113285506534587,1.345217721760481,3.188925104068583,1.3170764479485906
67,3.15122961120388,5.104517691066036,3.2372891275999156,4.771370708588663,4.751951041065809,0.046449346472225976,2.452974516080105,1.7321683914434467,1.7122404114162524,1.993011698515317,1.4577639156019495,1.33353418211347,2.7164111139543796,1.904011119873393
68,2.3707735191226096,4.085379584302445,2.4158933232022375,3.6100400537842874,4.2434636821780645,0.2680614142878482,2.9961019460231832,2.4395236737819777,1.5447845090694348,1.5217034611288707,1.3747556688909794,1.1693060143310374,1.8650446675805046,2.309481439420349
69,1.4017943721451651,2.6076816761645687,1.3494184014263242,2.1370255968346163,3.3721893361854995,0.4423940718363995,3.2332281442697353,2.914085446861062,1.2433313474923169,0.9114959229315263,1.094703145845634,0.8714231996354822,0.7284701987493334,2.5026872268216698
70,0.3407700297702889,0.8351603352737738,0.14625731464930825,0.5084183693481339,2.2506408969616234,0.5576390503270544,3.155435666499758,3.1289192933464594,0.8463473204239649,0.21665055504337585,0.674383935617113,0.4712178731458644,-0.5623305604463771,2.470802749248825
71,-0.7144066829985458,-1.03707412412749,-1.0753831759077035,-1.110028339455416,1.0101277660601404,0.6120473282122271,2.7868046695487103,3.083282827798114,0.4000222588011018,-0.5009636627779613,0.18566531327144348,0.008218597010153494,-1.8551746517872423,2.219940336720396
72,-1.6741476104988415,-2.805735795609068,-2.1996704327657057,-2.5611423086745213,-0.2152461134632451,0.612579934436704,2.1804999228267516,2.8019262782827505,-0.04762787621275691,-1.1798208177539669,-0.2955393206211134,-0.4743769639052765,-2.9957468386008954,1.7746584138346981
73,-2.464871458447791,-4.282955861161763,-3.1242063767388424,-3.7126676386639224,-1.3040161250067048,0.5721215481521627,1.411900382923182,2.3316408925679903,-0.4525072254239035,-1.7662614519501476,-0.7004354101873843,-0.9340404431847099,-3.8471617919131353,1.17584815301442
74,-3.0341731705392316,-5.317511973956227,-3.7689943663025423,-4.469965666196519,-2.160387751011327,0.5059766427737913,0.5696393841688373,1.7354101858015967,-0.7792766143124017,-2.2204554957911213,-0.9769710149341044,-1.332681482312063,-4.307430728037937,0.47701827489637944
75,-3.3532831097082405,-5.811251218721581,-4.082660375539165,-4.783860089276301,-2.723375775120791,0.42844619229782227,-0.2544159528092791,1.0848017005255581,-1.0046784973772935,-2.5199231039154593,-1.0964752401908469,-1.6395595358542283,-4.322436813418819,-0.2607513555085612
76,-3.4169248828209615,-5.728850762385914,-4.045599010272433,-4.653015884786257,-2.9710898368000107,0.3501818517518507,-0.9751673025719068,0.45147020510332836,-1.118988780949424,-2.6601322408582733,-1.0563195479855596,-1.8331494072318133,-3.8925634169099492,-0.9746625960906962
77,-3.2409098039261592,-5.099866987494305,-3.670017836636942,-4.120891752774403,-2.919850817010685,0.27677289784832676,-1.523239087781952,-0.10120809945135639,-1.1255181043773848,-2.652182377164118,-0.8782430508068843,-1.901877758218853,-3.07196104779484,-1.6061453210304548
78,-2.857980393792585,-4.012965711351328,-2.99711962384494,-3.26792694850613,-2.618508558017288,0.20870746403944201,-1.8519862334093375,-0.5253227424881977,-1.0383699213747208,-2.5180891820554714,-0.6027041143907025,-1.8437659290674406,-1.9604818303692082,-2.106116308054519
79,-2.3125344438456015,-2.6031941119967623,-2.091882227123062,-2.2001485268367538,-2.1389635515676217,0.14254037646473747,-1.9418634436271744,-0.793505230931229,-0.8789098877847863,-2.284623415417,-0.2803088440256881,-1.665140645172417,-0.6894027033074608,-2.4388513202001687
80,-1.6549189627982417,-1.0340275516143485,-1.0360630399931146,-1.0357524405648115,-1.564381928824773,0.07285970038792905,-1.8017278679693263,-0.9012188324116143,-0.67157911675097,-1.9769478793686983,0.03810744156822393,-1.378695002014723,0.596979761081799,-2.583997803891218
81,-0.9359723035576187,0.5234176930664661,0.0798387032946894,0.10862596206081178,-0.9768614147148947,-0.005485424020718737,-1.46695315372637,-0.8659555169551851,-0.43976820088364277,-1.6133717226421502,0.31091571619203673,-1.0012740946184149,1.7611400829031298,-2.536587283884924
82,-0.20241158015925081,1.911268589415278,1.1648883557427718,1.1302999235970612,-0.4463158016006369,-0.09543582126397196,-0.9945599042710221,-0.7234649592000407,-0.20244455605374367,-1.2023644207317148,0.5128932533202286,-0.5517977444928477,2.6905227706364085,-2.305272098037207
83,0.5064790112052013,3.00315880744427,2.1355409220811636,1.9501981317087989,-0.022097894975743458,-0.1964779239720215,-0.45589090948516725,-0.5215708674501901,0.02790764920076011,-0.7425547324678141,0.638839893776328,-0.049701018151525486,3.3114121724083962,-1.909330679048457
84,1.160587092468072,3.717541057483736,2.922313056252935,2.518863127262687,0.27158339875875226,-0.30433153416642267,0.07235066058093602,-0.3124918063700466,0.24570207519464377,-0.22585030278852136,0.7029252990537922,0.4858302025327967,3.5964192490871367,-1.3751925986293267
85,1.7390744990301896,4.024424863105402,3.4747575503066934,2.818359857132117,0.4360059784078478,-0.41156488606109076,0.5176639104642895,-0.14481301227267826,0.4509779585402985,0.3568407720633704,0.7338871347606093,1.035715537968452,3.5645539609938326,-0.7332846574552828
86,2.228996975419069,3.9448529736149216,3.764368349318992,2.8602233063104987,0.4942561225772648,-0.5089192797929708,0.8207733656770104,-0.05630422986954622,0.6467191221713696,1.0083997430665415,0.7670028080133255,1.5800185069953896,3.2740536826535354,-0.015873049846782374
87,2.6228028036226965,3.5434693859144457,3.7852527941416847,2.6800799735259706,0.48436446715114123,-0.5869778297816632,0.943011629789596,-0.0686307280860992,0.8353396516889419,1.7183274446055392,0.8344072760845529,2.0964670752732597,2.809321152456838,0.7437117317075161
88,2.9152428265615864,2.915522749105529,3.552634991503982,2.329971918039837,0.45056051882706194,-0.6377605994853551,0.8711462153983057,-0.18468665912284055,1.015124701434476,2.4572871731015535,0.9556981858703255,2.5589325518871435,2.2642879239032525,1.5104772983549761
89,3.1003300607065283,2.170436553688055,3.0994786116722857,1.869639274406972,0.434190751714904,-0.6558803607838479,0.6190423046502739,-0.3888520500654473,1.1774847703203055,3.1748551573423316,1.1307791981456965,2.936445123162499,1.7250959298453703,2.2462307254698066
90,3.1690082951787373,1.4145368498485231,2.471717489641173,1.3580506372012,0.4658233285260948,-0.6390325713189816,0.22593936688732988,-0.6500133739892503,1.3057757631008675,3.8014882801275496,1.336533607604904,3.1933216146569925,1.2550842385797505,2.9078835560236143
91,3.108116061620472,0.7355880178428051,1.7227343910458346,0.846318785792254,0.5597929824636347,-0.587780732208776,-0.2484661683283356,-0.926770705056231,1.3761624572966396,4.254997688135276,1.5282536582939352,3.290858297882121,0.8846645186040121,3.44658251009669
92,2.9010627890858487,0.19143961221061212,0.9078057164187032,0.3728384050635526,0.7119800629938932,-0.5047850996587137,-0.7315520107351527,-1.173950611852183,1.3606061523451423,4.450979343161579,1.6458923523599012,3.190801964942171,0.607828606249675,3.8086229513039545
93,2.5303750635272317,-0.19561356131032034,0.07920986594098058,-0.03891534981303799,0.9010507402409919,-0.39376411482069296,-1.147023640551766,-1.3493999452923904,1.23161595961688,4.315846403890211,1.6243041405915661,2.86048067500978,0.385885752542219,3.938826380528113
94,1.9819450229908726,-0.43810220933455923,-0.7174294966152056,-0.37992441016646633,1.092803225047086,-0.25854201275352967,-1.4248009645867603,-1.420063551547208,0.9680119852099761,3.8004884755174158,1.4058575118197103,2.279099204061653,0.15776304469366303,3.7865639480694853
95,1.2504611183714194,-0.5766707236931602,-1.4452142423638454,-0.6529084735324163,1.2467592546323683,-0.10250751105214406,-1.5103766937037149,-1.3665238598958673,0.5606950452053947,2.8922797311770707,0.9532779767239301,1.4443502318862795,-0.1449627264308903,3.3139715408896833
96,0.3451809512192056,-0.6687396936345567,-2.076385329084226,-0.8680773342765655,1.3237915212632236,0.07130902742474728,-1.3725343042978464,-1.185453827998351,0.017354781724006042,1.623242625630654,0.2604143899426371,0.3782344770996235,-0.5809951248479478,2.5052567838720625
97,-0.7050209063674148,-0.7746397540461448,-2.591299177069964,-1.0382684041684034,1.2934419251891902,0.2595147204118757,-1.0084696638855533,-0.8897541126952222,-0.6348194270602266,0.07263914403498133,-0.6411472269588101,-0.8691151475548138,-1.1833112834967396,1.375484568413052
98,-1.8484759339736003,-0.9437037000575248,-2.9764382178950166,-1.1744095856062786,1.139681862799749,0.45716877258947414,-0.4456097625724253,-0.5064657572371686,-1.3490707463497689,-1.6369685427073692,-1.6811033578035233,-2.21870925895339,-1.9472033608202624,-0.02303096846710731
99,-3.0104539377035135,-1.202780017666644,-3.222091167417149,-1.2821201377663058,0.8641732700718823,0.6564866004465962,0.2602486106132837,-0.07283634529454831,-2.061910835284432,-3.3501911763767214,-2.755704253617276,-3.565872402160105,-2.8247296577236924,-1.5985178826482807
100,-4.096534099291457,-1.5491950340811065,-3.3203820022068515,-1.3600059993555556,0.4865499567142235,0.8458839480971236,1.0304639991979754,0.3688561956432722,-2.698704296499773,-4.894825624241989,-3.738902262824448,-4.787610055828254,-3.7269041794841384,-3.2230584551150234
101,-4.999851817521255,-1.9494134161419971,-3.2642366096529187,-1.399867087906016,0.04176696558595895,1.0097957234828852,1.7722894932121402,0.776971495312619,-3.181460636908445,-6.101528027140042,-4.498039149624141,-5.753856147341343,-4.533679051554767,-4.741979035117908
102,-5.611840992579656,-2.343661039279661,-3.0476648460489,-1.3886755913390696,-0.4249374932317443,1.1295677123092231,2.389940957372525,1.115861806009243,-3.4379839350054167,-6.824631443857136,-4.911955169830228,-6.341630177881848,-5.110467205969815,-5.988885054217992
103,-5.835442770997634,-2.6557512242140793,-2.6674383611918913,-1.3118722829421343,-0.8645481875005645,1.1854854189828063,2.796728457760855,1.3601563353059594,-3.4113257969217536,-6.961312508966922,-4.888934497695249,-6.4505459784090124,-5.3288253838352695,-6.8048774539128924
104,-5.599182033335009,-2.8064669559005835,-2.1259122588382606,-1.1573125630193208,-1.2311365435761294,1.1597267871512482,2.926727640379634,1.4973664923613497,-3.0683947789951755,-6.46643378876837,-4.381820554640945,-6.017696394263148,-5.088148079809363,-7.059597465284456
105,-4.870128858347707,-2.72824109642747,-1.4344308295891985,-0.9191009288508922,-1.4879842886893033,1.039773007940664,2.7443980623424644,1.5284478498006273,-2.4065959020308187,-5.36089761716859,-3.3979557503801896,-5.029772153745336,-4.334933090787783,-6.671163541030696
106,-3.6636510523920043,-2.3786409037447025,-0.6165343861313207,-0.6005866037743368,-1.6120671053369604,0.8216454818764131,2.250714705056595,1.466269133745485,-1.4575105343498191,-3.732171900032591,-2.0022775826810397,-3.5304105746859094,-3.0764214973322463,-5.621909147887225
107,-2.0480784121316384,-1.7503406304138813,0.2899028043121023,-0.21594273590267848,-1.5963303151717738,0.512296459229619,1.4847717703252354,1.332281726192878,-0.28688266966271037,-1.7266733443630042,-0.31283900918457525,-1.6212226205722684,-1.3861641998247152,-3.967163617466873
108,-0.1429438256452498,-0.8758264107080442,1.2323936073848085,0.21000951156725842,-1.4495860627186117,0.13057809947939542,0.5204055507868189,1.1519991033383032,1.0094556609258127,0.4652247938667936,1.5109207211683942,0.5443202308306225,0.5997809210603229,-1.8351248462192606
109,1.8897123492285768,0.17407413790616802,2.145960346376713,0.6437816675854715,-1.1942511162992278,-0.2935655051927399,-0.541915189250446,0.9501226825288828,2.3136344469551733,2.6298070334260006,3.28580025339568,2.7740286050396077,2.695932908258671,0.5829440392132139
110,3.860497309586862,1.297751268087161,2.9578153740068744,1.0467597099055592,-0.8624620469554551,-0.7217372156871331,-1.586978099479424,0.7462344913933433,3.4971877695122306,4.553745266440539,4.826147598894364,4.8560547131566345,4.688257250085578,3.0515698596852374
111,5.572790427580403,2.3754003682212677,3.5942948234528562,1.3798106750386507,-0.49130373926073817,-1.111285992418322,-2.498953600037877,0.5518859238670021,4.434814038717407,6.048018878952738,5.9660963787648775,6.581829238329881,6.360112751677962,5.316966973431711
112,6.845479104820268,3.2847812289801714,3.9892839284912918,1.6082854909098878,-0.11794367573878392,-1.4205102066307296,-3.1758476418096704,0.36964840875471416,5.018961672569919,6.9690721812558944,6.5797958525414915,7.7701354976090045,7.519741848165153,7.136815661631936
113,7.535376153059086,3.917804644449771,4.093008688772627,1.7066824577248982,0.22461988787044804,-1.6141130946718414,-3.5422861235748484,0.19429927760457788,5.1734696562311004,7.23461638587007,6.596953543092387,8.289233761458883,8.025467162468258,8.31003409070142
114,7.556226074165355,4.195487074708133,3.8798705669877447,1.662281501514156,0.5106829498529588,-1.6680844005075213,-3.558856545369275,0.01587151092675162,4.864419492662305,6.832177505545769,6.01163888951883,8.074031771304595,7.8050261689185545,8.702482438071646
115,6.891502112839326,4.079077133952026,3.3540133193766097,1.477207395777545,0.7235752377112736,-1.5732443714329365,-3.226725204774513,-0.1761077557731062,4.106532911473474,5.819419781014502,4.883205774863701,7.135819989097471,6.866273160244974,8.264954860357044
116,5.598927105589516,3.575745625357686,2.5515453669181483,1.1686066186705633,0.856009692487005,-1.336877843703807,-2.5869364779132002,-0.38814090764023623,2.963896137368634,4.3163116745759265,3.3292446411285694,5.562993083433746,5.2976778749335915,7.040779172678622
117,3.8057299612080895,2.738046868371622,1.5387718309517815,0.7668927776635643,0.9092442595105638,-0.9821768661743508,-1.7145746577062693,-0.61908121878978,1.5444837266583165,2.4902152048484805,1.5115227120521189,3.5123450213370213,3.258471606491716,5.161732005090519
118,1.694928232586842,1.6572755790126696,0.40635673894159124,0.3122884194704387,0.8913919100832309,-0.5455492871722253,-0.7087046341193093,-0.8581539044716942,-0.011183011635788331,0.535841497088604,-0.3832279365859316,1.1917938083063797,0.9597270088497214,2.8325947527782995
119,-0.5157815834039533,0.45172112075924625,-0.7400482488935538,-0.1498738829120968,0.8152713449189336,-0.07217740230041957,0.3204116592899736,-1.0852437968836317,-1.546005020966632,-1.3473822765701606,-2.165176597580552,-1.1634161930378293,-1.3610954683668772,0.30628341471244225
120,-2.5998390909624627,-0.7484689919591087,-1.7916037878361095,-0.5744630073255359,0.6961789366393291,0.3895306811329451,1.264990843041886,-1.27354098467934,-2.904882078725929,-2.9777199523586457,-3.6631186390344985,-3.3180451671104527,-3.46871632286854,-2.1471598375221435
121,-4.348912601031337,-1.8176601236740084,-2.6489787425507654,-0.9217695089934681,0.5498959499898948,0.7938032029573241,2.0324195538076597,-1.3941172514401392,-3.9533769866446535,-4.210586159516692,-4.7433364923904415,-5.0641873339444805,-5.157902881570402,-4.273530577453758
122,-5.597594632423274,-2.6500577722397156,-3.2341983201496185,-1.1619522690431516,0.39114155261373484,1.1028623407835336,2.555325982334844,-1.421559354059444,-4.593845980754199,-4.952778743688093,-5.32330542006365,-6.245009958639439,-6.276956685060333,-5.864904762767782
123,-6.24232851332794,-3.171923215839357,-3.4999536174018875,-1.2781437154613362,0.23256369378570033,1.2910624923971425,2.797865331791993,-1.3395135576749821,-4.776748255991563,-5.169933379259997,-5.378681448148118,-6.771775314598756,-6.743808228541416,-6.783445605594887
124,-6.252013187444595,-3.3491163485975415,-3.435005068386394,-1.2678379388819574,0.08425007647682853,1.3473067784407,2.757662066238087,-1.1449650189680234,-4.505562051274331,-4.886569807528021,-4.942935739227283,-6.63194491453509,-6.552785479083315,-6.97543627405973
125,-5.668945764225504,-3.18912627668488,-3.0648665268851776,-1.1424302100174495,-0.04634087070909453,1.2755195230817022,2.4634930509967976,-0.8502970068525063,-3.834698423860893,-4.179083605869481,-4.0999933981478085,-5.887425105564084,-5.771461606681263,-6.4738488067565205
126,-4.600176365790311,-2.73757066073523,-2.4476580747747096,-0.9250373501386971,-0.15417361962870105,1.0932438934398323,1.9693647014101059,-0.48260371504178184,-2.86084452752928,-3.1629472380210113,-2.97115166923242,-4.663417283588853,-4.528383888617188,-5.389454911490705
127,-3.2007425647787375,-2.0699325426479507,-1.6657480013416623,-0.6469649398643885,-0.2363038717620583,0.8286814742696637,1.3460528440291482,-0.0802770077839633,-1.7091117908549904,-1.9760867126006483,-1.698259746334906,-3.129663660457803,-2.993726652042597,-3.8921501289648117
