,AF3,F7,F3,FC5,T7,P7,O1,O2,P8,T8,FC6,F4,F8,AF4
0,0.2669700973618246,0.20990993083054413,0.15270841100733845,0.3439574171575891,0.2729897731425971,0.3115246473326313,-0.3258279990820535,-0.18423751442277883,0.22872563940853793,-0.10462894577267491,0.07618818110567219,-0.3814942766072108,0.310888424473882,0.13801686182709658
1,-2.1448679105461856,-1.6431503335338133,0.6238390890664735,-1.3289908477898427,-0.5863911440327186,-0.30770726198603876,0.7200975783778033,-2.087089889401352,-0.8543646961965061,0.20691646737688607,-1.0577640518836808,-1.1648616567957577,-0.45155206824060307,-1.8156506464952655
2,-4.294302706330223,-3.277984529588725,1.0528857008818757,-2.7904906548311152,-1.307675350127897,-0.8678230127564484,1.72029482935737,-3.760029947861318,-1.8231163540051538,0.5481360498637151,-2.0364522557802465,-1.7578929598844377,-1.1306569378882916,-3.524891914132031
3,-5.987641785793079,-4.521865267836075,1.4046116150926644,-3.8762758852041164,-1.7892218621250269,-1.2871217285512504,2.599593057342965,-5.040895071819645,-2.5927729372705883,0.9140807687268044,-2.7580116977712152,-2.070357887450835,-1.6721007343389804,-4.829547440526389
4,-7.077111719685444,-5.243572256380987,1.6504816499701722,-4.466273849915721,-1.961798325226314,-1.5014648086589444,3.2947654940519313,-5.812731709966711,-3.1017038794345786,1.291660620564655,-3.153278440360837,-2.052376488075618,-2.0369867372298502,-5.616920271715964
5,-7.474669613838109,-5.367901702100723,1.7715727849689116,-4.498614484353603,-1.798468969334423,-1.4733281045736042,3.7598575031115753,-6.015973877821687,-3.317434086910798,1.6591047694163938,-3.193380957098541,-1.701668951495637,-2.204774585533678,-5.832612491543365
6,-7.160153033572916,-4.884517448624058,1.7604021703553216,-3.977090060585275,-1.318957877264096,-1.1973672230451782,3.969598547926614,-5.653401686268215,-3.2391059004173344,1.9868519501623942,-2.8923228825637124,-1.0641383987014208,-2.1746178638501057,-5.484653689230342
7,-6.18287042870588,-3.8499933643767315,1.6214663928129665,-2.971062994786609,-0.587793942917905,-0.7017566501823792,3.920594982514157,-4.787452643237775,-2.896142977070963,2.2399296781040907,-2.3042446212692367,-0.22762060376275453,-1.9649609486892237,-4.640522426666564
8,-4.656297566552279,-2.382548806634078,1.3704605253058433,-1.6076471010385274,0.29363045897788215,-0.04515105867460049,3.630250524907728,-3.530510933984822,-2.3433893303971343,2.3816867533909862,-1.5157057333023032,0.6904119506957521,-1.6113186042908758,-3.417464510784118
9,-2.746209330072419,-0.6497521190790689,1.032317187823602,-0.05688584555099096,1.2001313664674311,0.6903013326396356,3.133628029607363,-2.0297239924578303,-1.6534543398240638,2.3785396720088925,-0.6339611404065287,1.5595279232542318,-1.1622908290815732,-1.9672920698604917
10,-0.6532887728129572,1.1497107757829172,0.6383495827106705,1.4884757918088154,1.9992690744761232,1.4089656279653529,2.478715744990857,-0.44855309498017243,-0.9073380429215114,2.2052031671615993,0.2272676001440446,2.255060530305389,-0.6740523548680902,-0.4575173626251908
11,1.4080650584309202,2.808330429136727,0.22287904567438263,2.836291625841136,2.5691809112369746,2.013464450197899,1.720754426683043,1.052432156739638,-0.18459320119055514,1.8497252916921132,0.9626729793445632,2.6761786349462517,-0.20378374068793534,0.9488511118641025
12,3.2324656945613337,4.1336431657464265,-0.18023373532200357,3.818564481097931,2.8153271528548913,2.416700000341998,0.9163849360131443,2.333080069726257,0.44571833461637883,1.3175671061417986,1.4889233351434383,2.7606308329353255,0.19726089019340587,2.1123217214234584
13,4.645237572659023,4.970845828669382,-0.5407549812463853,4.3122816932717365,2.683872092431347,2.5527061481992224,0.11836828805337861,3.2874788267038655,0.9321882307018519,0.6339847330310762,1.7550813983380045,2.4939190567088296,0.49018330366504503,2.9323374396136606
14,5.520535722396131,5.221339377365305,-0.8346133339716332,4.254825050497652,2.1698455621325734,2.3850663872165456,-0.6284935205364315,3.8527011072060073,1.2455637509621886,-0.1558920352411972,1.7484596237803787,1.9114530067376836,0.6534455621892211,3.35715082908814
15,5.793705678669576,4.8547830421537475,-1.0455820774626163,3.651881687545202,1.3189172660931239,1.9119529570381404,-1.289832614838606,4.011866641556082,1.3801991464231798,-0.9896353654939024,1.4951072220896595,1.093280575458022,0.6856254679232692,3.3869530442105646
16,5.4663904127425145,3.912993755754017,-1.1660082392961877,2.5767293710357504,0.22247207547050546,1.167249166297855,-1.8424731999688009,3.7916745623743062,1.3524748789326297,-1.792754421987312,1.0548664798363145,0.152118658387643,0.6053597413525732,3.0699878274819903
17,4.603814860647308,2.5050455867783383,-1.1966104062361367,1.1609028471820073,-0.9934215805760501,0.2176576332831943,-2.273660565201185,3.2551988305723287,1.1965741617705359,-2.486206944620195,0.5117022560591519,-0.7835548555285652,0.44830528695600247,2.492372424101346
18,3.3247063909820684,0.7940736791854924,-1.1454713954093352,-0.4225895735405899,-2.183733215836138,-0.8438781392459149,-2.5791998777893523,2.491207234965117,0.9583011060721592,-2.995427602094265,-0.03931032878434026,-1.5888049975465752,0.2614138415246498,1.7632454752750235
19,1.7852864235379635,-1.0225986171533643,-1.0264266883019475,-1.9813072952618893,-3.20283243126896,-1.907741333543476,-2.761088663036963,1.601542153524825,0.6878257332798273,-3.2597992871123926,-0.5064567033033198,-2.16099183750367,0.09527324832910433,0.9975275268247465
20,0.15954537734921728,-2.7374765855365,-0.8570890769148315,-3.3277551875492914,-3.9230850159837494,-2.8592095337691945,-2.82523509132093,0.6881977426859055,0.43234064830523766,-3.241294273759287,-0.8151894674166186,-2.435065615006095,-0.004360881977744587,0.29890667609091587
21,-1.3815323376611903,-4.157947684750031,-0.6567555354105434,-4.302852815276377,-4.2512374057585705,-3.590834353574198,-2.779728437864918,-0.1583450739206514,0.22960425216235286,-2.93097925088555,-0.9192154301085022,-2.3929962253048096,-0.0045114740886980035,-0.2544084341930348
22,-2.6890704020553446,-5.129123817933899,-0.44442014768294524,-4.795385819108264,-4.140429459206818,-4.014348298758604,-2.633906012182539,-0.8681982548864675,0.10321854488651745,-2.3522491312733402,-0.8071905609610398,-2.065816856241634,0.10891598642513096,-0.6190938054043951
23,-3.651355721405508,-5.551544191487041,-0.23707537590062147,-4.7549082918566,-3.59625247977009,-4.070831678766053,-2.3982036125664474,-1.3976129508254418,0.060248118598764396,-1.5600326037698726,-0.5040059911918141,-1.5279124341057786,0.32794470445408513,-0.7899967835099635
24,-4.203158412915703,-5.391541486252646,-0.04843126129934023,-4.1964992847574445,-2.6760638162788313,-3.7380119987800033,-2.0845512954788137,-1.7305389630835486,0.09145151175745593,-0.6357560434344042,-0.06647953380655476,-0.8844149581475677,0.6228779749260158,-0.7970260631107491
25,-4.328528898101264,-4.683101816861713,0.11187472651882265,-3.196925010934153,-1.481672926954624,-3.0338278251392725,-1.7069378452455084,-1.8762989004618538,0.17400961563447975,0.32152010861551544,0.42586162318902937,-0.25367699904993557,0.9462439897437158,-0.6964000881456632
26,-4.057251537685829,-3.521219020778551,0.23855966879215085,-1.8829481514036988,-0.14640010717490004,-2.0157512488162213,-1.281744015561195,-1.8640183343273082,0.27626009754633,1.2067730284298808,0.8834576626888042,0.25240294280216047,1.2397927072445032,-0.5579070635086046
27,-3.4560173881395353,-2.0478866281702905,0.33050005746218214,-0.4135829615616203,1.181746449591785,-0.7757965069690002,-0.8275326430858276,-1.7348940901780476,0.36364866969928467,1.9220028567692173,1.2208752674840155,0.5470663953039421,1.443490450963666,-0.4504461289836407
28,-2.6160450407384466,-0.43282559786529895,0.3901294697255276,1.04112852284728,2.3585300248011176,0.5683935665474265,-0.3641527464962143,-1.5336529466684519,0.4049396473083186,2.388778929280287,1.3702651955893494,0.5833909508892873,1.5051177071952277,-0.4283532301397717
29,-1.6392357975657699,1.1483178018338258,0.42252800841261406,2.321850690565387,3.2611467767575752,1.8855432453547754,0.0887810750603555,-1.3006071901574918,0.3777142823831493,2.558597843779704,1.2920755470842373,0.36260846336005,1.3889689276340025,-0.5208296432945658
30,-0.6249610171288285,2.535334185762848,0.43432312446038107,3.2992663319957876,3.8027967953453823,3.0445990408017027,0.5137831750771911,-1.0655410033182655,0.2723229047909543,2.4195702265818886,0.9814365950509224,-0.06534753313535734,1.0822976547999619,-0.726219751890182
31,0.3407342900119283,3.601592578077067,0.4325337614660675,3.888482407812793,3.9423224577375984,3.9289536316842297,0.8973836463927863,-0.8442909569006716,0.09372026802126573,1.998440886778166,0.4693285029123459,-0.6092371915262498,0.598516934910578,-1.0120278356843244
32,1.1922959111803815,4.266754035089012,0.42349103153865686,4.056830368458098,3.6877649666953993,4.4494361877903446,1.2315817609140909,-0.638381106192528,-0.13904246541636942,1.3575842134198162,-0.1815425229472345,-1.1507699949882715,-0.02331623638313622,-1.3205723713193376
33,1.8876884211154996,4.5027080274950295,0.41195621392642706,3.8243549803462105,3.093525723453675,4.554536643581182,1.514491207073701,-0.4375304679259584,-0.39553013245642843,0.5873082725860864,-0.885437608691252,-1.5635498937758459,-0.7226297703203503,-1.579225820693034
34,2.4075024797752658,4.332381854817108,0.4005314468287391,3.257330563074002,2.2516767647102123,4.236588151505225,1.7499354932049782,-0.2243661853750125,-0.6383765665290225,-0.20555547314652634,-1.5454761729627235,-1.733791638454731,-1.4244485520488315,-1.7134426286726934
35,2.7509619158418483,3.8220599885839395,0.38942366037080556,2.4560851787182254,1.2787259337618075,3.5330577671242955,1.9459407542974538,0.019666077883185137,-0.8287823567772977,-0.9112979095397732,-2.0669443098345828,-1.579602102710314,-2.04846080200042,-1.660358513967725
36,2.9300507276193013,3.068687220336335,0.37658200148912374,1.5391248792402732,0.29971001630108784,2.522649875546532,2.11228231979342,0.30834676093165875,-0.9322534887032271,-1.4314438199881125,-2.3701203696541846,-1.0658345669013614,-2.518788446522251,-1.3807054694489658
37,2.963129041731302,2.1842153567849194,0.3581864929110999,0.6259472987416987,-0.5682070580064091,1.3165484144547575,2.257433646403617,0.6457648283372945,-0.9237965522694727,-1.6915154424922068,-2.4008824996509253,-0.21220000004801665,-2.77318233818341,-0.8671160237934824
38,2.8693035200740935,1.2793273995516143,0.3294243162589401,-0.17901981752960386,-1.2304498942498128,0.04573642110085074,2.3854103957657573,1.0232674738501835,-0.7919103530302609,-1.6508310999157076,-2.137766742166998,0.9066568297027155,-2.7705123429539715,-0.14751512951586035
39,2.6645043788939677,0.448817988269125,0.28545365708182435,-0.7992109063745743,-1.6261715577062714,-1.1541462269769824,2.4930770336815575,1.4187363106924091,-0.5409026309403361,-1.3081166523631016,-1.5947073163552101,2.169204263444931,-2.4957103452820872,0.7168964544649855
40,2.3597772549272875,-0.23945057607512066,0.2224272475303544,-1.1938711679983527,-1.7344678171481092,-2.158589778801354,2.568474197180811,1.7982452193585947,-0.1912735872226281,-0.7022352835344084,-0.8193149475778079,3.4220869285542306,-1.961695418244145,1.6387146532865262
41,1.9618166404453525,-0.75069926025118,0.13843256484187086,-1.3603418590097165,-1.5750226145413,-2.868699374554642,2.59062449408395,2.1197910895481824,0.22188164207657685,0.09206561463932657,0.11286175367356298,4.500092252460281,-1.2082051179274833,2.515351024909619
42,1.4753316396029175,-1.0839289584665692,0.03420747602782149,-1.330692838907773,-1.2033142646503707,-3.22255871190713,2.531086938084722,2.338513468588028,0.6523008050198448,0.9728953040821481,1.1071703734698024,5.248227233038033,-0.29782246798557266,3.24233376790278
43,0.9065084547658415,-1.2674075383037886,-0.0864876682821236,-1.163504928183344,-0.701242103141023,-3.2020304589638875,2.357278046833178,2.412655043573073,1.0474772010018452,1.8234135955844153,2.0605499190104313,5.542840101420635,0.6902167334811983,3.726943925360179
44,0.266662647772367,-1.3499338429580154,-0.21691804181037633,-0.9322521745110685,-0.1646193732545721,-2.834126060199209,2.0372973205072227,2.3094650488160933,1.3545791515265506,2.5260205635700546,2.8727278612063856,5.30888152664173,1.6676574010499132,3.900257549573918
45,-0.42482020424567796,-1.3894364363587994,-0.34786124240397126,-0.712150370020415,0.31066077209708415,-2.186769790076269,1.5457289449481497,2.010301745350089,1.5267444445039764,2.976834411838458,3.4566206998940436,4.530961178017026,2.5454433662091387,3.7259657506763797
46,-1.1389849155500096,-1.440788640298012,-0.46848759186280087,-0.5674721727030639,0.641887840734645,-1.3594977257489678,0.8696805113377495,1.5143266042416534,1.5290605496926928,3.0987085319026826,3.7468590667270902,3.256733217421446,3.241699782560377,3.204869712003255
47,-1.837682733086099,-1.5447650359248457,-0.567528327145083,-0.5411758642827916,0.7705026900044215,-0.47027949060593577,0.014194513933093726,0.8403710312916127,1.3435414217119166,2.8512133701076636,3.705685928190393,1.5922091726118894,3.6887816964010196,2.374603967261548
48,-2.4759022461014535,-1.7198357646080917,-0.6345810157509485,-0.6482909432454377,0.6694458487883941,0.35985161513975505,-0.9938517030155072,0.0267627308803399,0.972482163029587,2.2363728506370086,3.325851369751339,-0.3103065934747702,3.8388641364983256,1.3048221830082345
49,-3.0057825623450674,-1.958032577569845,-0.6613791467414635,-0.8739162887999941,0.34609998529301533,1.0223896203407574,-2.104147355092361,-0.8709025916570792,0.4397113776933439,1.299449620464431,2.630492662698101,-2.269989991694213,3.667742018653009,0.08868734536562863
50,-3.3817422392348893,-2.225491353583586,-0.6428568042514032,-1.1760018446280345,-0.15935619977313145,1.4351659256880993,-3.2442288289234917,-1.7838786397338415,-0.21053861770757595,0.12465845914153371,1.6702995950821806,-4.098589875214901,3.1766978676143642,-1.1680349996565516
51,-3.565962902448372,-2.4675700981500794,-0.5778686833965826,-1.492398593418489,-0.7797808423451763,1.5526064128649988,-4.323897280741264,-2.635949497086389,-0.9171743483001863,-1.1737129833868796,0.5184926493990007,-5.622073344426524,2.3924619236785167,-2.3587306526493443
52,-3.5333988763885484,-2.6177608645453962,-0.4694753304564441,-1.7510671919904721,-1.4301909003505495,1.3711263146888706,-5.242631905808436,-3.350209184379555,-1.6079522497819572,-2.463752074460841,-0.7357301961880263,-6.700060839248594,1.365413726391208,-3.3869719776457794
53,-3.275554030837785,-2.6090545978338557,-0.3247644499717057,-1.8819105282908821,-2.018921735915773,0.9289860585150255,-5.899428043046391,-3.8563605238872873,-2.206845642124682,-3.6104896184465503,-1.9945937223315306,-7.24066202202258,0.16624594621513258,-4.175484474455283
54,-2.802460689308304,-2.3860546937005576,-0.15424040167992384,-1.8284910893593123,-2.4593903569123556,0.30064993085029074,-6.204089069062833,-4.0978714515716606,-2.6423267783355295,-4.490888634951324,-3.1593613497873805,-7.209003532066463,-1.1186634361620538,-4.672098902967918
55,-2.1425711404201415,-1.916011249241929,0.029134503884401836,-1.5579285254541342,-2.681022502164192,-0.4135979056585928,-6.088690413619658,-4.038283439916535,-2.8556630298373165,-5.0075022928473585,-4.137634706332389,-6.6286190839898085,-2.392920617433324,-4.852254865924447
56,-1.3405715584699012,-1.1970722202283912,0.21112840854351236,-1.06753068349878,-2.6380596205775895,-1.101409120819917,-5.517765657484544,-3.665973212333244,-2.8082557713424103,-5.099205931724971,-4.849913256444263,-5.575820690925996,-3.556564709126519,-4.718144566478569
57,-0.4533986796621627,-0.2624013892118958,0.37752398273028726,-0.38715337884562084,-2.3152511198400414,-1.6536866270146893,-4.495777668193259,-2.9967425217472234,-2.4870876834476685,-4.7477567863609735,-5.23508552070984,-4.168060005509329,-4.512997115558967,-4.295036479986689
58,0.45504943272197923,0.8206416315980635,0.5153671341275876,0.4231410722965177,-1.729824027979609,-1.9794396835120291,-3.070651501505857,-2.0737702232807904,-1.907502552291291,-3.979441342382383,-5.254604394220624,-2.5480170210206694,-5.176039716848992,-3.625644905608086
59,1.3198785235927246,1.956385520238077,0.6140669633063607,1.2799108152028476,-0.9295659867986077,-2.0182128919382127,-1.3325534488808566,-0.9647138783185017,-1.112821762994283,-2.8616775124815925,-4.895173957907759,-0.86564250747985,-5.476717079312167,-2.763585915116915
60,2.081148444982351,3.0311942636117846,0.6662602825150733,2.0867919111159905,0.012686162626333354,-1.7484364294418602,0.5923351375488946,0.24392161571445403,-0.17068093250290073,-1.4950707322329575,-4.1698486039372975,0.7394240541931312,-5.369319198007795,-1.7669730821736058
61,2.6891381404962535,3.9270055714656666,0.6683841422444787,2.747188671899259,1.007439856965041,-1.190581191083311,2.552647116155662,1.454667615902066,0.833600771288141,-0.0019922962284782027,-3.1175163809936146,2.1527657468364776,-4.836284485797472,-0.6930628275567831
62,3.1083550534393676,4.536283379638046,0.6209290691864546,3.177440520732583,1.9587762792813785,-0.4046957840679578,4.38620925868744,2.568415242863797,1.8058962482364578,1.4868304103777605,-1.8008040229011821,3.2955707935920917,-3.891453478730969,0.40541670507103983
63,3.3198912542074006,4.776350675534775,0.5283711879266594,3.3185985003339207,2.7751652397124853,0.517338655519171,5.9363761562428525,3.494134168849347,2.653350517860233,2.84601510215203,-0.30249878898619437,4.129320220209846,-2.5812878695863843,1.4819835319740486
64,3.321954936642184,4.601106708631813,0.3988010656187516,3.1451080543564256,3.379565568231845,1.4637801081132902,7.068379860525187,4.157856324329686,3.2944525970988288,3.967857970307965,1.2793660258173178,4.654463971918082,-0.9837331115167699,2.496288575475956
65,3.1286531167377594,4.008462152527698,0.24328021046220147,2.66911278121434,3.717621597146819,2.317590652966942,7.683678849043727,4.509867298085522,3.667882085573487,4.771906823505462,2.8375612817262095,4.903652969744453,0.7954677155408417,3.4126447568642146
66,2.767327037160715,3.0423989108939784,0.07496433524109682,1.9397062967420573,3.7630213504872843,2.9716115468073068,7.730495871224414,4.529261301609365,3.739067042767175,5.21082408462101,4.262581899645545,4.93088057554358,2.6290216182233443,4.19792124659471
67,2.274906583807004,1.7892935612206189,-0.09195984965527967,1.0371766445652713,3.519449961407811,3.342296047564259,7.209199322472791,4.225334740601526,3.50367419908461,5.272132457791533,5.450090121118932,4.798455767487929,4.37668139044295,4.819629544720148
68,1.6938273015493106,0.36892523269905797,-0.24346555226395414,0.0630033025182664,3.0190067564891288,3.380172152557004,6.1718434291838165,3.635680132159548,2.9876314305029696,4.975996813538143,6.308446628599376,4.563997938334158,5.895716461288344,5.244966443343418
69,1.0680339292420828,-1.0786995152120955,-0.36692760008612463,-0.8730281730180748,2.317399448961198,3.075692353509134,4.715945968863022,2.821252253376427,2.2437114131720812,4.369696246614268,6.765811478713507,4.269572976463619,7.052522144567323,5.4413595244972
70,0.43948939908546514,-2.4090361078740576,-0.4523166980505434,-1.6668262550278692,1.4866235656404243,2.4597975843093183,2.973338682878356,1.8590601924808017,1.3451324107876805,3.5198156650781756,6.776243821624504,3.934697232109473,7.734406052150861,5.378725521294122
71,-0.15454972811466458,-3.489245593347729,-0.4932300531047799,-2.233198045124143,0.6061269069610872,1.5992733060093611,1.0955626280297852,0.8334373951295198,0.377002650312879,2.5033940964232277,6.324230775275491,3.5542839848524914,7.860456541471083,5.033271660676512
72,-0.6833995720732172,-4.213011578396056,-0.4876345751234384,-2.5164806759284417,-0.24638840032155354,0.5876919899686394,-0.7622977366275641,-0.17299055837625593,-0.5733007558971122,1.3992896349070998,5.427146850392402,3.1017976948279933,7.390391143754296,4.392320986995265
73,-1.1240087916598882,-4.512186189504357,-0.438207301400839,-2.497202453682074,-1.003375032829924,-0.46668816025583537,-2.4573024497293265,-1.0875113018175062,-1.4256058904283557,0.28086507522701404,4.135285593970306,2.5370380297025177,6.330409109018344,3.459382366206845
74,-1.461356795296576,-4.363967223621769,-0.35218584917124984,-2.1939411008482192,-1.6140589800353704,-1.4543439691940894,-3.8719708163047435,-1.8537235198308184,-2.1151003209345816,-0.7892064076075148,2.529303065030069,1.8172271086275589,4.7353132024867,2.2585509697001513
75,-1.6883657385380106,-3.7928891912506835,-0.24069021231952856,-1.6602067828248248,-2.048538116192314,-2.277412472220908,-4.923729963639811,-2.435427022081184,-2.5981897595892223,-1.7616189126205977,0.7151495423037645,0.909534011279656,2.7064922158307048,0.8373348250713003
76,-1.8054758874362715,-2.8675397392245974,-0.11754229137165283,-0.9768408260823361,-2.2989881991386834,-2.860477657945208,-5.569597332096019,-2.817675600910293,-2.8554156297617754,-2.6006361436904157,-1.183187765093294,-0.19708224919679054,0.3857307204812935,-0.7328458138654013
77,-1.8199749806620962,-1.6925134528069068,0.002317135178895256,-0.24100295039815334,-2.377997737051415,-3.1579696948864746,-5.805892408267097,-3.0050760626157693,-2.8912092358157686,-3.2822691639771073,-3.0325910869726975,-1.482769638408446,-2.0548062785030963,-2.358974994348111
78,-1.7451096524284326,-0.39662612661697927,0.10464414970690172,0.44674990057719766,-2.3144336616192644,-3.1574701718583857,-5.663468356433305,-3.0178164619887293,-2.730718650732717,-3.7912017477371376,-4.7006742556405925,-2.892122046468074,-4.425718106110209,-3.931723845616215
79,-1.598962729269743,0.8812150541887201,0.1777159266957142,0.9955651047676158,-2.147554777859496,-2.878817312833422,-5.1995449982030015,-2.886229270096275,-2.4143648653247665,-4.117415283463447,-6.065831646356649,-4.3350562937294805,-6.535656064322827,-5.333474070522956
80,-1.4030648081256096,2.006891779655936,0.21391241833344207,1.3358580150672943,-1.9202939148436386,-2.369469402686315,-4.487618324222419,-2.6448784886753116,-1.9910889906111018,-4.253462746312771,-7.02669790318627,-5.693535638208455,-8.207543169316827,-6.448475541940575
81,-1.1807247959285243,2.8651000932794712,0.21081411436824704,1.4278597559598718,-1.6726942675716558,-1.6970322202818888,-3.6070599764263296,-2.3271636073180533,-1.511383311115919,-4.193145144425422,-7.510286598697456,-6.833576201230002,-9.294364877047459,-7.174183130400405
82,-0.955110075427338,3.3710764332406655,0.17162450632386758,1.2661026717954387,-1.4364074559132107,-0.940133614193402,-2.6338951916048456,-1.9612576316263928,-1.0211348682759158,-3.931985637027357,-7.478159416707652,-7.621140065056349,-9.693109181706971,-7.432551015910785
83,-0.7471746695906669,3.4788781623471463,0.10481291179373652,0.8793540921902271,-1.230960359952584,-0.17891467461449664,-1.6339013495404784,-1.567881552572179,-0.5570744865621907,-3.4694485976415965,-6.930096627010714,-7.939854974904552,-9.355485884517956,-7.179927427978318
84,-0.5736065758984218,3.1854670591184515,0.022985844428783146,0.3261146045583696,-1.0622085886872008,0.5136880174387235,-0.658676693628952,-1.1600313910521407,-0.14427485193924275,-2.812406453433265,-5.904893067229136,-7.708111633462602,-8.294235383823041,-6.4142230188213025
85,-0.4450198187815034,2.5302924167308465,-0.05888500185197172,-0.31362648406946386,-0.9230569238527984,1.0789359068443916,0.25521960673025607,-0.7443950961391689,0.2042470252734389,-1.9790060806601257,-4.4780881883051125,-6.893039368693533,-6.5841506352353205,-5.178230134888343
86,-0.36463197789152013,1.5905296431684592,-0.1256436757619662,-0.949209968693436,-0.796188305204869,1.4769587433301754,1.0844676095681305,-0.32389965938235005,0.48612059290619264,-1.0018995950424643,-2.7566500436138277,-5.519167601750803,-4.35737082164152,-3.5583352650735396
87,-0.3276378184951905,0.47255618852923414,-0.16423120842019356,-1.4912186030897872,-0.658256145901136,1.688867412814876,1.8153361066157183,0.0993300850937395,0.7069589543907314,0.07017538837167561,-0.870868694303051,-3.6702184395605144,-1.79303739107684,-1.6783654619332826
88,-0.32142525530890453,-0.6994028830732268,-0.16573008202376852,-1.8628968594324546,-0.48480935877173914,1.7164122656796426,2.4392179797271907,0.5213152305963163,0.877114086809894,1.1732454451154541,1.0360301910409917,-1.4833747767391872,0.8980065456165867,0.31110238470807733
89,-0.3266995255654108,-1.7962832796991237,-0.1268579016486854,-2.0096142311220198,-0.2551647020638447,1.5795556349203195,2.9484215758175862,0.9344285959632799,1.0084946159769574,2.23174327405977,2.8197798948231005,0.8635859593697206,3.492201285533325,2.2470277147683846
90,-0.31949729898746665,-2.6975439317659253,-0.050668743439159135,-1.9052296235840134,0.043483331928621125,1.3124979394087715,3.3331370052829614,1.326764608321968,1.1119433698629728,3.164780566677823,4.347467242592907,3.1708586853027327,5.77415173071019,3.970291772672842
91,-0.2739863652014985,-3.30358010363215,0.05366732128411324,-1.554679241853561,0.4132454681814663,0.9587694946118201,3.5801972976308933,1.6826854108379259,1.1954554114562297,3.8943630719392903,5.509250411966459,5.238564402067376,7.557260138062842,5.342280833297535
92,-0.1658564867620559,-3.545990731877331,0.1720007291779347,-0.9926414985012796,0.8443038864003181,0.5659885371151329,3.673865937153927,1.984304482873251,1.2632923498593127,4.354433327694655,6.228168395091452,6.889207378621632,8.701844999218817,6.259591789090895
93,0.02398620702579928,-3.394706213891834,0.2871108245685204,-0.2786492247274503,1.3153014604962112,0.18081308531429477,3.598473240366872,2.2135101273577287,1.3158691272218026,4.49938776407863,6.466906595994248,7.9875993776420975,9.128642135990063,6.66490026447749
94,0.30580029117173707,-2.861262518568155,0.3811221530205071,0.5105527335471692,1.795177718300821,-0.1554940616448927,3.342362418808264,2.354087016236758,1.3501899860845556,4.310713570668405,6.230647367871461,8.455523185967799,8.826035169542584,6.552453094406255
95,0.6779227385238762,-1.9978450720789225,0.4380829849329116,1.2903231843352285,2.246124326966101,-0.41058819430793086,2.902348599941375,2.393556704934869,1.3606000497636297,3.800631910133192,5.565554962888578,8.27914691511001,7.850065630692603,5.96733737519005
96,1.1247146716923346,-0.8921065336089412,0.44633121929977665,1.9779162617071913,2.6272567081199663,-0.5634696201568633,2.2877766814535483,2.3244946972042033,1.3396789891743313,3.01207262070648,4.552972470010014,7.508259335273929,6.317144166041095,4.998542483730407
97,1.6160135724082372,0.3418266888549084,0.4003013131090519,2.5015926889773508,2.8985888467910765,-0.6057313781255516,1.5232994265261435,2.1452444416390537,1.2791941806399476,2.014856552679497,3.2999628328880477,6.247600539511452,4.390301070295567,3.7667306761820942
98,2.108447691327852,1.575326048211566,0.30150701096836124,2.8080614713709373,3.0249372276931297,-0.5416269222625106,0.6496784672486257,1.860089944545958,1.1711103699111989,0.8985258344001706,1.927314768063994,4.641711509634853,2.2606395288234196,2.4084130418885787
99,2.548751440520767,2.6789950442492447,0.15855486802564944,2.8675208241815273,2.9794455104041906,-0.3870224061812158,-0.2777866341879609,1.4790356982788362,1.0086920010526672,-0.2372504449697851,0.5564790343637386,2.8556376681747824,0.1262665263778018,1.0587576990641394
100,2.878931672602254,3.5366683256294644,-0.013816248086759741,2.6758815004667573,2.746493975247236,-0.16735182124193745,-1.1932155895102126,1.0173627019565523,0.7877213101579323,-1.293428802606291,-0.702950311956275,1.0543581026357363,-1.8287129010537446,-0.16455087747223335
101,3.04282816853435,4.058065489786621,-0.1965361143579928,2.2540942531919166,2.3238213253726117,0.0852572618491011,-2.02610758500486,0.495087053296257,0.5077937951501089,-2.1820942212514787,-1.7636664531418014,-0.6161035890186689,-3.4525885775417917,-1.174158301534483
102,2.993351110037223,4.18859340760393,-0.3685955299071757,1.6448339947491637,1.7237319493029273,0.3354674382905878,-2.7085759876316446,-0.06363732545001909,0.17356178892959298,-2.835378454346655,-2.567741526148031,-2.0433084500469105,-4.639660190681372,-1.9208661204382105
103,2.699512819589733,3.9151143506239983,-0.5097047846507196,0.907082043109696,0.9732892277231608,0.5485481001941411,-3.182897870721886,-0.631224318063372,-0.20429087701510695,-3.2117257432100854,-3.0896125092353026,-3.1569689079547043,-5.337594037517597,-2.39549184583783
104,2.1523221582251866,3.2669954691584415,-0.6028640932018289,0.10935867455578771,0.11341569933688839,0.6941931889212056,-3.408339511517713,-1.17758769453584,-0.6086082077929837,-3.298844412153084,-3.3348006868641655,-3.9306931145212003,-5.547929055857663,-2.6247464479702236
105,1.368676962239564,2.312350412980736,-0.6365107587772743,-0.6775393926702598,-0.8031484370682748,0.7499686206197197,-3.3662988359201633,-1.6714287396776382,-1.01610254428792,-3.1131571038821853,-3.3348327157051045,-4.377274604378766,-5.320095681287138,-2.662043569792825
106,0.392562351030653,1.1499842586713112,-0.6059689818283104,-1.387460996427446,-1.7150206257008356,0.7040109837652957,-3.0630248601344037,-2.0819593371629725,-1.398633367504176,-2.696029911713537,-3.139371582258751,-4.5389117613919225,-4.740185980325391,-2.5749368469634715
107,-0.7068725647710611,-0.10192962580388623,-0.5140227181055557,-1.9647752618640257,-2.556390241348241,0.5566383915383225,-2.529496121930492,-2.381043882648859,-1.7254345712802142,-2.107456109590651,-2.8069263375309528,-4.474475784233779,-3.9163738718779335,-2.4313846979968905
108,-1.8404472755342733,-1.3190452726415878,-0.3705478627537864,-2.368698391836123,-3.2620657779891595,0.32062473432125477,-1.818418739503848,-2.5456235943345566,-1.9661261150536677,-1.4181459266882221,-2.395637544200481,-4.246282017600864,-2.963235937158417,-2.287180363666707
109,-2.906989395112717,-2.384337262034959,-0.19126271494357397,-2.5758123089241014,-3.7730256366304773,0.020025268058587457,-0.9986875705636916,-2.5601726691146283,-2.09417992671781,-0.701102789639802,-1.9555197009202443,-3.9087143125357775,-1.9872227543431968,-2.1766318324985914
110,-3.8035737465804673,-3.2003318480900718,0.004230608238860639,-2.5807472509739937,-4.042022871744288,-0.31238882045975896,-0.14798750256479032,-2.4188559645732512,-2.090386773176288,-0.023741675838377045,-1.5232088705995392,-3.500538547686185,-1.0751887447513084,-2.107968717703881
111,-4.436883214324813,-3.6987161454785755,0.19485149197691642,-2.395191152479155,-4.038695634143794,-0.6388472480110218,0.6555502230788437,-2.127034511331735,-1.945818247746053,0.5585601222219087,-1.1197739603333174,-3.0419253184756414,-0.28727105561236393,-2.0640921632108444
112,-4.7343416198266715,-3.8463220979971955,0.36057716634887105,-2.0455204937134077,-3.7535829998408086,-0.9210412756104316,1.3416111546859761,-1.7018076966430828,-1.6638101768731028,1.0068609704686076,-0.7515931859981917,-2.536245358293395,0.34537155501501976,-2.0083228023512345
113,-4.6535621074498525,-3.6469505018659425,0.4847840012848865,-1.5694208806277423,-3.2004675590479095,-1.1247946303757541,1.8548826185872538,-1.1713852142304946,-1.2606083696679284,1.3007081714730113,-0.4137769214854792,-1.9757912426838529,0.8182496793649264,-1.893918875948472
114,-4.188759621036497,-3.1390192221294297,0.5561005171073877,-1.011893097966597,-2.416580985693896,-1.2243513878396235,2.1603196325643372,-0.5732325600805782,-0.7644977701209185,1.4378758406449719,-0.0952277113145822,-1.3498853113052767,1.1476373979939807,-1.6754957974736693
115,-3.373100141213043,-2.3895203691186677,0.5695493550481726,-0.4210347726411166,-1.460417503327268,-1.20570842443237,2.245911238931455,0.04889292543656232,-0.21345258548948845,1.4320917342091164,0.2157723866412991,-0.6534730421838187,1.362502568715912,-1.3201915046024137
116,-2.276464803902752,-1.4851889372380902,0.5268541712393779,0.15604337684004108,-0.4071799072759039,-1.0685240650898404,2.122695600207171,0.6487321641282082,0.3484398496483706,1.3092584817247777,0.5265506629975847,0.1056837874516547,1.495886934670652,-0.816526496411245
117,-0.998719011826643,-0.5220684505715661,0.4359020062672099,0.6768607608707785,0.6578078658555588,-0.8263119232720951,1.8221261448514803,1.1817275263370899,0.8753536038697923,1.1027913883867277,0.8365202365219363,0.9027398614843561,1.5772515525491646,-0.1793669652974922
118,0.34080138530518156,0.40522377100345963,0.30946669093784607,1.1065340201684508,1.6470980975684717,-0.5048579808014756,1.3912228438852847,1.6091568629006556,1.3243640577075495,0.8487286407545095,1.135726860805686,1.6953352690045582,1.6269721603328426,0.5498822316567196
119,1.6163410216910878,1.2132837439048405,0.1633967204860442,1.41991244135009,2.47967996466829,-0.1390466515505468,0.8862094588802749,1.9017208379745953,1.65979825741007,0.5812293728035738,1.4056493931364302,2.4271638556110804,1.6536815881269846,1.3078857594255098
120,2.709702348711658,1.8377187093938032,0.014535751521799213,1.6028059651537698,3.089136083868179,0.23149113941698526,0.36550633110616365,2.042181857942876,1.8567966154244389,0.3289708527272941,1.6220358473879188,3.0349587192441168,1.654601313038338,2.017999860240499
121,3.52339333542121,2.2382315680997773,-0.12133448894932179,1.6523002596389946,3.430428739689239,0.5673237859896975,-0.11700389419212512,2.026780071023226,1.9037004768704537,0.11279658270768167,1.7592118116417146,3.4576903067652403,1.618470883443844,2.601459516878008
122,3.9912807910479002,2.4006442310938914,-0.23126197705650825,1.5762078919903304,3.484475972702192,0.8340858981709849,-0.5176034539924568,1.8653007568926956,1.8030253339562867,-0.0552346219588995,1.7950521405167896,3.6463691255091053,1.53025221592526,2.9892750985193035
123,4.085399001106772,2.3358953785439636,-0.30639654770283936,1.3917437157816228,3.2599175731172023,1.0066013036565957,-0.8066288932709748,1.5798111378675055,1.5709333924080644,-0.1714667255015473,1.7156913951288937,3.572720260242485,1.3765192691360943,3.1328862227760337
124,3.8180619561219107,2.076392383886461,-0.3426454617785964,1.1235426926001646,2.7917998531391075,1.0717032217215798,-0.9702792755805093,1.2022093789731056,1.2352690677399556,-0.23919660902699813,1.5190852157462358,3.2351682779796387,1.1503819653678555,3.0118448853386095
125,3.2390486713073656,1.6703676141703725,-0.3406854267442504,0.8011686437036014,2.137288422719047,1.0293835445837718,-1.0103159552657648,0.7708344129485615,0.8323646139520797,-0.2665568421379487,1.216728464365026,2.661011074195606,0.854943979784108,2.637306141938027
126,2.4282939579771647,1.175062096490789,-0.30539138948960654,0.4562988062461836,1.3689019378201965,0.8921509424472432,-0.9419151903451083,0.3264776995818818,0.4029599500840814,-0.2641797193217957,0.833161731809408,1.9042979044389174,0.5046257853633869,2.0508044168605526
127,1.4851278966770485,0.6496227795887737,-0.24481138023422452,0.11980978338623177,0.566094108949288,0.6827435249533358,-0.7901518773021364,-0.09178410046756308,-0.012299234226884961,-0.24304873668585367,0.4032978621219499,1.039652000982514,0.12412843454504224,1.3185639483263751
