,AF3,F7,F3,FC5,T7,P7,O1,O2,P8,T8,FC6,F4,F8,AF4
0,0.08259941331382414,0.13128723100526812,0.07377383244039332,0.06858486659808094,0.06920980217789956,0.04649775195104736,0.06914790854157188,0.007217626358129962,-0.01064159567530619,-0.018172034881317186,0.13293726471419384,0.032556890364147835,0.08675094950501339,0.3692321430163603
1,-4.232737682265185,-3.751109768706511,-4.1229171741054635,0.5451452781250378,-3.37526319470904,2.8608125742497745,1.7034731981061866,2.173239276936149,-2.7354442615050916,2.957562821593378,-8.09166076055837,-4.236354215655213,-8.882833010314087,-6.549150241931886
2,-3.7609760230655134,-4.410872710940789,-2.6249688745912216,0.4146083920872102,-4.25865046775302,1.764210941338596,-0.57474848564616,1.804937697510242,-2.884939860921219,4.975369436614753,-6.965461828916772,-1.8284008049009888,-7.279408285631813,-5.796220225442889
3,0.3524785405505013,-1.841494222153175,2.233925150176898,-0.025277232601003587,-1.3998179159843893,-1.6024328713731584,-4.355248155827828,-0.3242985760049675,-1.440702625563542,5.291453904231027,1.205013390773448,4.688150838996919,2.4706641374191642,1.3272320331762348
4,3.0315558449072313,1.5089784924681655,4.0169016621048765,-0.05506445012138289,2.941708600753254,-2.862628969950863,-4.126867518866777,-1.463050967009695,-1.0751632426468685,2.8284475983899755,6.06090663592684,6.69114470299173,8.324492542973069,6.399031875145174
5,2.126562471540857,3.8556483544811377,1.450190232475868,0.41834637863407187,4.403974387727012,-1.1629421871899075,0.7161806317780559,-0.6178327550074373,-1.875200235269988,-2.3044958790748815,2.9116802528020074,0.9755446549870428,4.064078793214682,4.260404147495528
6,0.3175091617299289,4.609837736690404,-1.1805875112798798,0.6521118818514425,1.5840002079394795,0.6501447486602888,4.879868066406002,0.5550051667950199,-1.139595175222655,-6.481865681735615,-2.262216605772718,-5.978538638208648,-3.5443237120205273,-1.6317641233879558
7,0.04446338315761458,2.6525062255010448,-1.5672754614269633,-0.047794430278686524,-2.086879465367654,0.9669701177857717,4.3603812531935136,0.38749394226815964,2.46666789501473,-5.390275382983641,-2.486418568845189,-6.608734114621979,-5.129645361481538,-4.850129678504054
8,0.016102737007146685,-2.5051730657568236,-1.6969229124939194,-1.3212635330056592,-2.941736248083131,0.976730644108561,1.0272844322389014,-0.6465175981291821,6.321731988094472,-0.058736988851406324,0.9341400883053176,-1.398220977999698,-0.9830251266825694,-3.440538574340589
9,-1.4229240447321825,-7.2057568579885505,-2.268668159379453,-1.8004539729618037,-1.3686256563505341,1.3948810088771944,-1.3085568589519552,-0.8824816478941038,6.308900048711523,3.811667230894966,2.3707004540726944,3.4409347841258886,2.0269547417644045,0.24454690413194857
10,-2.536387397802666,-5.648487538190416,-0.658467009197585,-0.5296626323683363,0.177368079055544,1.0185647451051376,-2.100252451897165,0.22913640402883295,1.299457309137659,3.3849290912285777,0.7616139364981626,4.355889417365217,1.5902200430526734,3.6500358802051585
11,-0.9754166375953233,1.9212628446764242,3.2185092736237926,1.6311443587102448,1.0892000682362633,-0.5375816723657117,-2.8319853836113342,1.4845571697021887,-5.313633655369743,1.2367619316984149,-0.6926093925665577,2.668537042953647,1.011140746229517,4.828120899643223
12,1.6380106853638783,7.139192257992921,4.301232917056999,2.5879063845857115,1.9436050531425608,-1.4617118187710119,-3.0455703022810927,1.3949932002258518,-8.467339949576335,-0.39505189725015183,-1.1577150742599265,0.2585093557672038,1.2056343637263944,1.934609307407146
13,1.6685069845785094,3.8187560600758697,-0.2838654775564627,1.2529638752448697,1.739513869764617,-0.6689826664116652,-0.9849888724645633,-0.19072390182188656,-5.878008398242434,-2.4490671906844943,-2.522903886961528,-2.5036571342424705,-0.6974112450698511,-4.1526222385904275
14,-0.6513822090125008,-3.1182574860254877,-5.163548738056112,-1.2205375885166483,-0.687673861423912,0.10869137876214638,2.6692102841342416,-1.8663783980854547,0.09737938601459054,-4.214805152647219,-3.7719943382826506,-4.386869306570118,-4.2825683059163735,-8.037461973649746
15,-1.1474963796961193,-4.285160228870086,-3.21442472566729,-2.6054294651134557,-3.169221289367974,-0.7640917228704892,4.730880105029804,-1.8653906137226113,4.939124313417512,-1.6977508701158448,-1.0476404632294882,-2.8081617793273765,-4.220155100462416,-4.531705918779839
16,1.7332190088695043,1.047884313213582,3.7723394006440345,-1.7006343141578553,-2.0712548111669893,-1.6161779227152497,3.332965469438467,0.12043228857712994,6.005178515656106,5.16224615039143,5.154564507590556,2.223624288344399,1.6370676906548756,4.375899837410001
17,3.7371800988319146,4.609302457507904,6.4637041308595276,0.6271418991200567,1.83490865974107,0.001444731776132014,-0.21652564318899276,2.085653090274249,3.7968237993357197,8.647085833750404,7.964292136587062,5.914824921497263,7.309547717600985,10.01938518420081
18,0.6051686397617518,1.2794752471977093,0.49869122417303957,2.1849820268348736,3.402954107742003,2.705270301461301,-3.4143533836855324,1.5974979704030086,0.15501467475705583,2.402891380592402,2.612496353917001,3.4219133932317027,5.5445648484637555,6.140570127622868
19,-4.93941318815275,-4.266275150442621,-7.057312636655002,1.5437436403319638,0.5460366581399978,2.753193960976099,-4.5130736582442195,-0.8764431442449606,-3.0319212788648744,-8.199700885106267,-6.0738708639063095,-3.4237091846118486,-2.5716853445390937,-3.506003282295008
20,-5.586360369683063,-4.578743376107108,-6.432163228717701,-0.3462069130652424,-2.393823010075362,-0.04342594393374487,-2.6725522719367847,-1.987421284169246,-3.67572904282356,-10.941683253403783,-8.425227384249569,-6.874284160686025,-8.12599050472419,-8.501104795944421
21,0.7774807278679478,0.7857720008697033,2.2254912413431533,-1.2326736586684295,-1.373834393893953,-1.8355289853901828,1.4252628691247446,-0.10109397765774825,-0.9079906307130858,-2.0332392268895694,-1.5297091218918617,-2.2106679450246807,-4.509670032689751,-3.5052463008220203
22,6.987411658341163,5.082367364568336,8.650374364919173,-0.5167009539804903,1.0977937969106328,-0.9218416295523861,4.68812015771804,1.9783935904420447,2.4140830617597633,8.52580341781138,6.762005743812653,5.768582083315109,4.581539868359255,4.810585362146757
23,4.955804817405673,2.875326681603332,5.044758831343049,0.02476858904526924,0.5180139211725152,-0.2300704017244098,3.7564351493852266,1.0696637534067213,1.67793578632103,9.02871583151457,6.576881772357057,7.614793678699328,8.453972806727466,5.241845369720168
24,-3.5469451054852295,-3.2447833617878152,-4.335325878441998,-0.7517599750126762,-1.8156057986832534,-1.7514247516502892,-0.8264333586271881,-1.4328141362302704,-3.014549880840581,0.2210211803932653,-2.2341167594160334,0.4264040284656019,1.5200492491222013,-3.5248405917656234
25,-8.250103263795161,-5.582197188880945,-8.492483191661607,-1.138068345807739,-1.0198991741432581,-2.4833201310797253,-4.2774312530906204,-1.8102076722815272,-5.275373591838779,-6.407138299068056,-9.128008213636967,-8.132172635916309,-8.748543439169849,-9.970108659402557
26,-3.110992347182994,-0.8115899849056792,-3.060906943229911,0.7705739958899407,2.664120806538782,0.8383222843921749,-2.7247730974369904,0.1079996099767668,-0.4472826167733358,-3.601247383611377,-5.055977442478183,-8.294346361816757,-9.251125040863156,-3.990460275738696
27,5.843117235565401,5.489757839455517,4.968812353074628,3.2481809752863295,3.487901689284329,5.563566089456189,2.0600382080209756,1.126332085326906,6.927300937136349,3.032937496801474,5.932333978647824,0.47702195148779397,2.118479708904185,9.18666963113693
28,8.044242164859737,5.679720675360789,6.53459438880608,2.5667580349565533,-0.6014106536789338,5.541615909113118,4.230378605207195,0.19793502461935392,7.714593802951855,3.6354230709726876,10.837272428661171,8.647095618470907,11.958250756546905,14.392899533795594
29,1.6182385691836711,-0.1296068584184241,1.394205139727145,-1.4262966651992954,-4.107127166218711,-0.7273898098848529,0.5549263636794767,-0.3300266132053221,-0.05515569717819579,-2.3559335553566556,3.7981693860525616,7.638179672250263,7.90275169669472,5.186057945202508
30,-4.994642053578796,-4.609621323804928,-3.112255535826753,-4.315404441449755,-2.1537176845128587,-7.326009921763867,-4.991921305197385,0.6429936264776559,-7.94500935814997,-6.123606023030098,-6.498545252667236,-0.33919730149589605,-4.600429695773435,-8.2479582456718
31,-4.736404369152664,-3.3936841308145262,-2.598281394141805,-2.8755325484030565,2.1188329535457626,-7.365091625905744,-4.975527206059236,1.0690777400022027,-7.173620260325111,-2.073646743874454,-8.336744193711109,-5.913419079457098,-9.6496881239201,-12.03954840906385
32,-0.5506597462696198,-0.1695005283711004,-0.4251807916750413,0.8081205733344318,2.55203862395383,-0.7152759221602338,2.1925783813054447,-0.2747383739739007,0.8399670279139083,4.872236417060965,-1.7649013264677267,-4.581187317087532,-2.811098942339332,-5.114469083306545
33,0.6644251834320952,0.2570609480626556,-0.841703748216171,2.745715915126533,-0.8093570767144554,6.134494807344657,8.731564438368498,-1.4404530359961571,6.755237582693045,6.59984619461375,3.4568531169289463,-0.6874424151043623,4.234473766639661,2.0972067950855906
34,-1.1957337729530164,-0.7294721215664719,-2.0125733419526166,2.157748642449912,-2.507527055937467,7.3057880645007005,6.046849944824841,-0.7554415862888167,4.8274288260756935,2.2363394459497994,2.3263460234746365,0.8236815880789955,2.2678101897037317,3.073457280966991
35,-0.48976393349707065,0.6810173049336071,0.113351653748329,0.8732693240483165,-0.1783402945791338,2.9283899829838695,-4.200524813958992,0.3640731123191287,-1.2319267681184218,-2.4617818571414274,-0.1929583318159413,0.9561029400705809,-2.754634037366339,2.008637936280802
36,3.8198693166293367,3.30503110238528,4.0459661333160275,-0.24528447970767764,2.6848133722290424,-2.5613885297258308,-11.131352941835898,0.1856021983140398,-4.264817755983626,-3.6127377494849195,0.8920822380341615,2.2814010319046085,-1.1618477863066425,3.843879454190475
37,5.722682548958,2.9014155176956646,4.3244815991258045,-1.3862903987480961,2.4009573229814754,-5.3523843521503345,-7.226477638372331,-0.3013839828301296,-2.3369502737563788,-2.590904792561347,2.794017815264077,3.1287082337925987,4.670132227182285,5.296306225713793
38,1.5097890361691169,-0.4394291737153738,-0.0061793716825458075,-1.7889811906226298,-0.4753848429848547,-4.557405321644902,3.2935709961008706,0.4349310481279893,0.6283817779346564,-1.6935196389058533,0.8416553905570398,0.7346976063695224,4.810929049451413,1.2660013747027825
39,-4.2983573820851975,-2.4784173208808977,-3.718316765626387,-0.6347477277667595,-2.8924743694711132,-1.3616630097872722,10.059626189869665,1.3553651098588686,1.0498014436372376,-0.7604677813493412,-3.263986902592976,-2.9340538818147865,-2.201141935163414,-5.25959686769011
40,-5.406778915103951,-1.5668902142572991,-2.9073451474197802,0.9365761641834407,-2.6342400810929583,2.2896783350203522,7.943773346686138,0.6580876080988373,-0.2665592641787386,1.0861337366513304,-4.2136091076108055,-3.3885208464346044,-7.087651308148056,-6.770194492582859
41,-1.9472399300548033,-0.17263254430475256,0.11974145232059094,1.2044827038366128,0.22115221721670697,4.430149472294361,0.67056908027582,-0.847544619898944,-0.4359361582025832,3.2193880481421364,-0.9972330145982583,-0.377794546818807,-3.459542207797744,-2.108089103678337
42,1.1650026853615743,-0.062456061379681876,1.074811192767964,0.37856018053848983,3.070800253159953,3.779583550538332,-5.21246464376302,-1.0512348949717467,1.1667544264630365,4.010550235474369,2.4956471738484614,1.804771885236673,3.6801860911750537,2.5608608975469624
43,1.3677305746764257,-0.3865317594350671,-0.39352552150422954,-0.36410299400790624,2.6024928376074414,0.5467075828605231,-6.8236183206771175,-0.18031856011786593,2.31313698336461,2.1899646406682005,3.021303317858934,0.7373629916525668,5.533186305781732,2.675136738339216
44,0.588153801098215,-0.36821172302109323,-1.2410721028360028,-0.9389103455924268,-1.1501270476853958,-3.1431260811760127,-5.074668869348133,-0.15093308387849272,1.2395734008990817,-1.9239869122004727,0.9485112467136753,-0.9796516662627114,0.9827537468755607,0.18938048890988382
45,1.2536246856773312,-0.16776900551433277,0.2785414809543305,-1.2721726134293192,-3.7217722537232514,-4.165469186891621,-1.1659359649178096,-0.8438788374762455,-0.891959462151371,-5.310286966863989,-1.0137578724689285,-0.10288779688714478,-3.171361332930803,-0.4399983948963999
46,2.687354728508023,0.5392543615515282,2.580456514006858,-0.15656830236427055,-1.5830230601332451,-1.285176865874464,4.080958959688439,-0.20114141773231062,-1.7021154457549361,-4.1908549404538995,-0.5626524216406774,2.304995554417913,-1.9243557222351946,1.9115863278404785
47,2.081357318463061,1.6968508489690117,2.9438774261750984,2.1614363675848804,2.650196679869348,2.525872188438928,7.707958382686951,1.7700359422192466,-0.950158147732117,0.6879841072592863,1.2636519615199415,2.410613482109032,1.565002387587446,3.7162258996183755
48,-1.3983995999034011,1.6611895754770567,0.5674943364115244,2.630978749207272,3.418370990946769,2.7741287161347543,5.3965779214186975,2.2466219767727758,-0.573853928203417,3.4879857897430737,0.5446552014679904,-0.84402229676019,1.0693003561949865,1.0284054442440205
49,-4.37091118105738,-0.10567442774172843,-2.5085534537455674,-0.13190371045225527,-0.026700023482129312,-0.5767614264807555,-2.425413121294204,-0.04313091092863777,-1.326008726547079,1.4722068055440212,-3.361760765266332,-3.8809478690204386,-3.0298907062402543,-4.475660825164408
50,-2.843770025907365,-1.0748901596503384,-3.3320370433673396,-2.6262564430908473,-2.6716792956688247,-2.620226997139922,-8.15897929536594,-2.3780674149040317,-1.3456741719008405,-0.05571357528249824,-4.61316833756231,-2.8536783512775608,-3.4716936353020174,-5.9677546282342915
51,1.8185615803706214,0.1913700291990812,-1.207625553013058,-1.5330111086197882,-1.1549990533709689,-0.6595283106337717,-5.252772463986749,-1.8041766009325324,0.7624414976737445,3.3248331011767425,0.855656665076107,1.3193658050331847,2.777595412565204,-0.7507101331408398
52,3.663304640506682,0.6884048016376758,1.4358266132696056,0.7730386408527149,1.5424418121492454,1.853958285039758,2.7427947990915027,0.5933122900204469,3.0850121156262436,5.684291333744694,6.770163950855797,3.831370339804201,7.939338802671612,4.430797535533731
53,0.4138204633257673,-1.8955266913654698,1.9882238290285723,0.3234768397149836,1.0731849966029035,1.3625509706590857,6.430743590563033,1.449248491485644,2.677997108921117,-0.813654144952336,4.221412797321456,1.938503403592801,3.411639146610827,2.637999402632518
54,-2.8988993583927036,-3.8824424682976706,0.6247030697164404,-1.4966636712247385,-1.5821723581664004,-0.04944818386129312,2.855442688383119,0.05930898475092557,-0.08398773643325094,-11.018467329167684,-3.8729804643790238,-1.6978292887834456,-6.635026623156478,-2.2943631321220574
55,-1.5750682262476419,-1.0169252839680512,-0.7177898304425887,-0.5350587208180342,-2.0858196427096543,0.7346290978954745,-2.1702149408522606,-0.9678595655975374,-1.7475565470857128,-11.834799643141666,-5.931261668237779,-2.771155551049189,-9.49356067148512,-1.6963202841939595
56,1.5767018856150308,3.5614788635936616,-1.1229390604252654,2.4559468442421886,0.23675714741876086,1.5280090925573258,-3.5530668632440716,0.07302019510717772,-0.5606691218931195,-1.5968687459491815,0.5221640582646973,-0.885688735519974,-1.5999791624024338,3.558177096633385
57,1.3095516693510625,3.288799087904917,-0.8667475932412003,2.680532052507434,1.7695494933284388,-1.1468528974699161,-2.3185751403207946,1.519918746496272,1.0880492811778382,7.95615474957059,5.085630040437838,0.8042104223268177,6.52589061492694,4.169874639107522
58,-1.2691385069016177,-1.3166178623013771,0.0227114831818626,-0.6603863337655252,0.7984702075277286,-4.66030320440464,-0.7645870210225072,1.0361895064258693,0.1203715323230849,10.145097447745549,1.0891916755389959,0.6490208830246289,5.582646276140468,-2.214244216614108
59,-0.8192041833751863,-2.834211908082634,1.4876726419962087,-2.8393975021580604,-0.11234146718047545,-3.4493144126932247,1.4328029128224746,-0.961530797530109,-2.70504719436484,10.151558082358736,-4.4924061283426475,0.4126566177224108,-0.30649857527388985,-6.6030991298250585
60,3.1400732074284163,1.9156288579788328,2.507940360942388,-0.9322460469284838,0.9854577718152828,1.7947658020854196,3.9861221580604123,-2.0234848274689634,-3.4802644104036684,9.951653055944936,-2.832574302268989,1.7179584947799924,-1.8054130279254161,-2.263340461803614
61,5.0322250538722875,6.626518299066941,1.9761920909869375,2.0365230355493904,1.9581080606378172,4.594854021059374,3.9107529843720505,-0.9669115404886505,-0.32247238883881635,1.557060180591944,3.5072510976248688,2.9364877548906545,1.5239429347379545,5.377339147160389
62,1.0830159233815917,3.7427107925444965,-0.11243379180001978,1.968409833990271,0.06512611310511177,2.3014819176594528,-0.2111498958885124,0.8989739955187267,3.678528020484941,-16.287366505678666,5.587080527636689,1.1659191958364963,2.38451481947608,6.626605276174568
63,-5.6908939879662475,-5.36184264471982,-2.9474887065741795,-0.7865531978329541,-3.477821192759112,-0.7134095496253515,-4.882596684713716,1.6493701621270667,3.871603709246975,-27.452997327366653,0.8136527394832813,-3.4233451217831434,-2.1066265442009398,0.05552237027891271
64,-8.833666523005999,-11.342769988457837,-5.0414786686442845,-2.803008786851605,-4.574580013289495,-0.4919692105508845,-5.29581984217411,0.8487656943642136,-0.05850292698838063,-16.733174004770785,-5.259861578450366,-6.61236613038134,-6.487310279228195,-6.8989639934822975
65,-4.799781889145816,-7.364725025617414,-4.048137574573389,-2.175391757411941,-1.257963693620051,1.067784930420368,-0.9638644600186209,-0.43318568496397447,-3.236956606484983,8.432804536751458,-6.631030821293861,-4.372409920525298,-5.179660820392723,-7.110296000413376
66,3.653738606124189,3.2817776116255626,0.9226478727612499,0.12167755027824129,3.544087978527004,0.26208646304961464,3.7744358033034238,-1.0721926454378448,-1.5141363317723628,25.7256708375186,-2.1323936353116353,2.0517141849050535,0.5294877107445352,-0.7602534431145902
67,9.420961054381221,10.725634702445905,6.27443940274579,2.1062054690115173,4.826546975736356,-2.6391204318867985,4.443494338333987,-0.7975622825472527,2.9764024910383142,23.25945908165129,4.600051203333018,6.756135033974994,5.269150831350987,5.742133443880569
68,7.52444410267403,8.836909261130495,6.517199372275222,2.5661886462790275,1.389409214356474,-4.09256990210895,1.1122053961527207,0.07329556778039646,4.145210478938841,8.027672827590779,7.732557299945221,5.806923856000993,6.080689489217508,6.519636417884137
69,0.25027635319889047,0.8232486255683712,1.2499471646022118,1.6017518897599021,-2.232222666623639,-1.9089155091853525,-1.8630721484639166,0.9685720750708652,-0.22025940326915372,-7.1422621789341205,4.144337239003083,1.4792546995560705,3.996558422229772,1.9640065417057653
70,-5.4476796775887815,-5.307055087973421,-3.680657639760601,0.22377143932653457,-1.5245483624852345,2.4115707715485737,-1.2285309500680555,1.0514777713943377,-5.297852517983091,-15.30059803299553,-2.5678830310671112,-1.8306907196131106,0.8856328984976893,-2.4621302306910895
71,-5.559227411381995,-5.26157969659653,-3.771405424861203,-0.7838424055623678,1.5603790049222999,5.122654836378137,0.9704317881775253,-0.11407413565806143,-5.233746204128378,-15.101359277778625,-5.517174139371518,-3.380767311200475,-2.5792589598568587,-2.7400116420183958
72,-2.1736263836284837,-1.5772443884817542,-1.274319481596379,-1.5892301795040213,1.3466123655080269,3.560575814641829,0.49612751197889593,-1.5083220435354348,-0.39821472938173946,-7.961761506813408,-2.8069210096697956,-4.474829341239247,-5.548795049295849,-0.01552859697161836
73,0.6820754201204695,0.68703828183435,-0.5099204090066611,-2.470754041131103,-2.851848409032594,-1.1105432441149607,-2.5640747223123848,-1.3488370474286977,3.6668772713683824,1.606318536582225,0.7698818995370054,-3.767873205896311,-5.857881476135601,1.9220460295014814
74,1.6308953774428665,-0.17788698455143315,-1.1239015642364505,-2.656132223888899,-5.273516505963565,-4.545429864540331,-3.6864555046758074,0.5121670539705361,3.4426665425820344,7.536200068493924,0.90233121969615,0.47996870756770177,-2.31541206269621,0.4791294012450289
75,1.5893917573877043,-1.3831046212802125,0.03565896790948145,-0.9911031778171012,-1.9706031229721024,-3.583994343046517,-0.7060300425467916,1.9328248192879083,0.7504476772249169,7.120190426197751,-1.1449140548327739,4.885323115477727,2.5954033969143486,-4.090180732946709
76,1.2245614179804583,0.16784066888407886,2.5918483784608406,2.1740431331291177,3.7768096724440223,0.3645809232228774,3.0262823475063825,1.148524014770859,-0.8967882829909232,3.3328801607581293,-1.6812511727971682,4.074692462307149,4.742463392965126,-7.77158457587884
77,0.49695258947164356,3.495799126623459,3.027628040794775,4.631248210445278,6.2782060169483485,3.2976369881698915,3.894392366479258,-0.7941867555973657,-0.3679762548856465,1.3771132670977129,0.5968414518038831,-0.5791401858643406,3.308690074334583,-4.483161797802635
78,-0.3421892461506677,4.431510900138623,0.6769877404898256,4.261579017263082,4.107592651186893,3.1661770991316356,2.701918994898307,-1.4839896090860965,1.2005552196907836,3.0022986384256116,4.034902285034074,-2.0381388099795115,1.363064600367927,6.4590067617220255
79,-0.7750750782493829,0.9540424226529949,-1.3706053062378296,1.010389646999656,-0.23638016068379908,1.0365641529009606,1.435774004740267,-0.4347358091820737,2.0704832414161745,4.169154918422414,5.538718799868996,1.23713210769507,0.9427858328504465,15.186500567190139
80,-0.8087245053821746,-3.8951358421930276,-1.5534664496367718,-3.1252377998590672,-4.181046949580269,-1.311070573261845,-0.906466716044479,0.5801327887204808,0.6688113125434475,-0.5007684519819073,2.4310207824657963,2.253266571654082,0.26741286116920926,10.359483971834411
81,-0.8558578233539516,-5.502671812362824,-1.5160107117935882,-5.583666595038679,-5.965821323711443,-2.924357359199116,-5.035310721309791,0.376369733811201,-3.0115035384021,-9.618629058283211,-4.283257816931568,-2.9922710309765166,-2.699897307770327,-5.371502158539003
82,-0.7629888371022517,-2.77389045141364,-1.7137493555441674,-4.715353711478372,-4.137271231700799,-3.152651858723336,-6.9123905599138284,-0.15116491648902702,-5.964077106188682,-13.784220607258598,-8.693500923469573,-7.496351396710959,-5.9891806839009325,-15.99926037192807
83,0.2797175675319415,1.659873203089302,-0.021200518838119256,-0.7272864325640709,0.8220913451685601,-1.471390041324546,-2.240961745875531,0.07005092812603837,-4.454456127237579,-6.209819409220395,-5.540296715635805,-2.8434130016638948,-5.14925526200629,-11.075681798412871
84,2.208096319783414,4.868543296836336,3.379091741024243,4.033927451392815,5.372413177296919,1.576807489772846,5.682610648144478,0.4712984764509617,1.2094683624871554,7.285056984108102,2.6837620766740833,7.2157914730749315,1.025034600715005,2.2380551555900636
85,3.067642566576046,5.305371023382012,4.1626724785481075,6.167251702902803,5.735453006078899,3.942897667112751,8.307757708943795,0.058454543430650874,6.280109554262204,14.101464356479365,7.6779673931528825,10.361694396565241,7.619577655561806,9.665589535081226
86,1.0505588525251544,2.499464392134855,0.12105634109079491,3.832879800213442,1.8234430575813758,3.374108899446195,2.6848265937022022,-0.6918047927833446,6.846422765276071,9.758990138079847,5.213875903794105,2.3487121370521202,7.953794951156594,6.799835511263303
87,-2.40111109996307,-2.2371422798413745,-4.236986111461911,-1.1273963742426818,-2.6682208215044443,-0.048839906663460664,-4.610505969205093,-0.5707957117787364,3.460544763880053,1.1643987882706093,-0.30083604249872004,-7.16130579276914,1.3073557187284273,0.6608886374016836
88,-3.6151605963464215,-5.5584089923202615,-3.464607034667122,-4.456171369057873,-4.0448086577909415,-2.953515314286312,-5.861928627101982,0.35580820088375137,-1.0991945904887295,-4.5813398366171745,-2.660485986952689,-7.80283831813072,-5.510380762671156,-1.9503355245308138
89,-1.653116032226655,-5.145914688330779,0.7292528032036185,-3.736336513862762,-2.0616131186979594,-2.0721320103532497,-1.048351063880773,0.8728344683657412,-4.952046215392376,-7.4726594213168065,-1.8614965506184546,-1.5769859761829201,-6.141815008009641,-1.6314349128802212
90,0.18221150159870259,-2.4119925958636226,1.980291363330593,-0.8313906963285732,0.3610947817291368,1.1010568256995334,3.5869096786715766,0.46361581540118474,-6.6595897846115575,-8.97262482222805,-2.0210710321023577,2.1693054805216607,-2.2468280060766164,-2.124715382434584
91,-0.4323009812423436,0.12626323110111587,-0.9601841686682177,0.8758384734020478,0.688809226967,1.7228159620227128,3.4470106337997732,-0.23619915226355673,-4.516055990980816,-6.426116439206498,-3.485152302806716,0.8298943113370972,0.17865748545862847,-3.510451268290497
92,-0.8258647074742507,2.639378453671976,-2.330211770831527,0.815271243086979,-0.3451204477686889,-1.3640167632965523,-0.1807998065245404,-0.6977737924334387,0.9998230002879367,1.858954203534213,-2.0367433029799558,0.4012602344552926,0.0949421546526976,-2.4183667620563334
93,2.186475492480286,5.8924355921692815,1.4323028665246853,0.9965133740939598,-0.07536041747378137,-3.5028907003480416,-2.967366737754988,-0.9362950805196405,5.68034950542634,10.328607500172662,3.292853995923092,3.8076011189726406,1.5692236174367604,2.032571801939601
94,5.945313681001879,7.14240133743546,5.592323247235602,1.9755788815250563,2.0361704205927316,-1.1943851797259173,-2.5878274253518656,-0.6770691665280186,5.474313303158921,10.984389201274197,6.679881661654909,5.3821185176278314,4.9876759534122685,5.549201276593042
95,4.779796790745183,2.940972074588049,3.8565724442442475,1.8066056847623342,3.2006776659354537,2.5690263556028587,-0.21179545690916246,0.5184599780348272,1.4403140821105573,3.370946806856713,3.3286025816991818,0.5612682800001071,5.022647025639255,3.8704815782543394
96,-1.3445209570613514,-4.402658939492813,-2.179937519879129,-0.281408623803292,1.1229441850305226,3.1610966038118216,1.8771173570238993,1.9282519604437638,-1.7297090408401934,-4.851217479186496,-2.7980456073066704,-5.482065563494278,-0.30529817921847757,-0.965022597673331
97,-6.025105778508764,-8.077678810359279,-5.314438092829313,-1.9838569305123677,-2.4203041005143313,1.0791272201046593,2.436354193807994,1.8011421374406917,-1.913851042215446,-7.302268408971456,-4.204280587038386,-5.174859796374422,-5.033085282117638,-2.9885826086758995
98,-5.11960406100455,-5.2332079756112035,-3.0337288579061075,-1.4468805068624424,-3.71336176831921,-0.19231263305462798,1.2111554294330842,-0.3778117050817762,-1.4479873900164497,-4.8770704770293785,-0.6604343581058987,-0.1482410819549897,-3.8827612591729563,-0.8000556758516976
99,-1.562388427364573,-0.14096507844452338,-0.020709198165199734,-0.2350467294101391,-1.9068718953893797,-0.21201848051940927,-1.1529401625110502,-2.618475253540683,-2.280426241651455,-1.7304779882877148,1.3198219022167785,1.99277650518345,-0.0958484130701214,0.5690626491158404
100,0.24048338103500308,2.088164333802294,0.02305644682042272,-0.4275241961406933,0.5767305173136428,-0.9082393825289032,-2.602666342656747,-2.4248658593600703,-2.44974685443265,0.4919743586867427,-0.9186929453912874,-0.10638498841645731,0.41079023224635186,-2.149457698466788
101,0.4819005270456531,1.43914004444095,-0.5068363241413609,-0.9496030858981549,1.811639347645148,-1.9138465891398129,-1.269795626319255,0.1623194757261722,0.33604091019619275,2.108456714064956,-2.8462378003201376,-0.849258607411203,-1.698111948345376,-4.872196223427252
102,1.7205577570357733,1.2383982460977943,1.5569365790831333,0.29586463022305004,1.938810621598537,-1.2158942073226862,1.6206471271701113,2.4123990729445572,3.9246132593220833,2.577197125408378,-1.035203257980408,1.67107896231306,-1.480257318504554,-2.291382438587931
103,3.890132109346796,3.0212306630739563,4.339111337382262,2.3485820030172366,1.3172887984530803,0.6467195958201959,2.65337244916682,2.079543982934725,4.047945319487417,1.7615354835451469,1.829967549824331,2.941331887956828,1.8727771727218592,3.8578117457656287
104,4.527620902115638,4.708452594756045,3.841500057289799,2.396427178507262,-0.11278742311772887,1.10809549942247,0.746227000234761,-0.01693445857025326,0.622128092910516,1.6868327432059358,2.618894104119214,0.8393242206392897,4.610412651901101,7.1645278261169345
105,2.1637998317001337,2.9546484915000444,-0.1855902423536291,0.08370448645353305,-1.522479792183732,-0.2138608391634279,-1.600721533891259,-1.3211979288494278,-2.074358889524189,3.1399453978164265,2.4526295098153956,-0.9244499226003029,4.394703134647912,4.986248295284589
106,-2.258860179320522,-2.8221498110876997,-4.164103527817731,-2.09877437601832,-1.5636989077374797,-0.999993052448239,-2.026640166966023,-0.8416768320523567,-1.7620788786674975,2.540843979251937,2.580345794580678,-0.2706511095957943,1.8331132937093997,0.1651124717275
107,-5.838828468643387,-8.162715714980163,-4.747476933492181,-2.1647854677746294,-0.2077335868701744,0.2782843275204326,-0.716931976926113,0.07828913015968503,-0.8087222869854166,-2.9426058658214447,1.0078952709201687,-0.3010326138150671,-2.1080074865303784,-3.8971285387486794
108,-5.295519758207045,-6.96086215275085,-1.4997565017096612,-0.426033461919081,1.2276927260071182,2.3780816004857734,0.9616407153033417,0.06759154561173132,-1.4243052446480207,-8.660127032910545,-2.9040604966583845,-2.4925471334584537,-5.786741080691556,-5.569741447281528
109,-0.40458292036497834,0.9910434410977502,2.767711127047019,1.4326222048991943,1.495355492640918,2.637170023432275,1.537154671323812,-0.5387768027551666,-2.0615858733615,-7.009111238791117,-5.138720206545161,-2.928708526325381,-5.882957893613019,-3.949225033097492
110,4.349068758812865,7.920071959554034,3.93850341597685,1.7222157721985336,0.15287995488418155,-0.2755076007544214,-0.21457271242876547,-0.5278451007948194,-0.620633378774177,1.36073460681832,-2.6609898886335706,0.8703100403684795,-1.201742550176355,0.17092913104362378
111,4.285921738765439,6.594993772604859,0.8200102752456946,0.027969012849279957,-1.8974997886750278,-4.172464936398446,-2.9568769990689527,0.5255372685114996,1.9311351101270267,7.354963562772983,1.2197031903105682,4.544688042164455,3.9430078558787036,3.181993108558461
112,0.2099603739501842,-0.8061358920578113,-2.9315999190444835,-1.9502219578995321,-2.3636028761121217,-4.504256020042272,-2.330500690644549,1.6655745756507372,3.432891038512129,5.59842932409214,1.5160215128829027,2.708001360049162,4.299620558281965,2.205678251221547
113,-3.128846460047367,-5.95715398339424,-3.2094859664744506,-1.857774391436176,-0.07761421994490442,0.30191952920710796,3.1968640485729973,1.3479646142600419,3.511197394118579,0.5300427321459987,-0.9827824656403568,-2.9582158769828966,0.591556908431996,-0.8486309740156308
114,-3.079661109455671,-4.857699801699203,-0.5456641154839071,0.39397176814513557,2.55298245887911,5.528669955574747,7.736404929918325,-0.7609648094566962,2.518546823226676,-1.565515640428051,-1.2833099887462691,-5.497669971452304,-1.787075878479582,-1.6267104212327825
115,-0.5655068437434728,-0.5748470628798573,1.8091900205855984,2.377347567956098,2.3582676982771336,5.136320124184542,4.369156649741159,-2.6515469377840093,-0.22352817115481105,-0.6037542741564845,2.203164618723546,-1.4814516096272305,-0.12108276443221909,1.0208134632970614
116,2.852132168989862,3.2421257005007478,2.9684244808852434,2.220186534909534,0.19156078707168772,-0.5473631910972497,-4.7536318000120685,-1.8221237115441742,-4.591058081330709,0.046247220709593556,5.6602504342955715,4.937506588967868,2.8722748125396356,4.0662221531077325
117,5.584309390771154,5.825700605094041,3.813595214121699,0.49291206366328966,-0.7064689554652951,-5.375888468395345,-10.110496488021237,1.2625077821059978,-7.59586245738396,-0.7157227805180091,5.275966709661896,6.989945257938531,3.182928542655556,4.1732950073565895
118,4.863255857626314,5.865470563497491,3.003687555671882,-1.2806982611909024,-0.393575239347402,-5.130137628573733,-6.65137242799519,3.1225937374002233,-5.799189439812855,-2.022261025585486,1.436763548247118,2.603942338749711,-0.1799487030460712,0.6776282675294684
119,-0.7777183838729718,0.856571066072328,-1.4999470876122554,-2.27727621839722,-1.5106537725846918,-1.206199998497979,1.125582251672023,1.5738074356667837,0.5147101237564526,-3.2429814303214055,-3.101138317656539,-4.001216245982538,-4.712520792853589,-4.354366332409511
120,-7.752879450982133,-7.313347284698084,-7.1439935647286275,-2.052820426174212,-3.190219689126488,2.972450807326768,6.4359626592511905,-1.4640950549935414,7.158246008495383,-2.948884585533009,-6.731827384769812,-7.1378955864461,-6.4472001304681505,-7.367582241444968
121,-9.657642818109263,-11.041484491535368,-7.900561111588947,-0.3791336842589796,-1.382063057588593,5.29596760941957,7.41605693059722,-2.636889728861331,9.763635268652255,0.9096556562554612,-8.968207676420795,-4.95322977820015,-3.0928016027980982,-5.560290684711443
122,-4.257760187805153,-5.5027197468193485,-1.999428464653332,1.75328385420478,3.689660688410188,4.610175620499862,5.450387671562746,-1.2485291385890613,6.79194965807593,6.633114287210778,-8.054596126269589,-0.09210142849559118,3.1614307556686825,0.2835610697754072
123,3.882484294945492,4.36417460866491,5.085928280812266,2.407304999390546,5.85642090789308,0.7780365227620857,1.058879439135192,0.6923982074232603,-0.19303807094234468,7.741575430358322,-1.4522006605330715,3.6462594776716606,6.67017375590822,5.593177593960481
124,8.504774333917949,9.422888255033229,7.168206636555191,0.9076341993415886,1.3121063124326962,-3.984119656730136,-5.049593204291555,1.4603002874469602,-7.5356623155314315,0.6056911412668321,9.561843478114357,4.511042195182868,4.051419373162235,6.2578074492927325
125,7.679053323767578,7.111442875010119,4.259802180854669,-1.1107970136748104,-5.285729081636072,-6.243195183597863,-9.302346167426562,1.1136364213230738,-10.973969295304974,-8.606010561969683,17.404918985213417,3.238523661124092,-1.470955651460078,3.0144552792632937
126,3.8718341626744968,2.5168679034440586,0.9648482405945779,-1.5298182401062719,-6.150375657446062,-4.4661455231006935,-7.504604096331115,0.4790643656691003,-8.012453477933008,-9.482294638502598,13.921027155840166,1.4158111871981163,-3.4882261274079154,0.11208508137154756
127,-0.32654617788815854,-0.33406069772028135,-0.2313628783781818,-0.11011895857001343,-0.04368054032871117,0.03637375283444901,0.0021201356656084247,-0.03712182530867382,-0.08967202342958076,-0.2589675230812102,-0.19598229278838927,-0.12407512089360045,-0.2798538476049363,-0.35743314254644726
