,AF3,F7,F3,FC5,T7,P7,O1,O2,P8,T8,FC6,F4,F8,AF4
0,0.055622628250267564,0.08256549187813222,0.030937625009854954,0.055724880441530136,0.013075323779857491,-0.05415098411506813,0.018505705747022795,0.02616916596376958,-0.0895165141587117,-0.00877158705738905,0.04170506416143204,0.012273624690592557,0.010362284043742558,-0.013104392377542877
1,-3.3687907743764276,-2.3103240582190714,-5.522255362113675,-3.2241968728047397,2.0896774720263718,3.7992560533815602,-0.6902105441655222,-2.4400567379859086,-1.9226924312516425,-6.43556562451075,-0.6953955358827548,-7.797921348087323,-2.8952819826318086,-3.87115812095942
2,-3.6591282305985335,-0.7638901675986219,-5.431181466723773,-2.7127026922578135,1.9275248130197693,4.884620241233501,-0.3764587360907799,-2.736220583248264,-1.2701687421424146,-4.8102316750991685,-1.593774501314438,-7.4393487726428384,-3.105780354348162,-2.9493886258337505
3,-0.39460454854196986,2.891603879606624,-0.16434844070995458,1.0513140811416033,-0.46421708441292564,1.248949641534699,-0.7411784166524844,-0.8707473551569266,-0.16990966492281132,1.57393160022457,-1.445835948256824,-0.6866005492861685,-1.2549998726283182,0.447100707083971
4,3.2761641610815224,3.380211183438402,4.629871153370776,3.8499258157061256,-2.731691695317552,-4.846619993205299,-2.6770376779997296,1.2371846598324272,-1.1135805750275143,3.458687012345605,0.4566073918075467,4.101539598209565,0.5694876219815465,1.1123113035388608
5,3.544020148016661,-0.5476766014616656,4.524756887363973,2.592888605253889,-2.3871023989819116,-6.86299499900496,-2.8791923848336842,1.953429154784954,-1.8422684449507578,-0.5876767441252355,2.4008636590676846,3.0932054982552484,1.8242157318459926,-0.8127646386410814
6,0.34563524005698676,-4.052188931446294,0.5461043923807731,-1.295662075756411,0.5671778191845985,-1.3213352502559879,1.5156433369378,1.3270459196955378,1.0264049126845143,-2.6782196775653673,2.1505387875817674,0.42455029871881605,2.6014834006323424,-0.7935783134865743
7,-2.549459181470937,-2.867558886972883,-2.9267791381598234,-3.7236142029332124,3.228723795335816,6.324238829329518,6.7227440809915295,0.3999369281030054,5.226494393658507,1.5974984733400088,-0.15031150907855068,0.6750996009144217,1.8607734417155322,2.1731543078893236
8,-2.452301871264529,0.8758105658160349,-3.135483905173776,-2.572338806444903,2.627849845902744,7.375047155458561,5.887592301431626,-0.2228604284231832,4.895234969720966,5.829609075983298,-2.5024556579892074,2.2152512859655547,-0.8675897796435786,3.759197568523141
9,-0.7405105617395844,2.2154895976555298,-1.0667734716027806,0.42388965433832115,-0.7509117786505368,0.843691048496858,-1.303786075276425,-0.7828894658871602,-0.9808223387438338,2.3371315816463887,-3.3439388047919936,0.5887140339431335,-3.405377499840862,1.0267504162640777
10,0.21366068093143428,0.6034453895128761,0.7126779031718758,2.27855111851474,-3.1310983345672176,-5.520670249972457,-7.36604539416006,-1.5445882306475929,-6.528181187573429,-5.604803706580996,-1.8771240561163924,-3.7825711413498655,-2.948900537527864,-3.1346300048393925
11,0.7108371335918509,-0.21368118121649485,1.174383834249929,2.000573374456814,-1.8198795057656751,-5.3903689930423,-6.3410346491527365,-1.8874376735037883,-6.142070650740689,-7.421442088300649,2.0401916225061556,-5.26992369501441,0.39631010421414314,-3.9863084319617585
12,2.0039763918276043,1.2382760703344524,1.222855365852217,0.73597992309933,1.4526293598156697,-0.8318146034758679,-0.4493006644607068,-0.7382844992006514,-0.7813424612573071,-0.05975921193258517,6.064163890650615,-0.979537269661785,3.559360867165625,-0.8884049108060652
13,2.82415522385719,1.986380472608923,1.5361526439958868,-0.23436390400021304,2.7028784180777246,2.209850633192823,4.03218063733042,1.6616316457552271,3.9541489167277124,7.257092354533285,5.537454356875322,4.532673955925387,3.5855230687655495,2.5197312885256835
14,0.9481697896079455,-0.1154901810592463,1.2993522172928842,-0.6138409695706694,0.619877448561987,1.7636417281039642,4.224874444394673,3.0959256219839504,4.357904154883614,5.33340091751469,-1.0289313750116675,5.003807523083775,0.26178355212404275,2.881792983333519
15,-2.5455542483100793,-2.7909782129360723,-0.3806762891299928,-0.7527357322945899,-2.1225598857860652,0.6352996867893961,1.952827275615426,1.7450452372185636,1.9078334636167444,-2.8670351113843098,-8.037557228463449,0.5167147494434656,-3.579128412711582,0.3417054140965369
16,-4.051254353202122,-3.0930279100591056,-2.713681585871972,-1.0419661459568086,-2.494507109961729,1.2559886407520944,-0.07629117268956422,-1.07042198256723,0.3262044908082271,-6.826804160594627,-8.226820708071662,-3.4572795100580405,-4.297284740630027,-2.388764539800964
17,-2.4176525376754365,-1.5676305685855556,-3.700007475572501,-1.3655531001645904,-0.5690726261172304,2.370005719017273,-0.9555767455522273,-2.2061760909618537,0.5786713814756386,-2.480873590063752,-1.4108978660898446,-3.471298290341889,-1.0507651284292503,-2.8315690415387014
18,0.12314198761258974,-0.01783376143914229,-2.0053954108613863,-0.8956688723958914,1.4171913087784336,1.096582664312825,-1.1766019354417685,-0.869712857844876,0.11646415376452297,3.8219472803742267,5.616638313493011,-0.9201719226211885,2.8913799756653025,-0.48407979716061345
19,2.006774166754743,1.9186113611511713,1.7997508805266695,0.8473452135967092,2.213872431009882,-2.741934180565079,-1.3000098527245452,0.46421645290604197,-2.8006719772515742,4.9612198926727755,7.361002104765644,1.6181271482053805,3.61400646545365,2.915893265395776
20,3.6515829989315325,4.5388505417508025,5.170475977345122,2.6675188607696674,2.1539920892133124,-5.416522653266518,-1.3251267168694356,-0.08874324792491935,-5.73636834059364,1.321840335441473,4.4347085206062,3.0138245506307313,1.1260872449503947,4.282260564991125
21,4.361679973026692,5.0556396234931595,5.028770553663721,2.6869424696711173,1.2252197491060004,-3.3911908354390667,-0.8746788865195392,-1.10786059088899,-4.602978370928001,-2.1223352436642835,0.3931520173089435,2.6254129220962197,-0.997943336210244,1.7150376968646608
22,1.9784113680834843,1.0504060702149265,0.7474500710476037,0.8342239864820045,-1.155624995048556,1.8010704464687544,0.15011365061328233,-0.36114998601205683,1.0777987509754487,-2.65982713755945,-2.6495632005696197,0.19057789868865752,-0.5301062934506235,-2.8068729739731264
23,-3.0316625744458197,-4.703910362639441,-4.33200716432982,-1.206392684045267,-3.927495534252216,4.874236569532032,1.1730506275937544,1.5855106057357453,6.994229906269937,-1.1340060816780724,-4.331047560917839,-2.6719974638130877,0.6385235925391928,-4.670355602062353
24,-6.534915217421375,-6.98061805355088,-5.977134938300941,-2.546486434071812,-4.157060183696076,3.419835976871695,1.4494015656963994,2.1696032516823283,8.175803982117802,0.6169938948945092,-4.560374949935408,-3.438167475651249,-0.4717733677468554,-2.0663443195755344
25,-5.4199908546104965,-4.547286297988913,-3.5281004870730333,-3.435709925657112,-0.5844690809686729,0.5464355315223137,0.9156665500847864,0.5591186565831044,3.547467494863102,1.0360974625152632,-3.233946168290179,-1.7916706820690085,-3.3195818499537904,1.3701557324050677
26,-0.904502553093895,-0.31558824056268825,0.3512979080091033,-2.9999732594512283,3.8957016237708086,-0.3623095653915251,0.2021511301914409,-1.3224027631344017,-3.310634397468212,-0.3133300513808153,-0.482209830644555,0.26192097281157367,-3.945679540052522,1.5860441835547274
27,3.7776443028695965,3.458528853931839,3.5070882453487413,0.29315231473705283,5.03171515653155,-0.3901023451953379,-0.14577580587088745,-1.5773119196084302,-7.36619530411804,-1.5080904814209286,3.1631433234980113,1.5685589555288202,-0.10073163955076705,0.0029869767475340023
28,6.438137209419857,6.146049091246747,5.267812820834872,4.948335295606407,2.010595304158846,-2.0442093476738843,-0.10806270821177501,-0.5269595654538257,-6.48517242581108,-0.2119119056695529,6.0611233244692935,2.684429128135845,4.965825504757114,0.7063353413352976
29,5.857102398231193,6.208345189383952,4.477015837255868,6.380302318122384,-1.9366953110822906,-4.125677869748151,-0.0004172892949901169,0.4174948081870192,-2.6917506733981007,2.2723687865577493,5.713374501568209,3.25548594379413,5.690850700564748,3.0328591046802917
30,1.6102945814907417,2.251452727746731,0.3042699676488524,2.45541667637672,-3.4756191728515082,-3.2149424584569726,-0.27132105781292126,0.7125801065740449,1.2175115659964302,2.299138146756154,1.52425108370712,1.6076694612245308,1.28815149093322,2.281770075502573
31,-4.231340665636961,-3.489613928923226,-4.70890387930414,-3.2413959220632615,-2.277976160337018,0.8955278968042358,-1.2043025520595607,0.5885869782154636,4.7907025493885005,-0.06938676161925636,-3.45853581301344,-1.9041826132950679,-2.8888096391788745,-1.9662754026683473
32,-7.349611607002044,-6.5545918929997065,-6.017871954625241,-5.6471318309274405,-0.1026267069866731,4.512773967366488,-2.231083095869208,0.03403809725858041,7.673768706364121,-0.9811025382527804,-5.670716992565413,-4.122921903356451,-2.6712448820362784,-4.267485495339764
33,-5.221251454149808,-5.380563609007131,-2.5921030788526953,-3.877999224804807,1.5107193909517207,4.596819807991404,-1.9527729399152476,-0.9361805481553196,6.537105344006299,0.0990865503358331,-4.873954075976121,-3.218978730514949,-0.7720799428809232,-1.7970723345447708
34,0.010148570160060447,-2.096641237386023,1.6993184283027805,-0.7583618040866683,1.7389308179439744,1.621612195162387,0.2753001882301062,-1.5176088052581056,-0.8729467691946832,-0.8483107133022173,-2.66273491645218,-0.8826909200616906,-1.6489580956249117,1.3799793029486551
35,3.985358884272341,1.304603951568193,3.196900906566249,1.557544640688505,0.32098415033388455,-1.9311973885355518,3.0793379596472854,-0.7194240117736789,-9.179362093782942,-4.152491619448074,0.8240539211103045,0.9472034275165957,-3.471209416609933,1.172240256928845
36,4.608727645226445,4.260100775529293,2.355304283318397,3.0189956415632127,-1.482523161180934,-3.734056576594011,4.282094771470648,1.2952271276371543,-9.26002026222141,-3.716079572955976,5.224418291030102,2.4886464294761805,-0.9577749022283575,-0.6196551137619654
37,3.0480609250380764,5.4869101599231165,1.4352192610849404,3.586790991181706,-1.1890041980739021,-2.4385148418578564,3.0876824469252897,3.019603397313412,-0.6457283933407623,3.0116148471329067,7.04746659798996,3.7273002709482355,4.9499592414398155,-0.3830045172871041
38,1.1466863245460637,3.371401064145228,0.8705168948754773,2.3827957032494385,1.5715098275941752,1.1206795795083384,0.31310657375959194,2.749758783108331,6.24119056461158,8.44071984623436,3.210025772333264,2.9293028477882985,7.056689822276082,1.5843427507404262
39,-0.6502727622732282,-0.8229860574555239,-0.26514808869790374,-0.519335183437742,3.308677587772177,3.2428748270923533,-2.8702740842235914,-0.014353983187859758,4.031268972523266,4.596308561428948,-3.3410770512771824,-0.3412797300046419,2.3801459977895316,2.5467382205933213
40,-2.619541438193024,-3.3812689853728313,-1.886183517271204,-3.16149424434484,0.8420676032207489,0.7195231221752361,-5.285560474636286,-3.691529735987344,-1.4478908822132013,-4.652507522077308,-6.185316597430403,-3.4598184538207244,-3.702010447317104,1.4126918638070576
41,-4.071622051916109,-2.874722147646035,-2.7970948499343455,-3.554182036293856,-3.6856108628774953,-4.12418327331681,-5.419844953324632,-5.163102595633093,-0.8272631973168999,-8.220914921657554,-3.543031223443616,-3.9993972883941598,-5.577184293635998,-1.017116308842012
42,-3.4094140101970885,-1.7201884862642438,-2.1787146438092355,-1.7253717685630297,-4.838825936167499,-4.77765911866799,-2.2908147969068384,-2.398461607909992,4.203583812202722,-2.747272481747129,0.32759850664731405,-2.4342168424532753,-3.805412326759367,-3.3674151063584974
43,-0.18260564224206888,-1.7577001586472,-0.18497045332491213,0.6682732495491239,-0.7974309551458953,1.1013875870891063,2.9818921161760343,2.818389511729544,4.280721596390877,4.076689311390553,1.899617484004796,-0.1483669313918135,-1.0839404582805379,-3.683926336725665
44,3.4984265338016898,-1.1972004391505662,2.1880909967915803,2.1281976973611427,4.206504317221436,7.457186105734343,7.148316410619328,5.829140322615416,-2.268640924469501,5.066503725888419,2.1153476780372595,2.550298774500938,2.340724484813674,-0.678483678520287
45,4.536366927484517,1.7496080928844469,3.2893334176900653,2.1955314387920057,4.847061216471034,6.808714402152589,6.940269097530058,3.736552874106145,-6.971468249663219,1.7226344499676645,2.439259574042715,4.700213453103878,5.655221878212783,3.524104314888916
46,2.1283678276339,4.66527974116605,1.9188634536682156,1.2057569788589875,0.6514071662932049,-0.4731246414583712,1.8577955890414168,-1.4769357861787717,-4.745111303872479,-1.0949675049916197,1.5928566622056002,3.7527398472689555,4.95964362204139,4.356380532079401
47,-1.20748248895246,3.7614203052202617,-0.9658208512378978,-0.10389970653512169,-3.659290367147069,-6.88998516500563,-4.546074624840919,-5.008109623706629,-0.6541412158069583,-2.614781876685215,-1.3368819892866488,-0.9279339906258111,-1.2307185307885207,0.41506708898529004
48,-2.480296394388393,-0.26215051762523434,-2.559098102726173,-0.9851162532067276,-3.4738530983740827,-6.724306704964729,-6.972314728605358,-3.754573686209664,0.334188260334855,-4.052301046246687,-3.702444117703811,-5.310742510871353,-7.0369249090440995,-3.7842139667250367
49,-1.5034830539397686,-2.860542767765811,-1.3160903570331333,-1.1690049696572047,0.47284422879408544,-1.5144831981681721,-3.6268494523418218,1.2114253993098993,1.876514501585604,-3.3048420991398366,-2.391795965457745,-4.550677605290166,-5.199136127953177,-2.9396074413414635
50,-0.3891285911358022,-2.07141184092442,0.8643640011963329,-0.9084384935750822,3.032875792644936,2.9850532999367845,1.2346156152525811,5.426013247789203,7.827385398212666,2.2054090427712847,1.3970731404574497,0.6508325070743092,2.7883163294475137,2.077949895999393
51,-0.29831584414084605,-0.7115876425287491,0.9863481417741465,-0.45892807424414483,1.1884410309085507,3.278041597245197,2.254717011463772,4.448821309540081,11.59366969173219,8.5336778846332,3.352353620017843,4.369161866218015,7.376120639253485,4.885095739350019
52,-0.26650926158210064,-1.250795863591634,-0.8488710411734851,0.14617885140589187,-2.0390060650490196,1.1772256639316414,0.14200413745624563,-1.6621497086368051,3.6445337989925926,7.388748159080292,1.5861832436774446,2.833912406247909,2.845997061157212,1.5106469687713286
53,0.5775677837712373,-1.8625054145505797,-1.565553554536554,0.73748882856949,-1.9623345758316386,0.7865698885170236,0.343716689102247,-7.244724702883219,-12.155438315639634,-2.5275436740521666,-1.3313539817989977,-1.1615454293645342,-5.234151377731706,-4.497619046527776
54,1.3392130920369043,0.20616817395722947,0.2628828832159899,0.9119183888129564,1.0718544275119506,2.6140949057685847,3.9186532900506594,-6.392343870831885,-19.609007587591933,-11.253370516866145,-2.1082899123548478,-2.7077301617430107,-6.9214850971019475,-6.2553142775600055
55,0.8788290205426557,3.591688525990409,2.2143192844573685,0.5135437388415436,2.4312425146448713,2.3180531717868402,4.7000045732488465,0.3799714816809018,-9.906022774500594,-8.901682915673941,-0.6878840610724479,-1.0844177554134096,-0.2587820414813447,-1.6157211229207216
56,-0.22447811095036857,4.158362097683226,1.6380594042858254,-0.1243377293408165,0.20601488365081919,-2.742474954552472,-1.22416683273556,6.647084050205699,7.318626034472257,1.7259993701999783,0.49530910168133313,0.7943091174463075,6.5079236341621485,4.580053189578988
57,-0.5719922773363394,0.7904260832898424,-0.588212444049886,-0.5746039971722819,-2.1818048597184703,-7.688353305764995,-7.799108837046353,7.26613155685212,16.45010004803311,8.90949177113253,0.22846269968179383,1.2116112986182346,5.360792406383665,6.12090097205953
58,-0.10826880244585582,-2.905842755555942,-1.730428907548537,-0.67789743062196,-1.448994719316196,-5.3201059344322115,-6.382083453469473,3.0823714314814774,13.18878896739626,6.750276716394012,-0.08703865620062717,0.8671602792989872,-1.6525695720977431,2.091715370146321
59,0.05563905838000954,-3.226663158802017,-1.0596852083928514,-0.4055323816575095,0.8840131597901718,3.146995350688582,1.8605404287498353,-1.6874322964324464,4.496009506657959,0.5165482860277977,0.9152232423677318,0.39393262269020124,-5.508386717690529,-2.6287411534202896
60,-0.3332164023538344,-0.6416312666086991,0.03458430136828408,0.2850498282847882,1.6214986081354272,8.160231163633632,7.413348670716132,-4.401468292653795,-3.2963392297090155,-2.601645323286298,2.0390145176614642,-0.3267792553153771,-1.9685521518163187,-3.2504997284849773
61,-0.35966932932622997,1.5147793576966009,0.6902031536403924,1.1079553500316397,0.8401893581527022,4.452213799766752,5.271627674030865,-5.043369342311457,-9.180982426857186,-2.191593925844002,1.1906371734775352,-0.8064138663754229,3.4443768070341525,-0.48086755385094976
62,0.2399147553511184,1.1465397888525852,1.1067013551037201,1.186761984648019,0.4320997083977214,-2.067213993679827,-0.24597937520910995,-4.006314479747072,-12.508351508793327,-1.929489188255471,-1.2732115135640003,-0.4476018732709095,3.322084134355067,1.0307439508709944
63,0.45915216169347856,-0.8520238070272176,0.9968579197384274,-0.16253789129479482,-0.06813612507308192,-3.5623638825630315,-3.645903824309186,-1.1437244276590668,-10.454893019443347,-2.706465356335838,-2.9371873695403607,-0.08378484056775955,-2.0432487254512077,-0.8946490484472392
64,-0.2622257559383581,-2.030954724045794,-0.2992428459452056,-2.1176468615595874,-2.015353730023714,-0.9850213725889977,-4.394017897418139,2.7520181259217207,-2.0675970507550936,-2.241655046783486,-2.7169496149059054,-0.7608986696293313,-5.655697041745128,-3.2360767188975395
65,-0.978284229090741,-0.7912887864786448,-2.04632930450318,-2.53846228843323,-3.3934865428388568,-0.14621642612718083,-3.4427678229702394,5.22389248515315,8.572656027570599,0.321250283903642,-1.4839593748977766,-1.4100668886654681,-2.79570759398131,-2.0338179116027213
66,-0.623230885502564,2.073073992016744,-2.2252553222717615,-0.2872910752669658,-0.9330413539905629,-1.5134414578515116,-0.2257538751649635,4.312378442770423,14.835927539335886,2.9613291618011286,0.5365799128898014,-0.12472666027922766,3.76359347644311,2.537609235663607
67,0.5231672905585396,3.8519241830724047,-0.04525457159529868,2.8883466483497595,3.694321357156264,-0.9879448474218173,3.9304146508648894,1.076018555950992,12.529302831187191,3.83205438553672,3.8407617579667135,2.423802780757715,7.409837202618503,6.385346165391337
68,1.4530844481390852,2.438503492901297,2.6200578312325855,3.7285788345388426,4.817762632151125,1.5294734413721036,4.790034560893702,-1.4470573966340383,2.9850192136920777,3.1541981238831305,6.4023314742350514,3.2547816351918946,4.7064818189505,5.550859544343713
69,1.6079868685519056,-1.3983501956228768,3.0402050489631023,1.0389794095239027,0.8006918874225167,1.8769446258768068,1.1620772268423447,-1.983011172211505,-7.656168478160212,1.464299231324254,4.068359387704502,1.0986820211240798,-1.8063939899133454,-0.31808207321105797
70,0.8007461405421804,-4.523457464180725,0.717495592862568,-2.662256670145256,-3.434035890629773,-0.4079666563381921,-2.245087976640154,-2.063258387333627,-12.803660023909732,-1.596630558819483,-3.2919348203481307,-1.8040752813362193,-6.68559706204944,-7.037322895876793
71,-0.9212058779617954,-4.187672239267314,-1.8451002014940971,-3.644738548496828,-3.3949681537975884,-0.8743363180992543,-1.3641949249489573,-2.656863908684817,-10.303087899124966,-5.121814115275256,-8.929678004204861,-2.605164064169696,-6.370457601735656,-8.43779293520992
72,-2.471012616728653,-0.3808263352900171,-1.9861977912774849,-1.057139598879166,-0.48595911255448926,1.9050497672879396,1.2744007850109658,-2.1226432565502416,-3.3125885602334093,-5.760682171274177,-6.415056875647687,-1.2588933290779798,-1.5273052651173442,-2.230953415982918
73,-2.084797996390606,3.8679436729097616,-0.2750635329786606,2.052939673170381,1.4133891276527157,3.3150198628110865,0.7355766329039976,0.5768281917120885,3.393842818850453,-1.6713560609498381,1.516504410107579,-0.13252038917150646,3.7153997263893253,6.043812564230526
74,0.22040372231629635,4.610884742466944,0.24726673468577526,2.2425841140263776,1.323910745041559,0.053448649029804736,-2.8079567813598993,2.9148288150303543,7.207157688686956,3.589832786107877,5.736365420127434,-0.6378876014063235,4.967345165661726,7.7229491132066395
75,1.826653270042613,0.7572572249398404,-1.3464620617591025,-0.27559104313472804,0.6997874415605423,-4.331566063164425,-4.618825266506585,2.055385243221354,7.894464297258686,4.7514136620146346,2.7390431244183437,-1.2641487620364684,1.8310296770430012,1.230695458860457
76,0.8504416078756271,-3.8706312728564845,-2.0320242033943723,-2.0757051900323207,0.14479282588090486,-4.504638176636158,-2.098938603140161,-0.45505614929332555,5.728803024794125,1.9594325230565957,-0.9591977044718436,0.25208990578249396,-1.2647502893680196,-5.2974033516896615
77,-0.8476755387510658,-3.9330044404365934,0.7103379017039293,-0.9074131078196633,-0.6916558710285845,-0.7179892525650284,2.441731438526361,-0.6588229489771356,1.0998652924991112,0.16269340626047343,1.0138730149859432,3.3109943468949616,-0.5764875425114786,-4.183054563878136
78,-0.22587562120836843,0.9356624186862333,4.362940688568668,1.6864165822354817,-1.274947042861155,2.2790605494778067,5.253183648912848,1.7760475667458204,-4.209636254884375,1.0935730259819862,4.963103416058065,4.613676944147396,1.5835970632648675,1.9508201281318067
79,2.0771792692699993,4.8365914908097665,4.132271966244793,2.5999468843791917,-0.6176258554688286,2.0032729067098822,4.738208429859973,2.877953100284419,-7.12107837122112,0.7523412736882172,2.6980691450021856,2.247807670880437,0.3817320175918035,4.607379177457083
80,2.3366014326004105,2.7776129898511184,-0.3469025684787599,0.877167912026511,0.9178484300314259,0.7388266155763457,1.6914932081504004,0.1591278507217001,-5.69185602045484,-3.032407153785307,-5.4174873967904125,-1.9645008282792666,-3.4657272664584147,1.3670664356763804
81,-0.5062718142043126,-2.5340661874036234,-4.110953281552379,-1.5873824064431292,1.8595939957695446,1.4014160797621376,-1.9371229111042334,-3.729629880454397,-1.0140788477569063,-5.508560267332092,-9.761391997097935,-4.75911920669274,-4.054818349276129,-2.280688973131864
82,-2.9276742569370993,-4.318899072595981,-3.3388013051648096,-2.4471428824482677,1.3352933661413455,3.1614947519274894,-4.170543771212688,-4.496941449200931,3.5690350582479584,-2.0196758645045523,-4.582442551147241,-4.636852600308314,0.44385585030006264,-2.3998368719695202
83,-2.19513239348386,-1.1706262156201472,-0.108171908595327,-1.2930275634605288,-0.38859697212729344,2.4154072995552123,-4.081957318991573,-1.6461550239007159,4.7871641953202495,3.5006307445288782,4.150714300772456,-2.240032182510402,4.098302372746722,-1.404389642271293
84,-0.3695755657240247,1.6970860270417585,1.0896489106338503,0.29184876912044044,-2.2651308641562147,-2.2313157724776556,-2.183309598858558,1.3959187493238487,1.7594039319278647,3.504947236687286,7.145817340591069,1.0149704338047454,1.8299592136758982,-1.7893854213522018
85,-0.17284807493423757,1.041515396550071,-0.2600436425040336,0.7705516288567706,-2.672585390239258,-7.101832281962701,0.27617058194476274,2.0183565606022946,-2.6249193466704175,-1.2695520165852487,3.652149515104359,3.711818358643407,-2.499424605215549,-1.1508038677018866
86,-0.09785662800310296,-0.06824971030501431,-0.6417689696359277,0.4239311580271445,-0.6949202281226682,-6.790283928937881,2.1011659438277173,1.3394038965836148,-3.440457453580327,-2.443457304300518,0.24233975169327748,4.622418591194065,-1.6464028360735568,2.7494974594398682
87,2.1561605577800083,1.1778026826762005,1.5720330689387176,0.6271246693132025,2.022154056540608,-0.4406066903758416,2.5811132439372915,1.6832098805320879,0.9908891166980327,2.6552447875346794,0.22198055399409206,3.170627879854264,3.578946902762634,6.292369742685372
88,4.0578618637149955,1.9813553763455658,3.4113802453619635,1.5149476758429796,2.60480107546675,6.6199741649191415,1.9580117979524936,2.7189215432274985,5.958890746057757,6.127214037319416,0.1603055228079028,0.007829468073028444,4.782262391171286,4.211412535431446
89,1.5755015932333694,-0.5284395628479586,1.8202939126618884,1.4950736094999666,0.9328842664599581,8.245851861197794,1.2407573380869517,1.9332199097481055,5.05937541550568,1.500583619507402,-2.787929171858867,-3.0595090735215087,-1.4673627935146971,-2.5634283704365615
90,-3.2917170357164967,-3.0863555432591,-1.686240445220746,-0.3414564940400072,-0.23832452134552723,3.547336685741219,0.8425799093901414,-1.4445018436168082,-1.8911621232818283,-6.093237146424564,-5.644811836601899,-4.181575629681027,-7.680116196247442,-7.445552252027076
91,-4.362388461338224,-1.3327058415240451,-3.2118372640406907,-2.4394342843443364,0.03626581567323357,-2.972553297846026,-0.050121459793522255,-4.792283691969854,-8.193705308058,-7.299634599070818,-4.1365147904107795,-2.885519534375991,-5.379641974061379,-5.84573107213501
92,-0.561313053813618,2.291988128077104,-1.8349784904218207,-2.536410946559684,-0.4665464476163027,-6.176665132000409,-1.8792548252255497,-4.883465426108612,-7.89742058511842,-1.5376957319177886,1.1456775453051522,-0.2953492745466582,3.2162169676783368,0.4894889031478917
93,2.5604239974275953,2.100140008344742,-0.09204962047221647,-0.5357170243581281,-2.3949334702077545,-4.340798979174443,-3.273083310313698,-1.388952651209493,-1.6675229642766833,3.7022531852940848,5.7102913099235035,2.0298520614084383,8.061339083712376,6.004473979651572
94,1.4967261348986312,-1.4432325660248084,0.33033458896184337,1.517857172012623,-2.7253817466483796,0.2886567786821575,-2.5437448330566315,2.8367460632211614,5.322350028935367,3.9773718566328147,6.131686706868476,3.0174932408704755,4.055638165194209,6.180734457858758
95,-0.7083769071387737,-2.5614945703617957,0.5260424513461818,1.9423015923289901,0.21487804425604404,3.5996503716752417,-0.17337948190870126,4.527601922587812,8.578879022313458,1.9019909373624448,2.373377212264041,2.1768004105839966,-3.4414505773675956,1.000146268805509
96,-0.547123810809909,0.27280535718433413,1.512180882129341,0.8860538586354919,3.2585825609996997,2.958705461446022,1.641555382002387,2.876302983567696,6.484087631794647,0.8032598131026385,-2.8507646715643142,0.03127192277353186,-6.051693086862918,-4.607189674392441
97,0.56814723892291,2.2197700066192487,2.0721253126736188,-0.42332978520240977,2.8154862109508203,-0.36076814670556745,1.8331444524894631,-0.09932523703278454,0.2974586487971672,0.25409607832821396,-5.652721792024439,-1.5509726988989136,-1.9512324968794525,-4.988244341279946
98,0.031644848422310676,0.3864209742786306,0.8795731466886875,-0.9288716009525807,-0.023712828311971475,-2.489812948815837,1.4266563015909977,-1.8222384521773882,-5.935550267743814,-1.0998228572000783,-3.8064123211425827,-1.1010218521914565,3.3975476339613637,-0.07211731540292529
99,-1.0076228276982568,-1.7003702066516015,-1.0992030145979503,-0.36776216638838877,-1.6483186056542583,-1.347918177297657,1.4180679825909857,-1.5866009040123201,-7.5358338794665345,-2.5185190179254393,0.612741636795489,0.15072424096687015,4.121380128227939,3.9801470239538173
100,-0.1661175743061953,-0.3585429447639342,-1.9942890948340108,0.5235942141672162,-1.114121336311618,1.1537541772670799,1.167029773046078,-0.6227798053462155,-3.6869345344130897,-2.5446568748121563,3.046525127211402,-0.246094370004297,-0.08425535803420166,2.250025345168683
101,1.5095816172254028,2.2188552996290833,-1.507823475472817,0.5644848728587345,-0.32763930364914995,1.997351731189747,-0.17540947803965326,-0.14823398355396447,1.4129527344828443,-1.0081416921728115,1.9782034329127098,-1.7711884785552958,-4.161405770656241,-2.4361834863731557
102,1.2434652376764284,1.7911643196617304,-0.5028127053731906,-0.3839514545769047,-0.28645112382020904,0.8010187976132966,-1.7836477062810114,-0.09634768102985619,3.673349679535252,1.2083204951840227,0.5359355906053747,-1.081615756704492,-3.1250071307775222,-3.2552409444788504
103,-0.7188648133496609,-1.1804754549869563,0.5987617779770061,-0.9533115050524551,-0.040737543815435914,-0.6152271240897709,-2.1341052238886884,0.08390424123103211,3.4561915009095294,2.8095349702790866,1.0922312404165495,2.2928555396718617,2.220121587502927,1.157965481862209
104,-1.6336656804392877,-2.6971357552646804,1.43521591871921,-0.2738139108969685,0.7131853099327076,-1.1178018205707072,-1.252327123717207,0.24566317041108296,2.6932606523144225,2.391828400814266,1.0867825431817564,3.75927450939062,5.390511589020291,4.576105017516835
105,-0.7425235072830713,-1.4323194512205326,1.068220645382622,0.435228262884651,0.6830282604005992,-0.9310532809712403,-0.46219994123772756,-0.023498825495149478,0.7891176312926772,-0.1362482658212942,-2.402979307147403,0.15546904066666595,1.7151730795855573,1.6712645319916932
106,0.07857760721062519,0.3040723833410328,-0.39956882715707714,-0.05271393500869225,-0.47090986818099334,-0.3227367832032233,-0.22526238382276362,-0.30822950597962706,-2.7117261878539307,-2.3243238296009263,-5.955611005783906,-4.3323983971311435,-4.8144296221079905,-4.282143095945676
107,0.009990292699000545,1.0296429315617923,-0.8761028027863281,-0.43919545764882495,-0.8808064787688823,0.48119547987429423,0.24703565881552914,0.14894746583419188,-4.376384030876409,-1.4166614543698122,-2.9961156653277,-3.181616566293817,-5.516027878397528,-5.234714560924256
108,0.4257479099681693,1.4830237722731117,0.7590576410699788,0.8654042708535936,0.5438762251550414,0.642890083578559,1.3502451357900784,1.007228723158019,-1.1867382529598367,1.5466420779691852,5.647349976787058,2.7217639998093466,1.3393824020363652,0.8402562953538475
109,1.6764082374132077,1.619195894764403,1.971616060150558,2.0313767413524237,1.6828423861155015,-0.23587122467523855,2.374761107226704,1.1124683756779667,3.4108138048579932,2.1811859663881363,9.94205237899601,5.410554418255219,7.077724263137933,6.516070995333366
110,1.6950250804889353,0.19087495044044217,-0.12003451797596504,0.2121870878375979,0.20658214167722636,-0.8752403007892412,2.4015593690964776,0.2967835134604731,3.494035212386358,-1.1165136615460776,3.1331530674215866,0.8178012825696713,3.8455838342306263,4.217322622371804
111,-0.5939112173251161,-1.9816509966276872,-3.5162047244981425,-2.803754888317325,-2.1981506227358705,0.11466121028136733,1.031489299136022,-0.4401200543225806,-0.6255187948150767,-3.9619751236587217,-7.911696406616175,-5.2093774345713415,-4.437168807468402,-3.5132670287142385
112,-2.7722304885306075,-2.000149408078825,-3.2776003203957944,-2.259099079853179,-1.78962940309199,1.7831360523283457,-1.42941283230817,-0.7487512139274405,-3.369796737007533,-1.8710530157596956,-10.52457661284286,-4.820551876553069,-7.3394565291429865,-7.00334715854872
113,-2.006139667479596,0.5599179761900172,1.051882403417197,1.6996965331277554,1.3105097759080726,1.7858731716108207,-3.6430871853001805,-1.3272743586657212,-2.4938860078759175,2.7077740624972666,-2.572321974331535,1.208138660207347,-1.9317513372195885,-2.1607429670576073
114,0.8429516693747284,2.2929601562069877,4.206689807526092,3.326702306819712,2.785812344968596,-0.22533819937064978,-3.598789580700805,-1.9439974900172723,-0.7781980213013048,3.642665403365849,5.785240715568057,5.1414304368280295,4.515203589342425,4.651728659886149
115,2.4267044797621216,0.8255123462361614,2.6795783400971946,0.16062939269831938,0.5655573108160492,-1.9601425688575185,-0.6371814349242331,-0.9441936634170661,0.3311040594857817,0.3413361205736801,6.659938661981984,3.058183377625248,5.341377585341454,5.765112932701106
116,1.339927323939253,-1.7301693875852235,-0.7791463652204547,-3.0148419345294983,-2.072437366815003,-1.7269347685022354,2.7851351047060997,1.9083571827564958,2.4724252814904837,-1.7294467043045363,2.9415044253895686,-1.1354975280141248,1.6953734788829344,1.333297409358673
117,-0.7355652181158114,-2.1152400638573225,-2.15344950164494,-1.8608720104993035,-1.7364014405444745,-0.6275081773585577,2.970309705811606,3.7735507518101072,5.076797352526455,-0.060754822889406604,0.147640173607603,-2.6981957304295605,-1.9381502569343025,-3.3420457148027856
118,-1.7238987135473012,-0.34614453536305223,-1.4972435467874852,1.1664163297296621,0.17656785663269522,-0.3558648650280606,-0.28115600629777593,2.0696231686348785,4.298139444327494,1.414665502440371,-1.7614555211679366,-1.8758495338900834,-3.3485293768510545,-5.026342925569407
119,-1.0981542276985674,1.3143603928679248,-0.6814691641879792,1.7519877437423585,0.6130449161460209,-0.25991962349842507,-2.427003428132719,-1.5547723223693088,-0.802361121669126,-0.25714899636664973,-3.911673917619357,-0.8961349357090912,-2.087412403399227,-3.4781986379052525
120,0.4545581060470253,1.7792048715978708,0.2433669446645388,0.37823748720000033,-0.03110276214181682,1.2912001696931186,0.0337042862188509,-3.08132797435656,-5.797408099535926,-2.195034920097905,-3.6577463600127462,0.24618751804644418,1.1141677903098943,0.8289630659059937
121,1.6733956339192224,1.3233219336305149,1.394739938005477,-0.060203789116616974,0.5450903410636141,3.319302879723777,3.9349528376733294,-1.4891729398993425,-6.750711952068103,-1.4732547673664824,-0.04613712465914575,1.9813474582163142,2.7946075812631683,5.635194332599637
122,1.38245486763582,0.08983559866007668,1.24972381541378,0.3929414885152549,1.9097006100523701,2.8386978912673047,3.314420957669271,0.4441383437031022,-4.339363601423957,-0.09336311654270282,2.4170852440073873,2.5944442392579936,-0.0008517742878689817,6.5182797417286755
123,-0.21415264182330473,-1.3935375930834153,-0.48087295048933376,-0.03868364130731354,1.4971878500882865,-0.5489388172203218,-1.6944756459439814,0.7007492876393925,-0.3524519232442735,-0.15109998583642226,1.0456033986224131,0.7636276463135713,-3.7841454804988173,1.746458565785851
124,-1.4205970100808765,-1.7000130345378208,-1.299702287586488,-0.985869207646275,-1.0444515614471144,-3.493059664367027,-4.771617681460929,0.3813571980959468,4.966077394507099,0.46406631095462153,-0.22308298134883828,-1.6820777127362259,-2.008971828233862,-4.502148079469047
125,-1.1795798992793607,-0.48354253233013683,0.024619383959618223,-0.9638654555417805,-3.136057796687405,-3.4356382691980114,-2.8618719830039305,0.7603118987302865,9.407894476674127,2.9243580543064485,1.5725225028992194,-2.2986418673151636,4.250424147284102,-6.868318855845015
126,-0.3492361853071716,0.5048558960691337,1.04613203724277,-0.2827553176818516,-2.6432030166377847,-1.5887528822126484,-0.03956323220817136,0.9432037868845631,7.971846299943777,3.4916865050570767,2.682888535734763,-1.3028372864539226,6.061745580731766,-4.56339071160901
127,0.051049025353150125,0.09540329177171661,-0.05315570182827506,0.02770754334829783,-0.003326859256727625,0.04873449440164838,0.17084377785873847,0.018651429354960482,-0.21569407128060997,-0.13332661544876234,-0.03968197324622304,-0.11300719155987085,-0.1528159454236783,-0.11056855762347252
