,AF3,F7,F3,FC5,T7,P7,O1,O2,P8,T8,FC6,F4,F8,AF4
0,-0.20965077237097185,-0.1722534754261054,-0.15065508420301468,-0.1677369700939627,-0.08613867942625221,0.14395049252800887,0.04206801592168623,0.012404873465656684,0.017139664129379235,0.008962394642729122,-0.04497183905566037,-0.15483223299240723,-0.03197355382967197,-0.1580623302106346
1,-10.10295392021568,-3.3516814146405745,-9.828901492418932,-4.866856970595048,-8.544457155577698,-8.293438501490089,-7.085308394840816,-11.051967572334348,-3.436839804884058,-12.201127633836068,-5.901136089777037,-10.117929592615843,-8.413199540773991,-12.797549234914149
2,-8.610254302084341,-1.3638197473204778,-10.747320815698934,-4.011121661936088,-7.742867311955617,-9.705776843137816,-6.428322992667977,-10.133259343231078,-3.315888555815404,-12.65733042121509,-7.416691355295659,-9.11553679285414,-8.280370441288499,-11.225352252241253
3,0.672366775132329,2.976172190002914,-4.087782631837898,0.5909361555684206,0.07127106923390214,-5.004805127887849,-0.5509376001825218,-0.5102577777418331,-0.19285337633424196,-3.2874389425542474,-3.871711139029865,0.4401144299889822,-1.1624364038872972,0.6268673448280508
4,6.4036322101715175,3.859791524327306,3.14270330571486,3.6478912878954555,5.558497676725769,0.534908932473794,2.8148797873109754,5.802463141410507,2.4581403295885833,4.9817803511426115,2.1533366583646045,7.369208677472031,4.748465736999863,8.232327950677695
5,5.342423177881521,1.2259565179052205,7.274643590869749,3.7780630486137947,4.6354504190027255,4.583314877191449,2.037916684264011,4.52417525335681,2.571895652906361,6.469413713258225,6.767525312087057,5.927961970124879,5.113585473070975,6.071773555738504
6,2.458662586557328,-0.9161337898725344,7.988552203434597,2.571699740795879,1.124068381307353,6.898778185931204,1.3051840624669135,1.135095081507044,0.9626494987839789,4.23456591680828,6.203661760830757,0.12889373711489732,2.3201661013339154,0.6835111344747298
7,-0.06441968040451188,-1.6720888007123655,4.029567028797554,-0.2496349870831941,-0.9129058084644117,5.49341877408492,1.8667164694687186,-0.12924745956938485,-0.7673071815799514,2.032670763406567,-0.14355579233923405,-3.8466302350623844,-0.3283137483579779,-2.146852183567773
8,-3.8373439759402883,-2.8327127637889307,-3.8915828474185075,-4.89698382066352,-1.6993046627011001,-0.2552946252778352,0.776512939842188,-0.5823100622784401,-1.8391197123002312,-0.08308680605199137,-6.6788830963524095,-3.8865407681132877,-2.206127437618563,-3.0449057339762815
9,-6.468770829857424,-3.444916952380204,-9.102347450677911,-7.135809440133451,-2.443225036887186,-5.320970765314517,-2.115288068294696,-1.1901925579694028,-1.8391679623865276,-2.134513414655215,-5.854711317239943,-1.139225436569056,-3.0261387140603553,-2.722770283138261
10,-3.2059931313548646,-1.0452052805822616,-5.8158385864343325,-2.6989404685202345,-2.31704377010399,-4.261085455154599,-2.7369324813220874,-0.4480725940270065,-0.5361643793312976,-2.5058262483655005,1.8866755066221248,2.091924804315513,-1.6237649210358034,0.11666404711477205
11,3.3710772335292383,2.657744101688267,1.6753136078161943,4.70339508126204,-0.47346513358268233,0.45783319455215743,0.21243122931695868,0.8756105956213763,1.1933166068439667,-1.4766783175909908,6.915424885260657,3.060101358237757,1.2177942638227932,3.1747480176380174
12,5.0685261527249335,3.4420596517609994,4.459318636816628,6.856933526614051,1.8406500682114009,1.7065280430469973,2.4808635909156433,-0.1914210298827591,1.7036585334110577,-1.5302596818328267,2.9548686543240934,0.8922137527012273,2.336149040189473,1.7550289330232591
13,0.9994594846387705,1.6328632276866653,2.1900137374764146,2.772722568074944,2.8885782233451525,-1.11792478679372,0.8499755486658443,-2.5698046835882775,0.6664021626365638,-2.438485612505584,-3.9826923534446736,-1.4016604392403493,0.6637814035986181,-2.2978164836873844
14,-0.8809508505037406,1.2796968872875887,1.859082076656817,-0.5394116585876255,2.3770415810719254,-1.4465893128912553,-2.071458210519867,-1.6443668963860893,-0.39579742369083193,-0.8159111071892555,-4.634156090869651,-0.5787578473392471,-0.9189830370930885,-1.735492729880475
15,2.315672756363858,2.195078759926364,4.163986376938022,0.0031702907872688535,0.7915978129709658,2.5899483217976793,-2.3706308617746368,2.234623141250484,-0.3988043635451901,3.535375676894918,0.16292656689713642,1.4750282531797598,-0.1978464668014087,3.376505541269343
16,3.267668922584224,-0.07842625111548845,2.0180078956948533,-0.4900945348399649,-1.3923073737266134,3.9681610813714205,-0.302931165481673,3.033007637840019,-0.10837681351738486,5.864587320497639,2.5453661809806087,0.33837370935613403,1.0629158205181064,4.015139221768997
17,-2.269640909417129,-5.145279761957895,-5.5029865270187805,-4.3386466195244475,-3.0016208001828484,-1.3071763391110336,1.5845752230505086,-0.6018143547963218,-0.3769798070635372,3.42250838285285,0.616152152196787,-3.1724695675013,0.5786592723855812,-2.589818167685273
18,-7.1638935373878425,-6.319952383145684,-9.023784219078344,-5.915280828701015,-2.6147733534076343,-6.018797511706406,2.4218290223438363,-2.180491656897483,-0.6010120133167782,-0.7598335898998033,-0.4703762040317506,-3.400231440153323,-0.856592902781207,-6.837723966716712
19,-4.571808828170868,-1.2111421399571938,-3.3300096827246928,-1.654543028428828,-0.6841321496391861,-2.418318110806477,2.2125873222299908,1.3699402421674913,-0.14464623550126668,-3.400542388093389,1.0184896836083284,0.9333953988424384,-1.546639687339548,-2.190046165267741
20,0.9487893663615166,3.5595739065006744,3.9809120087826395,2.9907836186168395,0.6195824153647389,5.112566816327469,0.13174249155414525,3.4552476978446514,0.28777085030099264,-4.982472955823997,0.934578759855061,3.8906928755191763,-1.6569561802848474,3.794202558916073
21,2.060552691655412,2.4883954923880185,4.586374187080618,2.7707164258324952,0.5983291459251006,6.453489469263094,-3.1467366642526615,-1.107349217253877,0.07576462507751983,-5.544091887523337,-2.0234905603212434,1.3650040582119236,-1.4463719288422998,2.377912475171876
22,1.0375256703772928,-0.3235402266170837,1.7073699883004958,1.450307431727476,1.1434163702490727,0.6922470877573675,-3.916373992469375,-6.121800532474702,0.021111522445517727,-2.2077160832419946,-3.1746008310845175,-2.3264972079382327,0.3776622559106398,-1.7218639293924363
23,4.213031016723534,1.67107819726172,2.613374865404407,4.220809501146453,3.40698000077046,-3.957592410557982,0.07352096409668851,-3.115028700558866,0.8089430694227885,5.019994133837969,0.30663249324957154,-0.9563100180574088,3.857543798184922,0.840025308223239
24,8.971957878089423,6.390944438051428,5.3839067668386855,7.185881198185361,4.95553006102081,-3.114334020104573,4.925628728107669,4.835896569748066,1.3446089381800237,9.706864530407163,4.524457591284468,4.0801283265085555,5.631787329336279,7.284441289364319
25,6.191894906165884,5.554370196190985,2.2490956845818793,2.5991768036742493,2.092269847961907,-0.9410835675081257,4.1535111720510836,7.089092071835784,0.19576057294857957,6.120065192848459,4.422056107817633,5.394599152130397,2.4895947255421387,6.304581121476968
26,-5.462364027958417,-3.2584167083135966,-6.7811937462671175,-8.245316054002137,-4.989613163476205,-1.7031726587809581,-2.723597542167769,0.6841283168239354,-1.9176949970501547,-2.786949710095337,-0.022198287075266568,-0.4188437117983157,-3.9546478473331206,-4.306924754633615
27,-15.466247241943632,-12.052004842906015,-12.080696946513804,-14.566950832126786,-10.413243886950383,-3.1412029512332973,-8.03697845199255,-6.214679689050929,-2.519157382969256,-8.49870779072454,-4.991687020646097,-8.126815218910341,-8.218346874422483,-13.546105377476986
28,-13.199471445148086,-11.12087912936932,-6.814175940977894,-8.722493112425642,-7.538212987837282,-0.6013642294565652,-4.426066232434847,-5.7407375103182305,-0.46282507314253096,-6.5674214829019135,-6.809041899871618,-9.660167894380942,-6.288161898650966,-11.15943770685005
29,0.06679712078234376,-0.2823150731247203,4.323262352643534,4.747350138637507,2.9746609989022468,5.535574244384475,5.4552046822196685,0.6442290731268138,2.276334782886751,-0.3231927743390318,-3.658341755892324,-2.7857771448302264,0.6763036228585616,0.7778495261023752
30,12.432586143294001,10.24871246633654,10.727743244135647,13.676029598161485,11.497664423621842,9.262205865160926,10.572080930834979,5.45547769225639,2.7086803918398035,4.042222641170646,3.1300779850164266,6.647356997318165,7.237036569683689,11.481238203436002
31,13.539505781894345,10.75258187551323,7.578932010095942,10.657549426358822,9.266890872762396,5.6222375883641815,4.514353105842341,4.1399666104454615,0.5079756621181788,3.9114310155328456,8.352174578206792,10.582002427519301,8.143554020123453,12.765510935423464
32,4.7288708586457915,2.6613753495043233,-0.03480071472531013,0.23583888960123528,-0.634902788461854,-3.288637494644686,-5.809918937380058,-0.6443179146436552,-1.566091305861413,1.7003783219749806,6.910488843690489,6.4855844396772975,3.037183170009391,5.431367180685615
33,-3.7095788215118484,-4.009143221496158,-4.009486951586983,-6.773770936565313,-6.759538692797871,-10.007520727987187,-8.524021558229835,-2.9910896438127996,-1.365450370478429,0.7876283907923335,0.05303788238348951,-0.9537413144084437,-3.195610416714975,-3.456511635954408
34,-5.090513668325812,-3.456810993144716,-2.4398447421305116,-5.470844786927062,-4.0476877821242345,-9.212597362550637,-2.1332130434549263,-1.164471887297037,-0.10495109099383673,0.9093353126031939,-5.303040531806927,-5.472789610794407,-5.594645595969971,-7.820022790328821
35,-2.9426805700953906,-0.12531503452886752,-0.3782026870810479,-0.8443651160768783,0.7492040687135008,-2.5337682513512165,3.518322686612467,0.6745077811007963,-0.12799057343079212,-0.9460641006470445,-5.003781429993926,-5.303887418484695,-3.989740664645283,-6.911209418077208
36,-3.3269912745634156,-0.4662386292363825,-1.795054965511642,0.5927393881923397,0.23014394865811338,4.054401629361162,1.8167939111482214,-0.9110042870253936,-1.107656597701872,-4.881925827117883,-2.2829250926430227,-3.1193035223490595,-1.5228225280074674,-3.5791941574406074
37,-4.907158313693826,-3.461837383223989,-3.873780203344344,-0.9895968303447712,-3.3230296308280134,6.3305952755124295,-2.2782880445297677,-3.186488231500129,-0.6598220611542468,-6.055163079453978,-1.620966658766435,-1.520921889475001,0.2573433505375402,-0.1975541083559436
38,-1.8983103136481283,-3.4003639951542,-1.6901266074057257,-1.2149866656306896,-2.90260845833529,4.831361033855682,-1.3513336355615626,-1.4951537277089972,1.5847337998811775,-0.7371701693897029,-1.4178051725731746,-0.31707861714092156,2.2083203752644467,2.6890454259992613
39,5.18427791936437,0.8336991642060376,3.61087414190394,1.153525694261035,2.3579386667647806,2.642760505576781,3.4210177816392497,3.3354590751159345,2.978710949039007,7.175064232230851,2.418174745429122,1.927990400386448,4.11146914373997,4.783872797026065
40,8.312329843634155,4.1505655725316855,5.523788382316418,2.878414928956308,6.372749355486566,1.288633955647358,5.320689993196734,5.889915922628851,1.5638965209569917,9.194618064351635,7.374923283791004,4.779184689965765,3.6708584873222256,4.858206950961647
41,2.8978732619766356,2.649578166069948,1.2475348299802123,1.2646512203306333,4.580756055453755,-0.4472552107672372,2.011405918865667,3.3639788656882277,-1.2465441800080708,2.2823357823947497,5.762226064668504,5.240904673283124,0.04272320945604792,1.9580965241302835
42,-5.027136081607079,-1.1050032855215328,-3.9321849375374494,-1.9668816836200798,-0.8051853301935146,-3.655237641078098,-2.7867031383293615,-1.7374979572439182,-2.756589704668671,-6.821857485836201,-3.051706100027425,1.1995026769242954,-3.878329798956531,-2.4398474796431753
43,-6.042334034287798,-1.692833952413448,-3.427528270416918,-2.427362835957035,-4.3246318711164085,-6.507662791454103,-5.159498163776178,-5.316561470815056,-2.193732253737715,-8.907400381041665,-8.613825406261777,-4.449279243791423,-4.308985576530258,-4.656030206215934
44,0.6727452068941812,1.9080801991094207,2.024723699771585,1.5577262927436901,-3.6030540856114452,-5.699740261741769,-4.101836299608135,-5.04748206138394,-0.6371375557794368,-2.495726438857956,-2.7955847917549046,-5.636918943873852,-0.8830896860220359,-2.5199307598839935
45,6.492771705912032,4.714617356363351,5.513690797804922,5.850882935191814,-0.8754391412704944,-0.5883697344344825,-0.41162748431647783,-1.0804224699039628,0.9486391992972177,5.0970626440980284,7.309376614599325,-0.8225499262620343,2.9007077473727145,1.5423044893274263
46,4.376860148345519,1.9524231209052674,2.845374468201556,4.3928988347592615,0.8350834860934937,5.3373755534068845,3.6001180879516044,3.6135270865655422,2.122442441368328,6.352088233378104,7.395807255596058,3.945957687882174,3.372441583130719,2.9584776037938645
47,-2.8323052984283135,-4.500294489678394,-2.879758562155272,-3.102728558157829,1.1384612090048771,7.649588586291386,4.42559707957086,4.649991831447871,2.187115269407976,1.2600353553575867,-4.192337632569924,2.7389893144948587,0.4250300007823385,0.6180358965453215
48,-7.053218048686895,-7.93347217022177,-6.1385545063347475,-9.486571811316116,1.1906756480441623,4.898773207503081,0.8687367477485012,0.8682930158420232,0.6346230548153792,-4.010103369364579,-12.89022616400875,-2.161712624485626,-2.6371421670292112,-2.151249315267162
49,-5.194169211410277,-4.916051191296296,-5.308166637354804,-8.053130935876013,0.9330089489941674,-0.8998055186333422,-3.3567903785407793,-3.3963243312252525,-1.5796789856114402,-4.488113482817326,-7.097265612187477,-3.9841357922090985,-2.9122855763055053,-2.5199782785781006
50,-1.0050702526049546,1.0481512066426668,-2.124825555226261,-0.24942660347803092,-0.43050982219835165,-6.195921828851573,-3.3733078430560433,-3.2392294778156727,-2.43771034562513,-0.9147293691254773,6.414111470912935,-1.0570403042070429,-0.7708203171875802,-1.1889950377343286
51,2.0881498373181864,4.848779471852006,2.2749139410715817,6.764635431279145,-1.8677255436104419,-7.3530220202430625,0.8305391307893458,0.7447589179656668,-1.088998289392188,2.60699493581085,12.404307223843873,2.2410251033370785,1.5794997981918348,0.4599057760645119
52,4.822115085709248,5.684611944449624,7.025179278469094,8.449014929826003,-1.0861831099644377,-2.3493524975100266,4.390012469076661,3.8496039600728755,1.0156830148211606,3.6266781044181275,7.053142975123598,2.8741794547615287,2.9573519606340515,2.7157574115760115
53,7.454959359351339,5.34625613190482,8.838642171886333,5.810849250467285,1.8433801607223992,6.098285396479452,3.4785641414026833,3.468732606760776,1.859577327650158,2.9202002972811605,-0.4434136342320771,2.265870790777945,3.111500806729234,4.904054348846139
54,6.38944593429997,3.424670684790433,4.342925431539339,1.4581102607886487,3.6713483849744386,10.273181805537558,-0.6547987906082117,0.9817233643671479,1.1694215198178315,1.7820526310489635,-3.2084589648892594,1.8491685283689796,1.3416388734129863,3.8771724252869917
55,-0.655982962468497,-1.670445410003362,-4.3841283615280116,-3.310539550290322,1.813582903979955,4.3556685904240835,-3.8571221843325216,-1.7358528811054141,0.11661241965727594,-0.34864380020789026,-3.8541692934631575,0.24913718098109927,-2.172676535094827,-1.4891029328584067
56,-9.015539631824831,-7.801190988189006,-10.256842170487438,-7.157688949620473,-2.429169768813706,-7.529916399803494,-3.813273174925441,-4.206902227673313,-0.744841282784902,-4.228087437807707,-5.8843787020626745,-3.306156102264348,-4.704636443228426,-6.751883733717024
57,-11.017830362903283,-9.457029155344475,-8.432365204580686,-7.751982849492552,-5.225636713529302,-13.578474619957491,-1.668700609034848,-5.36398648867391,-1.752512405726084,-7.594439715969641,-6.902274414987704,-5.923463813691465,-3.641384809725882,-6.552503347856837
58,-4.812243919598722,-4.1783756486599035,-1.0319782900283703,-3.914149845199615,-3.8477763963088765,-6.86119233312783,0.4140627134278851,-3.0779013366156556,-2.3548182560425692,-6.103337341716919,-3.526538799707491,-4.0138825913236085,-0.2540869629541426,-1.4052137092228478
59,3.8782594603715146,3.978606154500603,5.811757184330722,2.4486884221258034,1.0074181139727592,6.315144622622057,1.7993994340975918,2.411338313986553,-0.9583485080659949,1.2036724406280812,3.0462651484457495,1.7671145416315592,2.0509092617097164,3.4548135353876326
60,8.45767919811285,8.710812205919103,7.669428004744882,7.523390002772136,5.439100216114538,13.072491173638538,2.823517635367068,6.836817662508305,2.371248988616894,9.006175871269575,9.087876485447838,6.585675307416634,2.5601385839466455,4.8921290816773455
61,7.221128627166152,7.447885374416428,4.3855939205873025,8.21754612643566,5.324372959600069,8.071450815862486,2.9383009642705655,6.071580130681383,4.502492629872382,10.453484097847651,11.251440360967571,6.317428970198504,3.06276135996275,4.016088188215934
62,2.5241700421002755,2.076245263853774,-0.9291336191868029,3.7439101674187287,0.4211010414263029,-1.8002418083172043,1.1527650472156956,0.909785912301847,2.450283766109088,4.316324371940031,6.54033881230589,1.214210534371107,3.299808117266341,2.057125926682458
63,-2.6924738401182586,-4.0434083246863946,-4.430126248868212,-3.6729270506955722,-4.769456336424098,-6.890538784389644,-1.7705049411406129,-4.010755135217043,-2.3215626790308326,-4.149345126397753,-4.607960598463176,-4.777416261942781,0.7403521257450478,-1.5062191806357512
64,-5.9841981527596895,-7.568394693112986,-4.086766442136715,-8.83956779420136,-5.271639611090396,-5.295571104780735,-3.223359616516913,-5.050599136736611,-4.783610637073807,-8.686092307728904,-13.980954637264444,-6.994107743670833,-4.067946018920484,-5.318605869993665
65,-5.291598623211362,-5.6821935538926605,-0.8993764889660482,-6.71679777369142,-0.6777161041283115,-1.7801347184530156,-1.6700367909801987,-2.153871037973982,-2.2672806270641614,-6.920582630261259,-11.513662599726526,-3.331955629950928,-6.035847570127416,-4.997200573615376
66,-0.7331025488381772,1.0121663012482043,2.0818795231342766,1.6943670379913027,4.432572360738081,0.18364469281019571,1.1432236820697363,1.8607440292054278,2.028844896920715,-1.1442336551830885,1.2915856656460296,3.210006163733635,-2.271194719178896,0.7172094963967096
67,3.857424565944097,6.572194995360697,2.344591455220917,8.079878679550118,4.954579774739964,0.8679868711521865,1.9169691077335869,3.3268086414519646,2.9890589807044576,3.7390558204642703,10.449905215560381,6.158099069354277,2.813309836204362,5.723496959499896
68,4.055720923882394,5.076093042997335,0.2525787775844824,5.388361145229803,0.381545118869152,0.9394209197262794,-0.17831383204066767,0.7796661080099441,0.13844141879882182,4.113451112461833,6.62553687419446,2.6425654287942386,3.2092249115514724,3.5749932316057347
69,0.3349372680476135,-1.3591947717312238,-1.23213624053424,-2.779104129795848,-4.392949368767381,0.6743173209978658,-2.16772402821759,-2.80474421639867,-2.0006421256194318,1.284460565188306,-2.5713661642089356,-2.191491318425913,0.09029414036974935,-2.824371808733034
70,-2.061143172083737,-4.427766686104241,-0.1084768312670518,-6.068640569033049,-4.279585879097649,1.3803059294939526,-1.0297163817063546,-2.8058343436710387,-0.3426145012846361,-0.0618360946199929,-3.870450359311841,-1.8290179427458892,-0.3614188121204353,-4.501497801708558
71,-0.22533349137404424,-0.9667080806807976,1.6421909713106269,-1.1659768915439574,-0.0029353530538363745,3.112851240133407,1.8513054532056223,0.8730784703283121,2.455394957798852,1.5645017385015652,2.564500058997678,1.6960655494339245,2.7544138754719167,0.579202103585964
72,2.0580529397338485,2.6612798095995918,0.5341923636028697,3.9756116460987707,2.9870510561620365,2.569496491357379,2.234988868977097,3.1116948441626033,1.8711744245807853,1.967003875844722,4.6071072717965365,0.6042963521788707,3.2819100024114247,4.410844273001499
73,-0.02151471372731395,0.49606133702226796,-2.8238855398423404,2.0562822894795594,1.8851636461206733,-1.9896412365840572,-0.6383639403576001,0.8621803948796348,-1.9167952595347755,-1.9613114402240301,-2.2651093565976845,-5.548401643176912,-1.7873269802174367,1.102281782253988
74,-4.3634290108673515,-3.797949913358202,-3.6597736109770076,-3.230537866272995,-0.2274961595851543,-5.788519759550259,-2.3617760464101876,-2.026267494375507,-4.028527757480705,-5.916141129339613,-7.764058823786836,-7.35202195988836,-6.492007992817778,-4.239293580566995
75,-4.253852375535397,-2.7882918620272936,0.12099453403627507,-3.5585941974469875,0.06863635624462669,-3.221847604237106,0.09651876207646978,-0.6055347267028336,-1.4044552820822922,-3.5246445981228653,-3.0437984931415687,0.423811817133351,-4.338751925026491,-3.5406574931554005
76,1.6306796881616248,3.0239465135176338,4.303561550719056,1.5793018256598235,1.2149495430715527,3.0087300536325166,3.280244221351553,3.1431221682093042,3.086935894102565,3.4650352646627645,5.4886051304750385,9.542577466544662,2.0113747309733188,2.0838667357162883
77,6.514277817564975,5.7370274688157945,4.023552011156819,4.982538377057276,-0.04371176225618869,4.736607718600132,2.162388199561054,2.960828330524157,4.25269915207379,6.417000726424539,6.159940960117542,9.174428488528465,4.848724323725129,4.658546476799257
78,4.589978295794903,1.585962953416001,0.2409353355922706,2.517497914721283,-2.659677041677817,0.007366334669086986,-2.057224442895554,-1.88374429249649,0.9128551660693147,1.8666694852120984,-0.8361828403647235,0.7846682093655144,2.4514484659729474,1.4450257793471337
79,-1.3693910133215978,-3.952757000886049,-2.475842711795771,-2.148091695613417,-2.627097560779197,-4.21767955627857,-3.631137089223508,-4.942670330839586,-2.9728668548986166,-3.6828256170428646,-5.1719513039433656,-5.215322964848359,-0.017064288403161793,-2.1887759245506104
80,-4.457915777157574,-4.146456443388241,-2.359383400761183,-3.764213955003962,0.6335896743542647,-2.13876888026739,-0.9027925874123597,-2.0320623956657404,-3.2505651554267248,-3.4377238152913074,-1.7902884647284945,-4.487991897709013,0.28650352125313316,-1.9186103101703467
81,-2.683163374811721,0.27751870297221887,-1.2029954529418243,-1.7632225320379107,3.160856442081741,3.2533171119551496,1.6396601289862922,2.586528872023156,-0.2504992900504891,0.5972830311886976,3.6480691439178505,-2.3278415887227455,0.27272659041206027,-0.027748094838991703
82,0.15521814043850388,3.2958448800884277,-0.26252921485395186,0.932763361832454,2.108252212750357,4.8836148898848375,0.6077906362163772,2.557616518212046,2.1155768795348124,2.135267830895587,3.9758538434678377,-2.8618312389831724,-2.1651946364783092,0.03714190512107153
83,0.9280963084857919,1.8971397576242268,0.8654390660982434,2.0561080731247787,-0.7104809995076138,0.5795265317440874,-1.5581026628004613,-1.5178637080438349,1.259106244280899,0.04519040529044059,-0.8350204883557437,-2.8206388656083634,-3.702125834899314,-0.7071300053193696
84,0.38006389866884716,-1.2687240251850016,1.6676191233502369,1.2665563457274867,-2.0534835861010476,-4.980561197216671,-1.0857916718834912,-3.510356647098489,-1.1604356369510913,-1.6854941719192496,-5.041263929057998,1.2681563746652609,-1.4204709950465872,0.07237403363559601
85,0.04130111059416261,-2.697157728189225,0.5898265957881518,-0.6154630215102858,-1.3682108990155697,-5.6885850725525,1.5098535500113306,-0.5351879879278191,-1.597757085734396,-0.9236905731995579,-3.9793904930558357,5.890429925141648,1.7424757962723798,1.1371582932111675
86,-0.13622014571037422,-1.9291381947752302,-1.672386258111526,-1.9327862433201903,-0.06399102335107633,-0.1517867201390415,3.035793499135028,3.931793043573978,0.7707161431276407,0.7415211213908358,1.340980042919225,5.4623439432530345,1.894292737186775,0.16542818571419354
87,-0.031630687322269715,-0.052391257333648286,-1.7697147662485107,-1.021199164074631,1.059281270234964,6.509362637181893,2.3872313715630185,5.420669581300338,2.9241183845257557,1.8772110886654056,5.503276750495186,1.062300924822888,0.7509315721724912,-1.2203936494373229
88,1.2921025260897452,2.3507070278448943,1.4585792620128517,1.6269901192324083,1.5848821455667226,7.015360434310447,0.7874585853191953,3.0993101938203047,1.8338045479653236,2.2126088030030875,4.277555691224116,-1.3729447269698245,1.861308542387677,0.2773517475583874
89,2.7765336298990744,3.9544301017710946,3.9985648521732533,2.8795548891860854,0.5773912149752541,-0.16742863241668673,-1.1568555644444387,-1.4099694481954226,-1.5642492455024304,0.5196212082316599,-1.073801098722516,-0.5047046269263276,3.112549388339435,3.149187983421471
90,1.254930294166347,2.366979266810755,1.581613316545033,0.5673125732994005,-1.630311752440163,-7.677102258207482,-3.532151377440133,-6.007674469305378,-3.4496317419083713,-3.468306396303583,-5.218647136641423,-1.167801168295209,-0.20787941587026532,2.1549477530758003
91,-3.281538579213774,-2.127904163964585,-3.5555320358269835,-2.8729329985997483,-2.2660606246223947,-6.88646812213306,-4.819046638393642,-7.582144233557132,-1.9059006628708246,-5.2824430244300755,-4.094176572904839,-5.160204417264626,-5.866088727223939,-3.0775583939032547
92,-5.5154716973585955,-4.937123272156428,-4.788910806113929,-2.888868138160161,0.3738027453683384,1.1732717918566369,-2.670027198602721,-3.3755030244017323,0.9081907772276381,-0.059490841994549334,1.280262850588526,-6.612002518693902,-5.841584175321582,-5.806307997262494
93,-1.6420494341242178,-2.710900634163527,-0.3765190795010131,0.7212245705712772,3.2919289231457385,6.4547940955690555,2.2603910947736003,4.422752910701901,1.9025827228585963,7.967443745559879,5.616181435164103,-0.8448367234623293,1.3602663536537147,-1.587396169194789
94,4.146090012174136,1.4920509730179208,3.6921140752010664,2.973962780997703,2.1103484315367953,3.0047259411316127,5.687225192814354,8.535871870146565,0.8966255830889484,7.486252723629277,4.0342213367672795,6.841194486657896,6.750369320482212,4.484258152076871
95,4.745249135647991,2.506787770369603,2.253128690306545,0.8652949833314371,-2.2146166355735124,-3.112606629530284,4.399756420731601,4.593359111274288,0.04265177716990551,-4.062767269948963,-2.784288167695775,7.573590179684652,3.230089536749687,4.63941631316931
96,0.2658304843219964,0.6758380833891646,-1.5906572826383338,-2.0286321052750904,-3.8971849828076413,-2.7801505375241273,0.12263474290504517,-2.749740532966245,0.3881675389307838,-13.343690023451549,-7.9668425336789594,1.610836069380746,-3.810955705188455,-0.41382819523699477
97,-2.4321414090833606,0.36072502681782687,-1.5559367703497986,-1.12527545637628,-0.5018300020852252,3.088189550246723,-2.819753586937723,-5.3611856822909685,0.7267248538731721,-7.26017492730151,-4.888478608536491,-2.5061949115075834,-4.199976642355894,-3.003343836052179
98,-0.35681713216028427,1.9970034186976857,1.9868585662505633,1.94693917866001,3.283211206293418,5.315521356706551,-2.620313861549089,-1.8392621063070378,-0.1932006450608354,8.203256527266111,4.731508365925237,-1.029853785339048,2.2194574582376294,-0.14340670640218467
99,1.5461040552952297,1.4102375423160536,2.753257100432518,2.0570786055858887,2.3610061167270153,-0.0966905907109107,-1.1199107879614405,1.9438497609354257,-1.6698649796498306,14.666650265301568,11.114711898372551,0.410596673857768,5.741408983540484,2.6352561278166995
100,-0.8021882635940557,-2.3690527429224923,-1.2610930373417646,-1.2115746110890409,-1.546538913289293,-6.6028463854402,-0.42550357331498956,1.8176220407288566,-1.836403769564507,5.441820953811998,6.808334719049491,-2.643341935143054,1.2752278658030693,0.529026539757202
101,-3.560506251171965,-4.413884313791266,-4.2588742573639315,-3.0316005984172096,-2.835994161500019,-6.4529312573571795,-0.3001503347221842,-0.005497514634161052,-0.04962356244544043,-7.0305844871370615,-4.476544481441585,-5.596312930540989,-4.745850310692127,-3.2263389484016787
102,-1.5388043966722222,-1.5143023074249728,-1.6355374792282027,-0.9627623153092683,-0.1724116406203287,-0.4338506160212435,0.555752401319589,-0.2867800370933911,1.9865281075940542,-9.425785767303028,-11.753659433878905,-2.461294780375136,-4.667303761234888,-3.071386862427527
103,2.522564817578549,2.3348670746401696,2.582155194179538,1.5736271339108443,2.301416738745821,4.602932573704219,1.8665764063421335,-0.09152958705740906,1.9068991115364786,-3.591803800094442,-8.785849981992161,3.693198041274192,-0.5247417622856865,0.0348030140317746
104,2.0993520049926824,1.9714229579167202,1.9453615014456487,0.9882856319557004,1.4495282391928739,4.873838076838656,1.802752010084675,-1.6114722911289996,-0.39647835906557616,0.6173074172749774,0.320011821129517,4.8252742798715085,0.8437741139245984,0.9815058302861822
105,-1.7724005158251543,-0.8281540574411952,-1.9993129841487536,-0.9174145552662233,-0.8853665900292764,2.703631264230204,-0.19826195826140353,-2.940259823039672,-2.2614882538897527,0.8230480278149374,7.3080199449189465,0.37496026391086623,-0.5599182361449551,-0.34186330360598965
106,-1.4024880300515143,-0.3267315746396536,-1.832840429787827,0.013012778847314712,-1.3447410712661727,1.3510376194195086,-1.9280388828728978,-0.5442654667068866,-1.3521678563391202,2.217796367082657,8.391221161340315,-1.713283485315747,1.2301810498369274,1.1346730814188035
107,4.515550808719651,3.55084939536741,3.669334605286753,3.3555950241026453,0.16522315021284628,0.260762015291493,-1.123623877526969,4.158047014577949,1.3372879750677102,5.7346089488736505,5.319754838084114,2.4983740791579914,6.46207029243825,5.944135463278777
108,6.9961651785561605,4.294267147229746,6.425971735214598,3.7904616958887307,0.9771260872245948,-2.8889967687166376,1.0275703631921427,5.376766006163063,2.628407677259737,5.381407277483507,0.7420544674402143,6.093392703787699,7.147100411073276,6.8023915269539215
109,-0.09515288949288694,-1.2385841865688938,0.7656455569135248,-1.2951700437905862,-0.14809461295352658,-6.826399281431914,1.3237180404147282,0.9950920023753759,1.0505949944553443,-1.2482199374140002,-3.9273312019095736,1.2438221725471126,-0.810102631627536,-0.9829686469697195
110,-9.547311465331582,-7.012256266610831,-7.35410064827882,-6.8163152639427915,-1.3277690747445203,-6.406534715486621,-0.6039260406452123,-3.9923223975296063,-1.5590034629816574,-7.224299433927964,-6.749870062298517,-8.344438915303192,-9.721577161896002,-10.543608571073905
111,-9.775895727658904,-5.67791116292102,-8.054938592684392,-5.839706020998642,-0.6009305496518504,0.4759880932915938,-1.7318915683467917,-4.300015925555095,-2.497000204834679,-5.520850299728158,-5.63516203767852,-11.243492438029776,-9.69288201336134,-10.919586279270584
112,-0.5834844687611183,0.9996465421586028,-1.112265181276115,0.8641768853198957,0.8751520864057383,7.863141941405771,-0.5568595633477053,-1.3169343184603677,-1.2218965186189439,0.6960774237517937,-1.8783295962251667,-3.5479720774728465,-1.6887699287165316,-1.6077328544555682
113,7.048525712655967,4.682779894498711,4.56065014534967,5.493549172103064,0.6004176524338215,7.7736746231567215,0.6857268873983159,0.09156685987160047,0.5689506061607553,2.8861845618863304,0.4004136445823745,6.091595201685063,4.954507761233778,6.769280230678599
114,6.022857370219127,2.2889698114422568,3.9550291822604557,3.8197194667685865,-0.9367284630844457,0.8862845965951685,0.2600526400277233,-0.5767580919757649,1.2305168178634796,-0.12549411632520602,0.5342801744579251,8.388343336235188,5.464702012853779,6.806263644726505
115,1.2424172463467338,-0.4296377520394587,1.60586435190046,0.2802999573114222,-0.563942755226491,-3.9977130851139435,0.11124775951969923,0.6856678118515233,0.8524977286532447,-1.034958791390888,2.9063078825176434,4.665819867892582,3.6821873621369696,2.9424427578032244
116,0.6150338224378264,1.518923285457197,2.5594915754150516,0.2852113484256621,2.2805367468665536,-2.2854892444794324,2.051247708625643,4.903529029881347,0.693192368185832,3.7699151970598637,8.766656385558226,2.034070637951902,3.520137897106729,2.6028441885984654
117,3.273485233052174,4.421730977310137,4.024221302507002,1.999359550248402,3.5923328083953914,0.6334326244261622,3.380406296884255,6.878742759907146,1.2096201478460447,7.566800680612834,11.044930227501261,1.7018084366070472,2.651212679208431,4.2531252208079104
118,1.8697911949549613,1.616736704067732,0.5682384843901233,0.13782066709980145,0.27977946385931685,-0.9369034418537994,0.3722462527057881,1.8888603095074887,1.0766941998622537,2.830574842881816,3.379518311688458,-1.1058711971621298,-2.263232484587652,0.7372648228354217
119,-5.232841115463759,-5.683595326578934,-6.181322691462338,-4.774144835797373,-4.58139635663346,-3.72807952515826,-4.914466358180819,-6.663049335009185,-1.0223476323689589,-6.86804054320382,-8.923524229217087,-6.846114874154822,-7.997816697449254,-7.7742830457774295
120,-10.254020308936107,-8.878013204639366,-8.838328016424759,-6.446442872726191,-5.1306394964103115,-1.7349006324954077,-6.001079939901198,-10.004040474164293,-3.640125462879048,-10.582515348691931,-14.513236326597298,-9.043688769186442,-7.696028291195959,-12.00573867130507
121,-6.468407557329312,-3.5460117586703737,-4.359250014125667,-2.018174019648431,-0.6010256234896275,2.9208490828240157,-0.9618675193224625,-4.604676545240065,-3.3382618603988297,-4.505218617977905,-10.770627446820454,-4.106299623643536,-0.8042090043454582,-6.299540782546624
122,2.5059742220685965,4.505837631003667,2.3222352053109696,3.769012300079497,3.651462563281434,3.2123728850966358,4.435164048552001,3.499011562801402,0.6285875552962034,3.649289612191107,-4.435397451558389,2.8568167825596866,5.313951928350421,3.492478612740101
123,7.789120466897039,7.025409359651892,5.442143043343167,5.183710538812773,3.466994035610676,-0.7886675420668509,4.577797073662692,6.581654508546302,4.1748879238167165,5.933238827824094,1.4068250865435337,5.660708928589481,5.205521099135002,8.263553918668135
124,6.2526195633936945,3.1904712692544277,4.741909036288361,2.394516214617377,0.6710393223564947,-1.8535474720497513,0.9183131086159043,3.9941208234711802,3.144710499909115,3.4354735701272334,9.907783449192756,4.865943526252542,1.6822945929900397,6.538257833501166
125,2.101538985275624,-1.3697433431201806,3.068314289797692,-0.4822598061784169,-0.9246775663917608,1.9813281670765222,-1.6576511499459976,0.5328949298557116,-0.9210059310657338,1.326941840421734,18.34989542192026,3.8793717823215124,-0.16246816481020898,3.058818746028935
126,-0.16417655647631046,-2.320271790738857,1.5886265150132053,-1.088162828030053,-0.7031411876838575,3.8252121606427743,-1.5085317817224781,-0.6042568318889816,-2.5978639020628695,0.7645994012565904,15.971022037694707,2.609579336194573,-0.034981883144221806,0.965580867873381
127,-0.08612571748386089,-0.06326982985657165,-0.04812499707760615,-0.05263733076948706,-0.05334277786194746,-0.2565424929644083,-0.08483255891680079,0.10314524198988695,-0.00944870670019185,0.18081576296543858,0.10747285231361658,-0.19060583455195546,0.026724823731935403,-0.04175341140293327
