,AF3,F7,F3,FC5,T7,P7,O1,O2,P8,T8,FC6,F4,F8,AF4
0,-0.21435654843315194,-0.14952576628981987,-0.2343997449539581,-0.15139409838909773,-0.04759049842945964,0.02923225143486466,0.05543172861128787,-0.055112246854297615,0.0022207370021320996,0.003615749797782855,-0.09969429101440358,-0.239858757037917,-0.09867320493152314,-0.20755468916967912
1,-4.3427380430724885,-5.259582085915809,-7.237678282483487,-4.392916181451695,-6.363828043342115,-2.837153024641963,-6.354875186491376,-7.094949130397417,0.5226166687593212,-6.865097714153884,-6.274030937676881,-8.865926626394643,-4.44927501187587,-5.9409892083554094
2,-5.054073296884693,-6.637183805648187,-8.261687214071051,-5.314649020127947,-8.086039684307734,-5.245061303583295,-8.611500441188982,-7.680108923384657,0.30506293018416253,-6.734949546957298,0.6138418816835689,-9.51072364440054,-5.141431626982184,-6.997273473985026
3,-1.5712008652826772,-2.9885951692777653,-2.9565179735596385,-2.1399413185645,-4.074632747889271,-4.979877441550928,-5.302565059148461,-2.4745654600016302,-0.1138224723848103,-0.6409536737510055,12.203217656427487,-2.0685773939586563,-1.5701871011558737,-2.256063758112086
4,3.05981422667104,3.0384218918306516,3.385045402999828,2.5199616961083167,2.4997026298713636,-0.4695816346718508,1.0289600663640528,2.4949159857659438,0.06876350256914174,4.317857587100532,10.635956133122505,5.736499524181724,2.832139760725798,4.091361684162989
5,4.137524028472578,6.214982794604301,5.0424721362793585,4.450667133698637,6.523404416530757,5.292310135175754,5.470878843306646,2.966362185444886,0.2845248208748091,3.406632725102867,-5.085416338928235,6.250986597834568,3.4800189295241,5.5917736134508775
6,0.31605938836283454,3.4613773466425335,1.4088391613217277,1.7822398281996752,5.063062917646332,6.456577819498651,4.8824649334213115,0.049051174376925695,-0.534229525517611,-1.3558070625359069,-17.42951968123759,-0.0779201414120212,-0.25567533659022496,0.5919773135735744
7,-3.989674390303251,-2.2989983721940823,-2.4322938650842194,-2.4322874085026416,0.08027319667041201,1.8030214824727444,1.1396833651863152,-1.9015826341782955,-1.5738157497924645,-4.2001625386863175,-13.236088738315077,-5.208134778928468,-3.655708166098467,-4.851186225758957
8,-3.078984676183422,-4.610611063768877,-1.2456342226332786,-3.0160928419504645,-3.284854367390417,-2.6397325206359312,-0.9035063433410107,0.4081779241603638,-0.6504829918215721,-1.416970535297638,2.1129277250571774,-2.652037697813381,-1.8949118735099577,-3.656490058423529
9,2.9270553376535045,-0.9069585245548022,3.869902033950874,1.0232092158568074,-2.1278547138951196,-1.8284446577711548,0.5409183492530857,5.653490140899607,2.1361412630154533,4.9322195021856166,14.127225791291274,4.7937191120342915,3.818092837951056,3.3170907547979183
10,7.321852975819968,3.977012522652358,5.98498313762369,4.614272327544145,0.8962520964432792,0.6745014350412937,1.9005226834240565,7.884213426715893,3.35005873442831,8.242684985339984,14.665508618616286,8.133596070145705,7.086767803859169,7.880116953865415
11,4.199721791942638,3.5075769529540923,0.7384061413589148,2.692335130853419,1.0087250432845989,-1.3957871470767018,-0.5212462419769193,2.2539590328700947,0.5896593685129711,3.703741674819537,5.654104001022403,2.6912977436933576,3.450650562198091,4.266313240783293
12,-4.524174981501339,-2.31404874516415,-7.395747709324303,-3.2680335091414103,-2.3236048651810592,-6.101626590994991,-4.934171348190797,-8.13083606113294,-3.5601965703570655,-5.813978030816435,-6.093788417080573,-6.551491089106095,-4.626473862011031,-4.386556073117797
13,-10.59496472224609,-6.763945480030216,-9.761612828673124,-6.91725731727135,-4.488548801592524,-5.473789026222479,-6.155329193906025,-13.559921261976957,-4.298680903521838,-11.753585967519857,-13.208756301557973,-10.617663336398348,-10.055254816348127,-9.944535697392885
14,-7.563569601070475,-4.36188184697489,-3.5047480702806633,-4.322622586941512,-1.622194086719803,2.137426932995364,-2.1340073672192594,-7.903064014325424,-0.7661243460992002,-8.523938230916425,-10.693087178709408,-5.7530006396307956,-7.572996520718879,-7.42307809529856
15,2.823400752266684,3.061704927431502,5.716307134910464,2.387773783177292,4.380929381412313,9.21567165391162,4.002336545016766,4.158281487239968,3.0082208617755266,1.130937627589391,-0.2261927263988617,3.6905852592187176,1.5695701112112599,1.2768680443898273
16,11.757522386750386,8.654281679168353,10.288121598303325,7.784783571124904,7.76225542660228,9.25891016306325,7.555914491513711,12.011236350831311,3.5166841448051254,9.615090375292606,9.089047125287316,9.938450239855902,10.071441606769408,9.376285083142308
17,11.083629376544813,7.34631816015594,7.322007717121934,7.595775566010838,4.941266883158941,3.408316598014784,5.952096589690505,10.141481931852066,1.6629725814099694,11.517656195667634,9.003824949646265,8.411471921140581,10.477698269836287,10.286211395907836
18,1.1256168095697268,0.08651925238605399,-0.44020204514361605,1.481618159500992,-2.04179502536368,-3.805001907043527,0.08462363970649628,2.40797416845819,0.1350659918586606,6.699710283433906,1.5348153144952177,1.0066355889343153,2.4587366504126322,3.133618840242078
19,-9.207100366267397,-7.346902745554539,-7.432607185923864,-6.306450265655896,-7.648087338393781,-9.14428192861663,-5.845568882470689,-3.976090476065705,-0.7896057172297527,-1.4351807510764518,-3.9607097859927567,-6.012834590219626,-6.372453541305153,-5.8311223763378495
20,-11.300190276225667,-9.344114658120743,-9.010219864124377,-9.628874832683715,-7.826366756643488,-9.95400295605639,-7.015588140248879,-6.152373870550922,-2.440599286301766,-8.746960166423266,-3.1288809766875367,-7.8032068758421955,-8.624702213217368,-9.243600900137391
21,-5.280373219970407,-5.092482811537856,-4.742789297844277,-5.865080842629506,-3.0002116820868374,-4.581258190379208,-2.6841474293011545,-6.059609339673613,-4.01627124434329,-11.79330331756677,-0.7092531273817692,-4.843097234848084,-4.763727303183477,-6.080303198700226
22,1.9409481989039092,1.4391317911605017,1.5447130102430136,1.5081148762529106,3.150140642783407,4.181684478577415,2.6993059736442566,-4.94197164714444,-2.7528587739511994,-8.465711220908453,-1.20880197056359,-0.6799518774068393,-0.30457479953180855,-0.9284015877811563
23,5.579444512710544,5.908585132247284,5.738868462664284,6.696222091591848,6.896520727751294,9.876938290239854,4.554968716065801,-1.0027467580035831,1.6904324301183056,0.5376054848622508,-1.9457378425309797,2.887111039130272,2.2621492931815244,2.9655277967129194
24,6.5415868869636755,7.068569481655047,6.744271899155264,7.1063898431132,6.477873991792355,8.631877678992064,2.8305775006260956,5.856662417025491,5.497694717252698,10.184026416333088,0.9057629056236757,6.103613185311092,4.461438272322984,5.908129826300934
25,6.604820030421957,5.843474690009881,5.435283238634748,4.320516053908756,2.5377254037760837,2.636194427106344,0.33720001707658587,10.135976265250765,4.8770465494064075,13.380771819298836,4.720118187272293,7.734398789927659,6.235726512421777,7.6129663923834165
26,4.470202713958013,2.767917524684561,2.1843103690361536,0.9107962046995507,-2.232012745654112,-3.254967418258623,-1.307924740673939,6.075379685095087,0.6054214194235695,7.4492611598560865,4.232533001501851,4.945105466439154,4.710477050635986,5.6931011167035654
27,-1.5169680484413608,-2.2208516912938387,-2.9595325499814593,-2.229351900123272,-4.853403993592834,-6.3533723371545445,-2.154495483434555,-3.7551475389997164,-3.218738413511934,-2.6225498383699435,-0.33129036708754883,-2.4001064496553886,-0.8697886402826955,-0.5869273842252294
28,-9.149957471540064,-7.841160739234245,-8.382070100567274,-5.463738187773569,-4.597469100423029,-6.72120079631377,-2.1884051371060416,-9.96268059664526,-4.071230785773142,-9.462666776464863,-4.162008025502797,-9.844754804491268,-6.865128241836944,-8.064157638812706
29,-12.8165319807435,-10.501810630859621,-10.475496419924227,-7.9655994214724295,-2.955895177597911,-4.564201511559717,-1.1604189007206787,-7.290059260514666,-2.7886111258497586,-10.19423403445756,-4.792533453160972,-11.809050317438864,-8.759211006474226,-11.81600964227114
30,-8.12190691713373,-6.6388719537454275,-5.887616304848352,-6.745767347576458,-0.7781105055460121,0.6485961988291419,0.6900263004699368,0.13683177116131887,-0.9404627324652812,-6.1167086473248675,-3.2887070292545673,-6.048678256364885,-4.874823493863568,-8.352247758337604
31,3.340096493125546,2.7823742052390403,4.495054255140514,0.06675439978458683,2.3950107101617104,7.333366569495312,2.638824047421241,5.526876347032351,1.1873617097937088,0.9637850099628497,-0.22805858940131174,4.5265835497222335,2.6965840338300193,1.571093466185739
32,13.423481043837905,10.928284995104029,13.566557296623913,8.828246274378069,5.326550371055987,9.926137742521586,3.484328100052746,6.6696986433043834,3.300557742186184,8.085780225975672,4.293567519382509,12.946757411141961,8.741474394739754,11.489619563336909
33,13.743857581914998,10.899105398088112,12.854553325706537,12.073878527703872,4.720812619425028,3.9069095263863107,1.8758686634019954,4.577099885388352,3.7992544468942504,10.0078901842214,7.220424277035181,12.62986236408955,8.099941667155738,13.227317149456068
34,4.27179943672985,3.339589389372103,1.8571318491339959,6.4405800749504225,0.16499206917087675,-6.601462136821044,-1.7969286759175254,-0.053797615281607564,1.4608913250313986,4.220424271269319,4.4205187156505055,3.4372294853374044,1.0456392473470941,5.181943171769568
35,-6.167491009475778,-4.258871313662366,-9.549861287235382,-3.098126729977606,-3.6934749626656473,-10.986962716328168,-4.4361979695078775,-5.342062280971531,-2.2320875475777933,-4.197630964990524,-2.8008105461926025,-7.155965554802503,-5.683280648379314,-5.2103869528497855
36,-9.497867204366033,-6.36293492368867,-11.25194720751924,-8.77417732913617,-3.04973483473116,-4.696841095306275,-3.385566112361256,-6.981109347970937,-3.956536858075985,-7.402884811916026,-7.284883186929957,-10.940696229348841,-5.882292971422723,-9.407789653181922
37,-6.165582709143511,-4.440078114993516,-4.002242302510959,-7.872681472673485,-0.26265789954748364,4.6685261808573575,-0.10569015813067814,-2.9271422227333757,-2.142795859808629,-3.861607949321518,-4.4027332331952636,-6.73112076979878,-0.8950701789301655,-6.196893527411489
38,-1.7011082959321207,-2.364001204279061,2.949840630605394,-3.223928380417263,0.25654917353947665,7.447289433430045,1.7847270584169446,2.7504761522797336,1.052019662438012,1.0779725993108575,1.9050984498596188,-0.059093066704349606,2.7727598064481733,-0.6134755527949292
39,0.976557336502022,-0.7972140790981392,3.765234657524163,1.5545989904330588,-1.1876656149111409,3.58314239830005,1.611096369954905,4.462738896261702,2.1756825334036027,2.7811004261874466,4.115406472677773,3.66938205414839,1.6837373186913296,2.713727216307946
40,2.4333135790367826,1.2680791027633018,1.0727811765767135,4.301542581007372,-1.1150561511183668,-0.6376255418552895,1.7127528975253068,2.0398579497661022,0.66002760992164,1.655705845427735,0.553186832186239,3.6490827092856377,-1.5179551594588958,2.6037552658763685
41,2.861132187079624,2.779495173502921,-0.24837832461891765,3.8890215508458312,0.9206596679015633,-2.753419735038813,2.6357851058702866,-0.17504258222350683,-0.6706992384194808,0.2284226834097855,-3.108582132409281,2.0900009389181027,-2.67685417550974,0.27704134108702533
42,1.974822923990454,2.2668636814545793,0.7897701340422294,1.2619852545249426,2.2386955994060203,-4.117068958900121,1.9203745206581888,0.16583296585689378,0.2599677701869732,-0.3722688688367246,-1.6381430104441788,0.9406197932963355,-0.6951632510555044,-1.4475246778658577
43,1.271085463695756,1.1767767019452366,2.330784736673833,-0.2694346092293565,1.9075119781132128,-3.464487296885411,-1.4600944250240273,1.1144689464570767,1.6914524414484786,-0.330574513466884,3.1529811406531265,0.8212796870608421,2.6042186449169384,0.2962705816432434
44,2.00007571538856,1.6157253469445114,2.636110105979261,0.8853229421946027,1.3175765752867536,1.0392057470082734,-4.576837558031332,0.20200998842163498,0.6820229384923001,-0.13547873212225325,5.043794527555427,1.1503199839184772,4.526380619279217,4.420695345498604
45,1.908599299765144,2.0327277448209884,0.6662749357671043,1.571235052455091,0.568901545124287,5.351356772753306,-3.9603475625154534,-2.1603309907857566,-2.1935528486127467,-0.3968079163640099,1.2970064246527884,0.3895361579615728,2.970821422570867,5.247797900348046
46,-1.66540336161175,-0.6803596003049208,-3.0678869742237294,-1.4801252625463275,-1.468751529649451,3.8412690856239777,0.18852669751334813,-3.5249965692072944,-3.2222791936094235,-1.1258406571785793,-4.180337447236575,-2.289723774525327,-1.72345108404023,-0.4532120509755733
47,-6.25161344371455,-5.193193401773913,-5.484976580452624,-5.568022427080933,-3.634483266797506,-1.1040228689009506,4.042004657285927,-2.354102446981579,-0.7266908278617495,-1.1526623317468558,-5.754970659887353,-4.929105567093388,-5.753930679629064,-7.5760736298113915
48,-6.320476855614311,-6.129156510488386,-3.6747434903191385,-4.985689851284494,-3.0773980126409266,-2.42547501090969,3.6911657766699686,0.4212991814081086,2.5032302186640227,0.4398199585573931,-2.267494805915809,-4.103806677828538,-4.940989267631044,-8.107463034197352
49,-0.7477627633138069,-1.2897989677712751,1.1133488334057775,0.7660643699089541,0.18601599189148715,-0.23365566891436892,-0.7833646530372026,2.6223872019706644,3.0022691853039785,2.67470790493414,2.842952890149438,0.7615495830686504,0.3189735349241998,-1.1777689880195892
50,5.724126372085157,5.021203546856562,4.850341269603537,6.1309812137334925,2.86721188719145,-0.7783482301119754,-4.30212111484575,3.2863906872879896,0.9960928146113468,3.6795440030949207,5.897824702638361,5.871186037441258,5.133554670068271,6.502469917533436
51,8.23329245929892,7.199826458194523,5.473969063520411,6.580420279351672,3.021458058354997,-4.086332579456506,-1.9370755649788347,3.0984863459691403,-0.6962521258135396,2.6468351918354256,5.254980528846987,6.836038690085982,5.6877614607153175,8.947358397642255
52,5.47883412940637,4.047898555742226,3.4162562266517162,2.618704598703751,1.7233599921195537,-3.2446241651157854,3.9894912120876045,2.1717422359725655,-0.9067366732863413,-0.2734736226517509,0.6339417344434607,2.94111211256455,2.5154875340774816,5.355022311726163
53,-1.3335220400703807,-1.7607357697538328,-1.043585808549412,-2.875802167288109,-0.053821759295866134,2.7680503962447767,5.435192314604876,-0.8051426117503504,-1.0618781219488902,-4.608309580222553,-6.142373338404452,-2.9203317358893086,-2.0515259342557237,-2.120636067436624
54,-8.800621301462924,-6.741268398775186,-6.766171424132619,-7.1759952510020275,-2.3936991221047657,6.2139124628396,-0.5625043508641459,-5.580235368745802,-2.028382064073802,-8.264025653156896,-9.752756683425616,-7.223548110783729,-6.302323027616108,-9.71342331446582
55,-11.1070618932528,-7.636692585413968,-9.191054234582559,-7.485287212682745,-3.7822766307307076,3.333461161733784,-6.778551735516935,-8.129338759087004,-2.235194051546795,-7.284080111655288,-5.275130637285552,-7.7499951594926895,-7.803867159781949,-11.711239443378853
56,-4.574196603753896,-2.8164607023037305,-4.031981007376395,-2.368338890758128,-1.7414657408882133,-0.21647383988956637,-5.26289226274095,-4.377740647808175,-0.07886495929182889,-0.046163827528265824,4.539159026505135,-3.8682394540822815,-3.6797662775707116,-4.5307875087545035
57,6.529169417174962,4.851178235980702,5.795328745683681,5.272629522636613,2.5999109911488327,-0.3846186682711092,1.9115125747553587,4.037537525093304,3.1262217870586375,8.896974258559675,10.117643071256085,3.066019206464361,4.793712857836604,7.4353496836726345
58,12.669804939262697,8.99586236710137,11.429367832189293,9.492512051865383,4.516343501198247,-1.1017525012316594,6.304843311398226,10.273815003822623,4.269034850951524,12.34280403833922,6.458609207330201,9.30181617477019,10.839832026268954,14.211856331034282
59,8.978028248560623,6.115309154708969,7.847545328878539,7.035786503839796,1.9476440637213404,-4.66643972309065,4.48755901876598,9.06803794326947,2.1711579727010917,7.867566011653607,-0.3804576003739604,10.342668627600018,8.902166530748335,10.364794854054479
60,-0.12772920080966707,-0.5708420764282703,-0.7551639739686498,0.3297462347283638,-1.7814190833516745,-5.581407587395363,0.10007311681035795,1.5431058189634899,-1.2460718375796391,-0.6486931856647019,-2.538374188263014,4.715622463744683,1.0094485311824333,0.23072571107084033
61,-6.816445801435321,-5.179691127803206,-6.630838694804403,-5.561632296158697,-3.0902861861118436,-0.4810428694850509,-3.290316726581911,-6.5081342815506655,-3.448453559289467,-7.963361319972063,-1.507787998383247,-3.8250504881871583,-6.143565229137744,-7.771020027162736
62,-7.622157047848009,-5.331771198081824,-6.680038923883363,-7.360672186347735,-2.3312568392263553,4.508907837713447,-5.050501463414494,-9.503762507596468,-3.4930708350737985,-10.793837345299787,-3.2651857213474043,-9.12493161798382,-8.490276817894554,-9.382749267989446
63,-4.615284755625448,-2.8699682208559705,-3.546929586064465,-5.014057549778103,-1.0742776301455863,3.5367695550068103,-4.122158894231931,-5.83508444159175,-1.730074473535505,-7.663819475732905,-6.205955804681704,-8.333490873578135,-6.485771529309117,-6.232015541015116
64,-1.3804887062710545,-0.35657521259450753,-0.923990531259725,-0.7647345301304036,0.868629477372864,0.48599450702489977,0.5522269919057403,1.0407285216101227,0.9137566170874476,-0.1293159110040183,-3.4822706670587187,-4.015713194324502,-2.135452214233998,-2.0641423186793597
65,0.46656412379964646,1.0965809283694583,0.1640323098075307,2.5857379016051647,3.196704962221925,1.1993346568016139,5.6290324440705115,5.261976260562829,2.837663858385002,6.133569288475712,3.9121021156542968,-0.18098079269553813,2.461257239498322,0.8967426908527606
66,1.6044777129304157,1.4671529667787053,1.14761609718329,3.6244784319024075,3.4218111238002904,3.0766142287028053,5.4776654363972765,4.056562297351057,2.617654349017139,6.1460701733126895,6.787282267495572,2.3066651346156544,4.984023193941674,2.8407348046941356
67,3.1095013712596513,1.2332144603213746,3.2263672939105734,2.9586110147547435,0.42084894273328566,0.43010498772176375,0.21106581302570218,0.4448031983790761,0.741393498738853,1.8484725827852226,1.917062099695835,4.91085316719017,4.460761462065191,4.732498234464621
68,4.680384430428445,1.2298867167937353,5.19298254529867,1.815433166047466,-2.89479939090677,-4.9502965478802246,-3.6915254627679994,-0.8780997361475811,-0.7829936334377176,-0.5579123454337411,-3.0375232441576205,7.245519214113526,2.5035068798583273,5.9997077845502425
69,4.803232355098601,1.9835168240997068,4.475958631518976,0.7750837051716079,-3.1372840703412135,-6.278819592461871,-2.419714770686226,0.6911963447722644,-0.9979508252496074,0.7570871278274812,-1.7882593647739644,6.490269797490631,1.077968118879966,4.729104422186023
70,2.4559821794230112,2.759157655516739,0.700315369330035,0.05470291850044412,-0.7192030057963383,-1.7138116743788199,0.5816724039770921,2.0623897720260778,-0.7791133429066572,1.8710575479566107,1.9923945698755714,1.6712257476205457,0.0015051548264286355,0.7169390540305627
71,-1.6068202029275274,1.8564813441126613,-3.122098740793961,-0.31226744174462734,1.4403391347954728,4.028015410184882,0.9515642152141627,1.2878895481738217,-0.8303121392917336,0.2578334360454651,2.4851169945366345,-3.8486364532326016,-1.653923964170971,-3.2722975369021765
72,-5.1810936918786865,-1.4024690977237106,-4.240762372578338,-1.0249693010526608,1.6844489877947557,5.828579312562198,-0.6548673474525579,-0.9495910044077907,-0.6649610762831476,-1.9174680646217377,0.5972386832619762,-6.185840015451481,-3.0629120443969,-4.788850896127465
73,-6.253870016054025,-5.087667662528367,-3.5809074770387874,-2.797413035206021,0.4765308230813651,2.2676622615836695,-1.5574700820450713,-3.6543839809124643,0.0033028765756270735,-2.5814191138473563,-0.15574176549349503,-5.6932162584782935,-2.805877863749389,-4.703083935828154
74,-4.594043821789215,-6.003440507424811,-3.420739660090293,-4.511251380767548,-0.8796011366315434,-3.8225302314925163,-1.5125668800072318,-5.76351177475378,0.6074295309799752,-2.7948145608972963,-0.6313288556976852,-5.078338313240421,-1.546941969687578,-4.778915339324711
75,-1.5603533508801328,-3.023678167306963,-2.9706322487784385,-3.5625805707396063,-1.0849229120696695,-6.422701529656557,-1.0119822795335751,-4.718461814372485,0.8887800415749914,-3.148414072724857,-3.130468946696202,-3.8799155588705565,-1.0101257556859589,-3.716515801322551
76,1.684151827824199,1.5803009499268972,0.4233900015965961,0.8339159000785922,0.1922830000899421,-1.4830991479003306,1.070221805508424,1.001493989245765,1.0943766436794966,-1.5952560687590451,-5.597976061081544,0.8730888023110573,-0.724087745283782,0.9763696135355711
77,4.788400873630023,4.553997266769984,5.807146278212388,5.591428027186868,1.4250134266414827,6.582690513342564,4.4741848914415385,7.689064094952928,0.8418960084296074,2.4487202086693447,-4.196548766163017,8.03978232787528,1.3763952376386508,7.466432754829426
78,6.78153339468327,4.832656654868904,8.159600156784517,6.516602464540465,0.8313613834669576,7.965858674930849,5.392321274367626,9.05083638004957,-0.46807016007787916,5.4962853320125635,0.8906247171715083,11.329687028857132,4.7524257921176964,9.949737388366584
79,5.818050745749801,3.716071172564849,4.788381142630782,3.0936078750231615,-0.7792888268598934,0.24428466802760226,1.4232063589425739,4.026010497952333,-1.9613584795451162,4.546860799457786,6.239829559789713,7.1336212980858935,5.5990358872164,5.749572650346087
80,1.526079214350375,2.1760103005272255,-1.0283070065486997,-1.0974160102190638,-0.9047365368003649,-6.9998485020349674,-3.848588282082532,-2.0354345533141887,-1.8132729578934448,1.3060745791957145,9.04178854734152,-0.8005869717537123,1.8131884343266866,-1.3659145988417074
81,-3.771663266159613,-0.6562320111136765,-4.6941303184630465,-3.169307776467811,0.47223734565172115,-5.251156799352394,-5.457391388952117,-5.032075141018545,0.17877638522506797,-1.1230253505363628,7.201154559012999,-6.9717598155428755,-3.5748829609933965,-6.419298332289446
82,-7.098723802800035,-4.963962745789424,-5.519405065436051,-3.83653071421268,0.5237790442061885,0.6725550964780752,-3.8463628794063007,-6.266347285829078,2.0123442996330696,-2.6992014013797268,-0.1326923291445594,-9.86988450230167,-5.717566526953295,-8.092424389120344
83,-6.85550590635779,-7.358242607270021,-4.8947409662667285,-4.153541994928094,-1.4136853755004641,1.065338653510667,-2.386345517058933,-6.998430473249449,1.8533881887414159,-4.191430237967779,-8.563235855026463,-9.215857461887362,-3.316444395443741,-6.576069703902231
84,-2.9834796472976683,-3.9738267983499664,-2.5307567968690776,-2.470743517709073,-1.8976946442343623,-2.529629177916919,-0.6338554830141898,-4.305824244841241,-0.014886247490900457,-3.7767005370283706,-10.29134087550774,-3.131155633421464,0.6654379033917452,-1.2808481315440028
85,2.54924283813299,2.958109565640457,1.7726647193148006,2.0118551890365453,1.0226184345264917,-0.5592849200254503,3.7847758877374664,3.193731602365307,-1.7423313672698595,-0.32889443794208484,-4.348281805036684,6.701722838307565,2.4782682528086513,5.674013203139501
86,5.733027842238124,5.975476150338075,5.064460766187008,5.309587084074743,3.4923431871698862,6.769726035832363,7.971681962400812,9.705913635070464,-1.6812459392950887,2.7556716235167085,1.0744765956638325,11.919239560663472,0.9157754890053654,8.09576950632438
87,4.155186686214717,2.1905676246228034,4.325557331210773,3.154095875440078,1.128149822719251,7.875396038521485,5.796285026090247,8.421799546840575,0.17454481539281336,2.1107267514180306,1.2484849166163487,6.622235170453242,-1.6206220006997598,3.1148204720833093
88,0.5459544284507067,-2.213545837646323,1.209941163222671,-1.9059172235856316,-3.5600349584147977,-1.3683727409089737,-2.04048179122732,1.248360611733322,1.8913473843024529,0.30259281419151657,1.9618683076333623,-3.131212560221092,-1.1976389993348648,-3.1715399943449087
89,-0.6117429647295337,-1.0002185473889529,-0.40728081694151974,-3.2146646718948326,-3.960855043972565,-9.414869378343731,-6.994269872944811,-3.677124206756357,1.3613313577983452,1.5426178184467192,7.3935050781753935,-6.243680450687405,2.8697951365767884,-3.1697870657808895
90,0.5483133176647492,3.069921978879732,-0.2956252530031361,0.48161503115389737,1.0520125616477394,-5.744022138168426,-4.211495309574264,-3.198774463157295,-0.9139788989635049,3.793798383352488,10.056253627288909,-1.4187505942969723,5.835543718125752,1.4983345670562056
91,0.26149157196031203,3.3463215690198562,-0.9866471024706871,3.5775822530321406,5.292120729189244,3.968582909473283,1.0372934883389906,-1.6909638261585374,-1.9243646437300428,1.790639850183846,2.7024300263270695,2.4089815149966474,2.8687920530953255,2.935190677537964
92,-2.1205275680062923,-0.4629708411800376,-2.362891339752755,2.149048172084572,3.7911267527482564,7.062249009809783,1.9201970870283698,-2.4956636615141394,-0.20548314974011933,-3.4997212835511555,-7.532160254592062,0.010887851743178162,-3.864750075690108,-1.0690377377191713
93,-3.1082620119300457,-3.3146963988297053,-1.969718306052239,-1.2745852729562104,-1.0928533970253707,1.3749710115629306,-0.39130785548458635,-3.2445044222476276,1.6968472350800563,-5.599222659394043,-8.839901098561537,-3.6999662072421473,-7.152112756797406,-4.700285297512113
94,-1.073421095777825,-3.221177573061103,-0.004323592218713174,-2.8067401536782994,-3.8301242756392244,-4.5260375746015145,-0.5284139879608698,-1.2481188028085048,0.8257518557354644,-2.47212716366392,-3.0010421446026685,-2.754916265977844,-3.986674931315454,-3.428780585768599
95,1.1881379792878326,-2.3248449157824504,0.7238522849686044,-2.4406129862835937,-2.860859105809806,-4.571103003624248,1.6789669922614987,1.786422770255949,-1.5129569662728317,1.004514207134671,-1.0658818834742965,1.2685045877902144,1.1047774445064895,0.5183754242796705
96,0.9047314432276782,-1.550206279093288,-0.39094122956608707,-2.1191390519987316,-1.1435162757166535,-1.0506736697844237,1.6183805819832702,2.8486983698628583,-1.595818191924566,1.154565571995119,-4.160843617430274,3.039068764639176,2.9412508124651437,2.8060404166123916
97,-1.0057499374598298,0.1031370937909212,-0.9823380972547787,-1.8765451462320253,-0.9584753512018662,1.6354871040516004,-1.6325006629042746,1.973717782881319,0.9015596337960193,0.1799805225844777,-2.248808210059324,1.3338536733584558,1.9738846478031955,2.3493728644235055
98,-1.6725657860026977,2.26036101069748,0.3744855848852465,-0.15066012580392096,-0.7530169324721976,2.7903106574512133,-3.0919507222650084,1.3933723254714974,2.372376256041726,1.3667032805013177,7.718282083590762,-0.46616314259344066,1.6999462244933699,0.9123473183687593
99,0.48129458049246143,3.632514544441167,2.5706634607225487,3.420337461535492,1.8933397124731828,3.4063757381666737,0.469492418364061,2.1318989236459758,0.8191630227936904,3.9639239658972816,14.813249103953812,0.30030472993239343,2.7733838129611192,0.43593301156027237
100,4.317640796879271,4.238289608806682,3.7876330524326716,6.62828844516822,5.493520256285375,2.497276538493135,4.918477084634375,2.5893954556033,-1.4708870609732416,4.427814573026814,9.138774926079629,2.3257061924743403,2.4743681386772884,1.2788421199387527
101,6.177437051141593,3.797070683975155,2.6604766987333663,6.050626355882698,5.404155103075664,-1.0407505741826537,4.009693356211361,0.1769610963303982,-1.8161295339442227,0.6563554958217603,-4.6847239910436755,2.1288694899785234,-0.915770318670126,1.461846223766256
102,2.5317576843007905,0.37629428384189906,-1.1167144977334182,0.5094879445448665,0.17664935141774665,-4.414647572465107,-1.8161000134198668,-5.015279489892591,-0.6510198834441916,-5.355020304321413,-13.803077471041988,-1.6604735493380511,-5.209645694101635,-1.3307683073950494
103,-5.34428160531166,-5.793043993059623,-5.345814050444009,-6.51471309064831,-5.404515792061263,-3.098248393715763,-5.741599924293541,-8.341234865166559,0.3349364530669458,-8.314940173703459,-11.909896413599283,-5.906614470484841,-6.271936368538281,-5.569586370728484
104,-10.536519531045757,-9.629886891239313,-6.210029808264429,-9.407144436199388,-5.9472310893783025,2.0784669726160465,-3.62825370990732,-4.996578708680736,0.8798363108240652,-4.61251346391337,-3.5321731185867415,-5.695028396541635,-2.5854797273917853,-6.100316711135653
105,-7.199072780894929,-6.335709800301819,-2.5528049737257654,-6.00092489888625,-2.198448960210044,4.164831315710407,0.9897056151273751,3.007579254486975,1.1970341485347662,2.6757002799417844,3.6536414385201472,-0.15698462145217199,2.767638305237387,-0.8057433696548778
106,2.3209862550410185,2.102772246598965,2.444008949025634,0.6901361011604839,0.8531454142345543,-0.7983375638167854,2.521714695196305,7.872964689990852,0.6610840214060081,6.484768278946846,6.692681568060955,5.792676974132561,5.503705535989369,5.664806423728501
107,9.63035563791477,8.773133104223154,5.292534460595084,6.308461942576903,1.2487379453550584,-7.129738839763408,0.7675987255785116,5.832128883470047,-0.6118791797975914,4.700074809205513,7.487410897479268,6.9887482128238645,4.892178839696236,7.660814036812622
108,9.361948363437799,9.288013878751498,5.663022292338545,8.582913525574083,1.6287306245353392,-5.87880868759953,-0.08967934772059975,1.8562771585144167,-0.878228145705985,2.4980488839496684,7.545121626917387,3.7870183693551964,3.2977676261395636,5.2170284717231095
109,3.6066934467015663,4.773035994710632,4.339777381644947,6.807598061356643,3.5746406559834516,3.6363589401658354,1.843257675556413,1.2979753128058764,0.4869684907605852,3.3216089210356747,4.880514143377079,0.14502702604423767,1.4608677205577563,1.6517708828910138
110,-2.595644973906839,-1.4760404115343275,0.6136125925588055,1.018805475507412,4.253982268058234,12.146148703146805,3.5926235427564874,1.0966124351841007,1.1906910741453491,2.3437774821313213,-2.6616673490611813,-2.466320297865635,-2.4962588354199355,-2.4274781276996045
111,-6.835584527668348,-7.021874438978044,-5.459267743720186,-6.483728232860218,0.6561600859678346,10.298540078177059,1.4175122058055984,-4.700926080217259,-0.6806370487801956,-5.697848073131863,-11.941839787794944,-5.611436427591387,-8.217572284790247,-7.897224028983261
112,-8.811940454663603,-9.75986082751917,-10.031727582777316,-10.810088977862144,-4.974297756524638,-1.4494115907148997,-4.099304009912564,-12.810251165385866,-3.065604540131843,-15.213585510089855,-15.218209591461632,-8.613429857864958,-10.586983876532507,-11.710893879864063
113,-7.173673485968022,-7.480420504529966,-8.186347557357436,-8.179551741946447,-6.703654639592727,-12.765237419468495,-7.660049848353977,-12.038948523411678,-2.352362058917933,-13.796835063375175,-7.9289472705047075,-7.099302917602572,-5.0801286245618975,-8.374271949093357
114,-0.5824914104706667,-0.10351697876356586,0.10010467746398473,0.09621925931809364,-2.0787658796167183,-13.07876709496319,-4.457928950023484,1.2377992355499747,1.3644775446704411,1.4255465589635283,5.5500410590727185,0.9861883743426423,5.707669483625647,2.424835338382926
115,8.344338848105114,8.4509614502931,8.890763556150299,8.36404142175897,4.291990714293333,-2.237584133261707,3.762952888934639,15.639289843187195,4.11722675786493,17.66223927497244,15.4852031858084,10.716603315192021,13.6134530346592,13.566252945872845
116,13.278416311523328,12.332841239682338,11.872200292920457,11.281377453654683,5.866270093031102,8.827796890705024,9.249722704089718,17.557277862596337,3.1524278275659103,20.231660777725327,15.481027062838711,14.408212134590359,12.765203462845909,17.076728053249568
117,9.780586206142603,8.428064737608093,7.807576282014291,7.475300741058071,1.8089174739590386,9.78292671807045,6.472758319169479,6.967360638235458,-0.007171000611164397,8.571122831887493,6.862747904416174,9.277368582527973,4.259886893926821,10.663072092876535
118,-0.2870681069063041,-0.8517348641033126,0.1488191896824163,-0.3732409129858651,-2.708016087803818,2.345627499937423,-1.464036336178799,-4.9762414715158645,-2.0714133058985023,-5.605385219358088,-4.112302594162503,-1.044325252209471,-6.178178614501315,-2.0787164689136306
119,-10.232728785490472,-9.223277332210177,-6.9907087452856915,-7.692345947861295,-3.402654330420334,-3.1068300180274107,-6.681173658255423,-10.669963934638945,-1.9096923513017454,-12.960770984409033,-11.542779651717675,-10.820423108975405,-12.814502951979547,-14.486692425695786
120,-13.697926314949955,-11.329962575649725,-10.948935731946044,-10.46944731008365,-1.199219933784507,-1.7283311588583792,-5.54031573481196,-11.383318567275031,-1.0541182104787232,-13.523699861094086,-12.899631574911682,-15.422495998706717,-12.359950733509754,-19.319610944277994
121,-8.978275707593546,-6.782661102238692,-9.994816640409091,-7.32335009118475,0.7602338680549704,0.5266513133170949,-1.2800304987238729,-9.509835982079503,-1.0925798738729597,-10.372858248093788,-8.935510758592407,-12.157536725432458,-5.046801346968354,-12.654505362490074
122,0.1301652197160062,0.21038615555657558,-3.8219009908691004,-0.5040438105254168,1.294693345477234,-2.153880929257237,1.5114223802687805,-3.901319710894105,-1.5662979818063612,-3.796830728018558,-2.0385221664307207,-2.116354751711293,4.643161306226854,1.6002855422380613
123,7.453622527106025,5.207770183985178,4.6380296884871015,5.500488413520386,0.9658575274812503,-5.460124469540439,1.9586617869034848,5.001673175104427,-0.6973646419303264,5.5554781638741035,5.226677218784622,8.66522685208726,10.040280942803527,13.077710584045652
124,9.31720789706145,6.927963270844652,10.282344578079684,7.432630946247077,0.18135844506276066,-1.8787888767587337,1.8595347767778208,11.92311612328157,2.015825917506155,13.099743524863998,10.53597167633187,13.37679676192959,7.885709724177406,14.132906974021553
125,6.786738796879517,6.293004496932877,10.26073905887904,5.653880319281857,-0.6649208242851756,6.126159116280831,2.059258739574508,12.313057896829921,4.448254639940552,14.144855016346355,11.80299207659358,10.77904538739233,1.8799443302189294,7.344892599956962
126,3.245302187405462,3.998003861882843,6.015400207544029,2.8081036597320628,-0.6935065142285135,7.943825907739499,1.6833888627872002,7.259234445211327,3.794781256523331,8.760002667881103,7.9936234762807725,5.223712104916801,-1.3165618870333915,1.4488365764708961
127,0.4456389128502433,0.4719688306928751,0.3174152858178293,0.4607004311719721,0.3070844672616484,0.10291481425364839,0.21903113480764463,0.3062184689153816,-0.04310916203624062,0.26443072077026203,0.4562978659222467,0.2479343455141222,0.17973404942529886,0.2529086963352186
