,AF3,F7,F3,FC5,T7,P7,O1,O2,P8,T8,FC6,F4,F8,AF4
0,0.09017208466173941,0.05473276948717299,-0.00348164276143877,0.044575801447740225,-0.015327156637060468,-0.050118430654078866,-0.11193634593842823,-0.12726208452577814,-0.13562777908895196,-0.086678654331812,-0.011705808592692407,0.028712841449915726,0.05842323676848153,0.06505156033675719
1,12.690194526268922,5.106876910657598,1.8490847370514365,1.4235942311094305,2.1201432926182755,-5.3701494589589585,-2.7025983839210537,-1.376249584419689,0.9654771998850834,3.204918033538913,6.194158652470022,6.262853745055936,3.2571852169631152,9.253912687916403
2,11.270806498237748,7.0594864389612635,1.849178855177984,4.370384983569991,3.305723953373495,-4.34578063888672,0.17106094410820488,1.6052606151231708,3.576894529150727,5.96160113134549,8.728546708061602,8.526066813805807,6.644377714087164,11.64576124041466
3,-0.8010122293552134,4.739117744908871,0.41740117648976993,6.137024228082267,3.2824427150992737,1.2014768615575395,4.550979058837372,5.793566486490559,5.204485715566421,6.3630092604675585,6.237870889206885,5.522601786317176,6.857036132884579,6.483694223416985
4,-8.13624839021811,-0.24634906253882194,-0.6618474660134525,2.724042010337555,1.7352812510544071,4.199749963769402,3.332026191043499,5.027730229660199,2.5787827547199207,2.815567306181639,0.38810187943869595,-0.4643120467506539,1.2337323963576112,-1.3762506480440733
5,-3.651513515305841,-4.397042930830678,-0.6469571318161446,-4.200129726218318,-1.6614362193595045,1.7781710138747964,-2.2573961230386037,-1.092709148206567,-2.8797648345774225,-3.358789542627897,-5.206916892623199,-5.207565039445849,-6.172181861271402,-6.48433430586074
6,3.4789291614047624,-5.0278400144162685,-0.31344628907042094,-7.487102094597451,-5.3809355278589015,-1.86333106747183,-4.723231383667586,-6.766186435801563,-6.242384475224411,-8.012156276465781,-7.184493045888896,-5.914475943675236,-7.899267386976956,-6.793813842197899
7,2.2088163857453953,-2.643607266540507,-0.41555017455435656,-3.518714548401322,-5.909743873667413,-2.069589719369522,-1.972383025412004,-7.35816805425496,-5.139971082489135,-7.634040087595343,-4.774829203846938,-3.426701050253783,-2.733182232443618,-4.025567989654905
8,-4.568555832064963,0.07550519352369583,-0.6574631979650765,2.596050045263884,-1.3378720108750173,0.4261004734303019,0.756478908753462,-3.2254730255324495,-1.355568385158927,-2.2551579058888085,-0.2518639253226689,-0.43770013698630095,2.7188632928097323,-0.9069712132173436
9,-5.239443793871487,1.640206468007958,-0.33670110336855624,4.039609697536301,5.331674803215795,1.8390306982102338,0.6286000972134465,2.861329784700887,2.9354528988835886,4.784330952114628,3.3032893486115986,1.9724652549560675,3.3576926100346767,1.7310394365856463
10,2.3323862426797533,2.5274401913890636,0.5291666126605754,1.1467883793689206,8.026984345356231,0.788435668345994,0.9757118704998197,7.674292071393524,6.329594481969018,8.779810184700073,4.318043545376913,4.001783865506291,1.4186697120725642,4.109737077325223
11,7.1018663722541024,2.5802956662795182,1.1151645787448083,-0.9978368407209014,3.682121679224209,-0.9220832779071627,3.286636556669959,7.4519691958708565,6.058984193104613,6.334737567172801,2.8224056952938725,4.081448308835637,0.7236367622539417,4.610955279766145
12,1.8244502200994204,0.5059489529016055,0.8032995347054852,-0.7665689833547485,-3.8473197614705335,-1.4735250927575785,3.139694236935904,1.0498719478367198,0.2906016018248272,-1.1797133192025506,-0.12420543854955762,0.3388247514560919,0.5646368985536445,1.3595650849485625
13,-5.253804940466734,-2.715404068040642,-0.03950204746324406,-0.4028525915348151,-7.211585953417465,-0.780885208393808,-1.669431483317578,-6.1889256635739525,-6.494847091070873,-7.103722610235464,-2.326982267027189,-4.3419768171877635,-0.8784463230035755,-3.0112578979633082
14,-2.99780749147509,-3.0927642617401125,-0.5510054229899218,-0.3289050152866327,-3.520774688639376,0.2865971366956252,-5.477458889700712,-6.787317264562318,-6.508564456615285,-5.711532347878474,-1.7448028347472133,-3.996695090589734,-1.7671111631325975,-3.1355566680459632
15,4.913510586677193,0.8757678552004541,-0.45119689337142405,1.0066890468433027,2.4258002040358444,0.8955957268830386,-2.802962999629315,-0.7488756591654145,0.5771775740070098,0.7527669069206444,0.8117389238977788,1.5900759478048831,0.01470548254235049,1.0025473764969746
16,5.5252891578045285,4.505802543988991,-0.25022978982832167,2.4546020625979836,4.117182052809225,0.7845960795925926,2.881785225304328,4.029268835055612,5.720367205800878,4.571486050282686,2.060291503108309,5.129860114184512,2.136304848121538,3.0891178671189805
17,-3.004551860441834,2.585583374228065,-0.38996746472732396,1.0568062416783808,1.121814672927961,0.5111938238129812,4.310120195552398,2.5555360084458583,2.7172878395755715,2.3216852520555484,0.4185785580741433,2.0045977857568915,1.1012479042485592,-0.10154581270687613
18,-8.396588023536296,-2.896837346917354,-0.5514637888319693,-2.3356125335698836,-1.4638424011724624,0.5683797175849924,0.7000066586270083,-1.3724372279451755,-3.343213407683497,-1.7294724526789746,-2.1481326959848364,-3.151494841725899,-2.088990497817581,-3.812601629062266
19,-2.865135300913263,-5.13100706350494,-0.0719955941048856,-3.4188979479816495,-0.6006022741897302,0.22620170538163206,-2.8147069626332595,-2.4202977295807724,-4.2793793750463225,-2.677231877523157,-3.1817115961581184,-4.000546084145771,-3.484580326376026,-2.9488117170661243
20,5.917936523540875,-1.8802539041216286,1.0014468725388883,-0.9693848295108931,1.0940158758960816,-1.3661095649901662,-3.230248712380201,-1.0609641657896427,-0.2632294004909186,-0.980893656801038,-2.2117358360486112,-1.3977533975791552,-1.6324828766260164,0.6515027347443703
21,6.7887553066944175,2.2285198118222285,1.5730593219805,1.4451972068621912,0.3444737736970175,-2.9043470708101404,-1.6196661226221813,0.0359166771635193,2.6934293041119406,0.5371151017376665,0.4015366665173454,0.2973795424354556,1.6387798330189904,2.4698422019513333
22,0.05484872330622566,3.0143486792031067,0.6334284483268462,1.25468860452478,-1.5031338983412574,-1.821815634849034,1.0024432968670849,1.488471472273588,2.648252573018829,1.5863052541113138,4.030841589804012,1.0822160338902636,4.140714811997962,2.2227021038048345
23,-5.277249388754071,1.5569067480395056,-1.2024627806023713,0.36457157680225644,-1.0664102408168223,1.861674956723442,4.268273174567334,4.050679737951772,2.3057339769445915,2.9735273990413464,6.117222364574475,3.148608905506184,4.318789048967162,2.005971645175759
24,-4.2337079723618425,0.405401098701365,-1.9622566267823836,1.0448296180867855,1.1695129123286934,4.52373000759832,5.584532052756294,4.3061896454704485,1.914332483500271,3.0065471288515835,3.2643580194384914,4.238769065307095,1.0976270843415976,1.1186107129076301
25,0.13193216958263732,-0.6262628351752554,-0.6903608369365023,1.6525863475149558,1.3929347599804927,3.0230550127974674,1.8143214358147488,-0.6266096314765007,-1.1650164993374232,-0.5504156895986143,-3.8061892321684976,0.4498248155189716,-4.31450365819821,-2.1364710983425277
26,3.093913120859505,-2.2711616893097677,1.1024864311408422,-0.44264629228719754,-1.184546825617816,-1.3470190119140202,-5.120500239382151,-6.5908317292850835,-5.641196224239262,-5.51907470725601,-8.724117411503807,-5.509286879746485,-7.419503240638884,-5.319366355168407
27,3.292628698316882,-2.5822874584069306,1.3505479237490008,-3.3701500045349446,-2.402409615772167,-4.181030696514742,-8.240526665992414,-6.348380619943141,-5.604006865499867,-6.043432418321118,-5.725386702743528,-5.9697434852763065,-4.134989148989933,-3.610723529162573
28,1.6939779926566816,0.5144669838963705,0.2083476643758566,-2.2800900071832837,0.6137792669305725,-2.8637352265979295,-3.5176206513248,0.4908817194742354,0.8512004433297237,0.10500890531385904,3.111461820451934,0.7697134952519985,3.9110732627685447,2.9079779267874875
29,-0.5778958809240116,4.575718803490962,-0.49005010368691776,2.940080334530794,4.253197928729418,0.6759137312897813,4.29968015267322,6.164193500932074,6.946220904037132,7.034400257938689,9.10987020950055,6.947344682616745,9.468562514431786,7.561575102141581
30,-2.3764130464952946,4.169388839493533,-0.14728808266153176,5.4740226253443085,2.80013595319361,2.3960405507659064,6.823903019904625,4.3302240378042995,5.122146768689717,6.519436030416994,6.129836304332758,5.202450820727412,6.549849348374064,4.674932639548108
31,-2.5971127468533495,-1.9457621610549316,0.03783219554413746,0.34318177320610954,-3.1485017855619652,0.9532797071659657,2.2210780211928594,-2.230713562757874,-2.632598992212856,-1.5801708216891732,-2.7065717525485464,-2.182571163584871,-2.740616299437,-3.1146676981515564
32,-1.252560727268719,-7.699545703704119,-0.5148534792763991,-7.242491138036412,-6.518598466488666,-0.9712193955475872,-3.0671236847047143,-5.466347777839211,-6.809279084922224,-7.978676915758241,-8.41733239517045,-6.9766734051357355,-9.58259098227195,-7.7131503591945645
33,0.2784726161700408,-6.1203407285475615,-0.7251992950151163,-7.312522851271577,-2.8318762145357166,-0.6551417722922275,-3.260853774276954,-2.0229062362113335,-2.659742160814535,-5.166077210975447,-5.790648329389586,-5.148083173050529,-7.638271750360838,-5.132221686597322
34,0.8385542509754409,2.0696480200230134,0.16150850448200604,1.454292592132058,3.8927168484695414,0.9429972818229274,-0.06111567659257059,3.3835265435019934,4.033476587715411,3.0712853269206093,1.6443179145506415,0.26600971633556175,0.2815441236197721,0.7587459870801925
35,0.8915505638911578,8.79247467326072,1.15434067733445,9.224568138982443,6.490706605572241,1.202606328598715,1.653008268825221,4.844789132814347,5.43835502080645,7.107885136892695,6.4404730968066914,4.773899435621476,6.311936757139228,4.459771494846814
36,1.4163847518394415,7.710167520732736,0.9766013083532552,7.625413731164221,3.373544454894348,0.13689468835577454,1.2082198103845652,2.434741992300877,1.7894781889262361,4.019466478441716,5.395823683386635,6.556958743850674,6.681062460458973,5.076397970813435
37,1.8857751816506356,0.6974918267758605,-0.14684590017725796,-0.22298926791156035,-1.1939229115673708,-0.18380793772011067,1.1280665238253624,0.09532520380913927,-1.05366654839112,-0.6684643162607097,1.3640046781217317,4.984013092474987,3.712224157602701,4.16427015503409
38,1.073213083997436,-5.517827057383661,-0.9879944463610404,-5.560839160881243,-3.7098694535712586,0.2684068084853323,1.2418698006636584,-1.1208761220357155,-1.185320612797481,-2.5686542317552554,-1.911752869299953,-0.30910652689219525,0.07464498910700852,1.2672284996318195
39,-0.44411853565852033,-6.847852172198017,-0.9092863418315843,-5.406927606811719,-4.230908157057535,-0.5599316036037479,-0.9390494803551023,-3.2711842757846115,-1.9406177015804404,-3.2159805023289416,-3.729215116413697,-6.697588524638833,-3.933873163142675,-3.951075208958339
40,-1.1673093852976297,-4.259416781068067,-0.2978383247940393,-3.2698667754593416,-3.1873935008469623,-2.5821411418579814,-4.490458242421774,-5.7733026163045755,-4.350341359890766,-4.267360929467767,-4.600731114946946,-8.609478332903942,-6.8622613007793944,-7.627734754177407
41,-1.7740380894991383,-0.5516496153224065,0.21952078754860194,-1.4753229625498099,-0.06479530402733269,-2.812136568961801,-4.8274889260511,-4.702449194229751,-4.532470027172062,-3.3586564918665234,-3.6508933269398685,-3.7056987096723186,-5.3821625882665955,-5.288098900743572
42,-3.63089328593571,2.5662018676176985,0.4745955424575725,1.2049844346514513,3.7462622885373436,0.14042141995281324,-0.33481172825138317,0.8085166570212503,-0.23292538450311698,0.9980350112625596,-0.1686341046838227,3.1865097834997016,0.4111756260113264,1.154539886989419
43,-4.360403152448943,4.440341961866652,0.6636143261492596,4.6999448062449884,4.794956989055748,3.6501672357698736,4.729672657025429,5.959342354026058,4.950880829059293,5.169024180166599,3.9562945280257655,5.69576903795102,5.288747373407463,5.131107167050673
44,-0.10890048129397956,4.677181751538432,0.7785844223240218,5.772479449230401,2.0812576145190764,4.381166280448802,5.723375478179576,6.408646638023732,6.432189431865903,5.107050156526838,5.714458923968541,3.7108994947185856,5.293075370951314,4.198110128317431
45,6.915353912489702,3.1239009376993248,0.4174936462781619,2.6660906785232483,-1.1991074487609492,1.9180792140655207,2.974015865061343,3.469055782138363,4.1955330781121445,2.1142741592772607,4.2445796812938585,1.8928996401779876,2.3805574489085637,2.14280543450871
46,9.12811127615701,0.03708760670604887,-0.5765100059059705,-1.7595689317574894,-2.011573408092651,-1.6683276620147187,-0.22393737561270158,0.7124240254400123,1.0166747826163973,0.0406753969859595,1.119274226716378,1.877766779375226,0.2938182984184952,1.8147245261463252
47,3.7123031960151054,-3.6961949812352946,-1.4674043119482723,-3.6596073043065815,-1.110480419086428,-3.97519897922266,-2.3131028379600775,-1.3630685760402979,-1.9401198206142543,-0.7498064327252882,-1.9356911545135713,0.6461824716443894,-0.650184300074969,1.026779532693722
48,-3.6613376755620495,-6.187867559993918,-1.2151600607511759,-2.9908494195830904,-0.8623372710494708,-3.541761191009826,-3.726556914293291,-4.111629566238694,-4.854927547175252,-2.514700920976931,-4.231979107267543,-3.296712188447097,-2.009174472485652,-2.5217636266075933
49,-7.241984741092072,-5.251569427713166,0.13708838371253879,-2.441699892738094,-1.6024906904477758,-0.7850195327316869,-4.178473389623182,-6.426203792830053,-6.462385664070005,-4.873198586912872,-5.378539073702411,-6.6331240655628125,-3.5374120533879077,-6.390840704968965
50,-7.231379146728577,-0.697200083218489,1.2830806186435606,-2.620341724596455,-1.7622915997984256,1.9560447326673058,-2.5138896745838584,-5.238848397930499,-4.630624086916349,-4.712321635659512,-4.547706992243846,-5.635677119917149,-3.8069567227139443,-6.245036904882158
51,-5.122441124975092,4.4020396728877,1.208029616204072,-1.0524657758205427,-0.30239767775442883,2.62255906539726,0.9505288691416723,-0.04633647078374412,0.4186452213102988,-1.1296230094120252,-1.0369287913679648,-0.8256167797908557,-2.3667806159251623,-1.3842819567970386
52,0.16146955459559834,6.201046241775219,0.3409593430127148,3.370639500700648,2.16184363132843,1.5793690185458382,3.9537499888500536,5.470977512835068,5.381718656229142,3.0516739926995204,4.243098063078798,4.271548343878778,0.6214523698553527,4.627541276239668
53,7.495306541801029,4.023849364008116,-0.2923769940447566,7.216407603353906,3.8979775986100162,0.49135905552279824,4.582167725321645,6.999232074673683,6.8358181101276205,5.117304472222571,8.044191079773462,6.858003318111986,4.651516779274924,7.624547529092502
54,10.78170233450669,0.4474555911078913,-0.4606057788871161,5.878340163317094,3.2448935385586686,-0.2036013142963419,2.8395805764080806,3.7917534433068667,4.212383848687676,4.949976348992617,6.807131801001514,6.024151492364368,7.197556929195109,5.869403334025894
55,6.003210361858117,-2.450784509835127,-0.5940122579117767,-0.5277610308486502,0.12821875919444067,-1.1711115889314718,-0.2068791362391843,-1.0855087818920688,-0.2617620282529674,3.1038956359270737,0.5498736728190919,2.0123003947237,4.650963667835211,0.6394323588359859
56,-2.7005352073657862,-4.518506643336483,-0.6895749896851312,-6.555529343498218,-3.308212760875924,-2.103833287449053,-3.3294892860073535,-3.9973267703551927,-3.7925420180944562,-0.6272978824725319,-6.040713875686493,-3.631778622389595,-2.5614650085034776,-4.726521316333228
57,-8.054276551630243,-4.8124668927075955,-0.25483968158883424,-7.087980848049958,-4.372651256898824,-1.612954989560227,-4.755114591932138,-3.5790937159925376,-4.719297203697488,-5.065498657855428,-7.804548652889918,-7.542763525039798,-8.15436106654107,-6.773427330474254
58,-7.565865238380789,-1.2698151382029963,0.6132541519487066,-2.453314731998941,-2.368700190774277,0.5732634516996018,-2.8566346830401694,-0.9730300400670405,-2.831674017919497,-6.540317721127128,-4.053502279683724,-6.265665219917161,-6.391810638184921,-4.211847555698983
59,-3.363305416433467,4.561997263625796,0.9548498536611766,2.6218438379427855,0.9170589768942438,2.6319041904448413,1.4152405816723432,1.464674080766026,0.5608344166780654,-2.824070511454471,1.5167076571114748,-0.05425852811429016,0.8139247956254483,1.016546999579742
60,1.904708587532409,6.32219988391202,0.25440620529466534,4.209859134942733,2.9923006407285664,2.492604659329445,4.345771479285428,1.7335887750183872,2.83721069257004,2.7871268648949115,4.800084096674297,5.79422022395333,5.846690065059595,4.866896112424021
61,5.318759761629059,0.7301675348626031,-0.6029500384199344,2.418380998676366,2.571219321291628,0.10531640589278049,3.303374703328851,-0.1605153249802014,2.010274252946033,4.452854783790768,4.074118649621203,5.678952738441834,4.025853348440488,4.11748366291549
62,3.924132946146002,-5.973784972288122,-0.4684432076092542,0.04696805901327748,0.40521791584760136,-2.475208380539592,-0.2741741477316024,-1.8563060594842986,-0.7424226942105332,1.1598172866890417,0.45133661596549757,0.316066312330872,-1.6512199981814586,-0.4776168514399954
63,-0.6984717325154177,-5.015894482607957,0.37019905937212,-0.6771369695104409,-1.2913944522716707,-2.9969794187267884,-2.8792209861441482,-1.114117258582399,-1.9203641029260432,-1.8415583236725401,-2.6463057089077235,-3.6802712021231447,-4.474328905013871,-3.9421561381256227
64,-1.87133549487429,2.6456478562575714,0.5961273566552181,0.1466789548221309,-0.9704122290246605,-1.0157561067998424,-2.7082534271439003,1.2954386340857955,-0.07712641237082828,-0.2838648147897089,-1.9350899390191754,-2.051647494638598,-1.4283034758397057,-1.9235027707355445
65,2.866745400799806,7.139449304497775,-0.1800570133429075,0.7377932016059869,0.42132793441978733,1.6988037345895068,-0.4866603299558503,2.538917477913522,2.1830197237125684,3.2121114894413485,1.7798144598512131,1.8985237160187263,3.943117213079188,3.513366691804326
66,5.799948996495328,3.137577513577703,-0.9041401020749764,-0.31420401524858554,0.682403217724906,2.8597868281677523,1.975631590661413,1.475361586108979,1.9465477921037533,3.0774985582799186,3.5161512479149577,2.5317099773859932,5.663316869949791,5.302397668115527
67,-0.5653063658582749,-3.7329822644995434,-0.6139983641764126,-2.362923584543519,-0.5877575283986413,1.8470221491494108,2.819091091809522,-0.32437276668718157,-0.04061865538103476,-1.2687281654426474,0.15591495121123203,-0.4108216411806856,1.5998628514341844,0.16243814243523952
68,-10.338811526447135,-5.869079858422663,0.4018495321165139,-3.164500635067681,-1.5843884496116998,-0.14163615331193297,1.0216055998925018,-1.385369784336576,-1.2425582453175825,-4.944217311667157,-4.859830541703612,-2.7362266022009396,-4.620363913056732,-6.466782177761569
69,-10.607021910042805,-3.152237763341848,1.132708158751461,-1.3337551055662082,-1.0073148511947032,-1.7735248102021033,-2.264613793019436,-1.9092068454731568,-1.4547120741617425,-4.45305052860654,-5.482530408602932,-2.4084601080633443,-7.354941239674746,-6.894133505292
70,0.05449684497773533,0.08875986921342667,0.8313304499763794,1.9138057077600217,0.4589963706641265,-2.379701960875684,-3.8933519743990916,-1.9429538908097501,-2.002070330471562,-1.2665303424698295,-0.7054490231638084,-1.008801137509267,-4.115214634923807,-0.7310110803705051
71,9.363747700546796,2.4561517166296865,-0.4535048993649725,3.9030607255404006,1.5546234846915978,-1.487063126055204,-1.6229067154901986,-0.43191926517889545,-1.990843272602382,1.8614705405285754,4.54217959953721,0.45752650660984595,2.4213905501307003,5.346583585400496
72,8.867497770880515,4.698752088828169,-1.6037387294020242,3.1807213191719774,1.7029880826719068,0.6952036281215385,2.9709734203307088,2.4012964557349137,0.645728728140895,4.239241626948898,5.73412499007869,2.689480389761992,6.887603692043037,6.313124443085128
73,3.6738737172549247,4.984781974744462,-1.0964963655630278,0.663666792567821,0.7439304802041472,2.386851692277312,5.381358103550434,3.768456368464309,4.361155612349686,5.321811976337291,3.149937530925936,4.671984356549539,5.996510966624841,3.398594899378903
74,1.0996540407608315,1.0224871759210097,1.0144840328561495,-1.615989686528556,-0.9027921852023708,1.8187183393781035,2.8114388273275233,1.6048002205477798,4.580448292989906,3.2507861617615594,-0.271267828434911,3.361003824513281,1.2780511788908937,0.03224031228664964
75,-0.8096895975194751,-4.387623215584692,2.359715908687486,-2.426665431424289,-1.7839022787802228,-0.18954634629159864,-2.4273252239242398,-2.0963054972766315,0.24448303972559435,-1.8740195227978051,-2.7226906354789544,-1.6020050894481528,-3.0377568980835976,-2.6576613688706168
76,-6.613111028618981,-5.738581366459588,0.9710943409982422,-2.1520271649519156,-0.9105088272258692,-1.267964459365347,-5.3865268444855925,-3.654160005884143,-4.237050901806471,-6.136163986289605,-4.06070084560576,-6.023666053507249,-4.551509626385997,-4.819073412022635
77,-12.112539212294086,-2.7231541730730737,-1.7518946870008563,-1.9021622942015415,0.42551878327543136,-0.9928348077285509,-4.116375341039466,-2.5449637349778524,-5.066564140602926,-6.143519108238092,-4.347220826695892,-5.930042401699964,-4.100670937004671,-5.470465776383556
78,-8.489919054523202,-0.18787610478402092,-2.56419176267234,-1.6244987225614251,0.34139002155670417,-0.8437995782307142,-0.8896279844560383,-0.986277162580362,-2.969016848867979,-2.824746547085302,-3.0921724921075424,-1.9172022166744391,-2.8114543511145005,-3.2507439034780647
79,4.191757416095439,0.2984956906969258,-0.6164199950082647,0.23754440797852744,-0.47781935985405943,-0.8362532035299509,2.0251570683094497,0.6339987073106066,0.41426996788710113,1.3559037597165835,0.42117155375876875,2.7091148987946374,-0.027994275901156288,1.6194355260136808
80,14.843361136064022,2.416867410571276,1.6676022744992656,3.92670428164127,0.1332327076528838,0.5648748271558752,4.5322570223466965,3.754424380852195,4.855469896609077,5.548253161962752,5.630184622724676,5.631379757955395,4.270373453014583,6.838075087587963
81,13.595621856054901,6.602411808121575,1.9695431961885288,6.121759064761517,1.7827967620253597,2.7546665695047405,5.775788380980892,6.578465849809087,7.873971883040073,8.139814900085993,8.965708106668151,5.7389566595646,6.955281058930529,8.71813374313665
82,1.999965593635562,6.515349065875275,0.5652167012937326,3.2051201495798485,1.6933947359979353,2.6958448861470306,3.103437134405998,4.0928426249034136,4.586371639042184,5.475037395040244,5.746045908282265,2.396611108255872,4.548622722355058,4.400574811886273
83,-9.786902805190197,-1.2942179525016637,-0.8668550564888594,-3.219459926927128,-0.6960980767635926,-0.4904406193091541,-3.322332535653031,-4.154916506791967,-4.603385865844818,-2.762222115394494,-3.698991665880899,-3.0034334338355575,-1.904695478685157,-4.407325225567978
84,-12.882566771570627,-9.614350128464688,-1.3399193379556538,-7.077391256203994,-2.4860852186489844,-3.6235441641268498,-8.0579695792488,-10.499079598939423,-11.025193474690367,-10.044010149065107,-11.46300652179121,-6.532012557589081,-7.090971100672575,-10.662838328844845
85,-6.06788006344987,-8.730222807526802,-0.8277465055216507,-4.855666420421008,-1.6293240983980608,-3.5804659595945423,-6.121679134384268,-7.536442651859213,-7.468499780955703,-9.348299172706238,-9.368942961578153,-5.189328512227546,-6.604164859508268,-8.063597182076728
86,4.4575983979027285,0.53901469781412,0.3107833990774366,0.6454760899461401,0.3749255510820378,-0.8903318201755416,0.5287613126797663,2.214682186320484,2.418106649447697,-1.2870609025391142,1.1853226073904883,-0.19004543710876226,-0.7499300567529564,1.522670719304118
87,9.857627933890383,7.855482799169281,1.2888301238424875,4.341744641045993,1.2904119301995436,1.9934572088397922,5.438459115343154,9.078572430080575,8.951933794771339,7.102922725779544,9.901314301337498,4.410658944585218,5.805574134677727,9.055609495987559
88,5.637384254039252,6.253350010910577,1.1020481477138644,4.209959822126281,1.0894173087530126,3.621253817054734,5.3434831383519725,7.607712408835178,7.823572955869174,9.75320297599477,8.84365718314023,5.46300047286583,7.208893137832897,7.719384552212428
89,-3.6684022070943043,-0.8098312328450209,-0.28950217914942733,1.6703963550485554,0.7273656295876815,3.3952803114988406,2.3687784981867046,1.4574329751390387,2.3407375387304197,5.5673432158252165,0.5240217642303633,2.58518781182254,1.4119377589309052,-0.17958274621457476
90,-8.257994199328081,-5.155395147316853,-1.4950946563726522,-1.0897293993535153,0.18883118013779315,0.8539066637851465,-0.4961847720580981,-3.04888213926857,-3.0810366391435267,-2.3031395780308244,-6.290214772193478,-2.096200008318431,-6.339629324037475,-6.4427524777163
91,-3.5964691893141247,-3.04357231534889,-1.208131204802369,-2.674746552674482,-0.702894650666101,-2.9204184493645524,-2.516568067264791,-4.356679206960762,-6.551765051468334,-8.421573630947368,-6.499771910167491,-5.148745202878961,-7.641140038266013,-5.824486226945847
92,4.470938878424912,2.056880426319583,0.19818699551931152,-2.6182249059788867,-1.196377941575878,-4.778578066837378,-3.5304704768623365,-4.672566740203588,-6.916163677295216,-8.209346843550875,-2.3062612352194183,-4.16210761364525,-0.8095335434061678,-0.5406286374170194
93,7.18581296221505,4.093957534412546,1.2457383632432446,-1.2099605254943806,-0.7571006866770319,-2.5541680976210173,-2.5458132497995223,-4.172573376954142,-3.1702746940569475,-1.871471256029844,1.7088948752147946,0.05367742577245506,6.328316899229892,3.5451619789673736
94,3.1370348510231025,1.1117600869252695,1.1222426961798901,0.9363458702999445,-0.05610205205798116,1.8820835188326195,0.3501959716053747,-0.34917164048093624,3.3160366858569845,5.323945257165265,3.8657152216076307,4.176273998205204,6.372648807764753,3.697179732678798
95,-2.003781437334987,-2.877379544610465,0.2513907476547991,2.9888497385160537,0.2840959225013322,4.1972145261081595,2.774101604944457,6.224962934883675,8.386874155163701,7.956385301205241,4.68139365143815,5.40303610772051,1.5169283890999319,1.983612508001772
96,-3.980906873757565,-3.113177528258255,-0.5554676944740146,3.394520058294046,0.6933968665976606,2.3134020801165494,2.5198578009866828,9.340542244156433,8.02543166447874,5.092593539925643,3.5584486818698813,3.1166000943985317,-1.4821875536537739,0.7752132334549037
97,-3.8368242899059966,-0.0627458173253089,-0.8487513088120351,0.7267532625634682,1.3302875754899977,-1.3595594990945592,0.20947226175788758,3.953246868466987,1.7247072644519659,-0.25602390196099223,-0.6030907531420636,-1.5454720675010944,-1.839523691160738,-0.673233345738435
98,-3.4108834579142266,1.7852379086034496,-0.5600063079821218,-3.646263002939753,1.0729023565828446,-2.817100336104351,-1.704823447458271,-5.938468880700791,-6.379345752167897,-4.719995029442602,-5.8248209447248245,-5.9169980470606705,-3.6626455184340916,-3.4587153157103705
99,-1.3750022943763052,0.5206101140426184,0.10957411627175133,-5.307334282083907,-0.6818356259342997,-1.0949044771192888,-1.7154921045599085,-10.427904461177468,-10.015934133646237,-6.453610048795934,-7.316088294575263,-6.380079165169884,-6.267601537110587,-5.233228148705138
100,3.6320264678101,-0.7133995578263312,0.6340760941268263,-1.5619823216238589,-2.2046065271287096,1.024405067309826,-0.15792488853369202,-5.1657795147710575,-6.085817476693361,-4.734251043008282,-2.826512948898392,-1.5462932638987668,-3.720435378156783,-2.6287860563056014
101,8.174637889997207,1.0352977707709383,0.4420508715248685,4.259049862021452,-1.3189079503285916,1.14094935903897,1.6735525021577284,3.8108068952329717,2.1118741714323854,0.007188550564580842,4.034101532861849,4.872495937133968,4.60051650870422,3.1750734934248177
102,6.347628003810591,3.3395175067462692,-0.356602672224512,5.836934185609838,1.189591377229767,0.29944118742451176,2.264669912948454,7.749128666185334,7.89090886381526,5.140959252612709,7.34729394987678,6.961337392340035,10.257288568614628,6.709874142680519
103,-2.1509413013736975,1.506276243833633,-0.8153275786968389,1.3826760358809984,2.059750287491422,0.45448938570542996,0.6285272446454685,4.529558587266447,7.317081512453251,6.613346207420453,4.829219668049264,3.1222138953701464,6.389592795593949,4.558179322227488
104,-9.518618787645073,-3.848787297889656,-0.24295362997714243,-4.12524546899079,-0.02248785860825201,0.8177329601077874,-2.3425231605782915,-1.1378258421719305,1.8918031055780635,2.8300176741997802,-0.7148691343842046,-2.3519592783132106,-2.827458281219947,-0.9742249765400032
105,-8.289660780643855,-6.380790223813068,0.7714555126797766,-4.997518919384257,-2.2991958365863514,-0.45951588575042435,-3.7845013485799073,-4.061910206845306,-3.6878685958255386,-2.6377561275614796,-4.803453259886725,-4.713005891344385,-7.786916127319119,-4.979867021455184
106,-0.3163103580432756,-2.5276075926709747,1.0779699192598948,-1.2098814618849199,-1.53512216600823,-2.3050966478721757,-1.638450932684791,-2.9513107015599322,-5.37891813133319,-4.432736015971398,-4.9318329078850205,-3.4423987874030417,-5.2997112849147845,-4.768850488316216
107,6.165721274627735,3.530303773057387,0.48898917252090235,2.690235655393795,1.5591863877661998,-1.9166996738074495,2.467712898250424,-0.021871990753135104,-2.6238368907232736,-1.718608718043003,-1.5969487933918467,-0.7211543419403507,-0.24605557785312193,-1.2540313685960935
108,6.750484292436093,5.975113060261768,-0.2756004559280888,3.526994383801536,3.2776530968983124,0.6052837305565129,4.508240941106333,1.7851634927500117,1.3337226457369247,1.1644337342329574,2.5578371315675104,2.0012894758357462,2.5635524123994973,2.550894125391177
109,3.6820617199165184,4.367727385746417,-0.8903357476897289,2.0217246989775566,1.6605937436198248,2.239593848290273,2.568634194183606,1.375157161660523,2.578891923452363,0.7877580885879885,4.291849417340126,3.8464455157929827,2.9514721226539407,3.735634101680867
110,-0.11348406985265228,1.2191155344802487,-1.3982478635263174,-0.055258202159234576,-1.4950804249556946,1.5726718561687398,-1.1497230698213223,-0.03263919112582296,0.5432988320450606,-1.2750906373198247,2.0683014057028237,3.1503445627069757,2.1146501338930985,1.6566815946660407
111,-3.926607943773337,-2.8071034771407017,-1.1083894253689892,-2.187665194884794,-3.1885901446225273,0.1819513138115991,-3.2751846447454867,-0.8676395287917942,-1.8369349095677114,-1.5409568718945772,-1.9684546488918337,-0.5295931092207836,0.12090910621401887,-1.2646562472421865
112,-6.048850769655539,-6.513875409773975,0.621160333291452,-3.5480020427859182,-2.2681066194523094,-0.5933477300919398,-2.910113488808584,-0.9876341094919504,-1.888521118338475,0.6066559357279898,-3.468581709677983,-3.980604154073485,-1.819818652258446,-1.841917865070711
113,-3.611461181150088,-5.643901997203448,2.384169982160749,-2.106405040913609,0.10351897594708287,-1.1356998516559575,-1.433461204070503,-0.8833236928217097,0.25284494225559073,2.8418736798367186,-0.846428943817141,-3.313247004942404,-1.1024143603088794,0.19360608425310788
114,2.4162014482100966,1.000106912270483,1.8062489950619187,2.137054302796008,1.916338870166352,-1.3460874162072485,0.17862095331919425,-0.1407676654015774,2.770167137583484,3.0432884802616487,2.402342565188922,0.5834019164648787,1.80762390109814,1.8052313724895643
115,6.216594546210959,6.593029327258108,-0.8028625087347218,5.0005525516634615,2.0599310695655375,-0.10132253560605609,2.1029537847470325,1.6684855479916385,3.8941860807785953,1.0570814600708953,2.189725973669378,2.781711449037723,2.4336605713895527,0.5594656203863141
116,3.4541360830967496,4.353414386093997,-2.3018656785873026,2.465377566690567,1.0279040451375419,1.931446312962804,3.8080022428046423,3.0147134704442977,2.2301795168894514,-1.8127036826163279,-0.8085606560456425,1.0222398442562086,-1.3602697854943995,-2.3207383467513782
117,-3.312025491915211,-2.1609412647312314,-1.0817900912765837,-3.4919232114997882,-0.09289308765051661,1.8804769616626273,3.3492438826577593,1.5834167198531217,-2.1793486807143863,-3.8593160892287877,-2.6903300648631294,-1.5365242268360595,-5.370796919159065,-3.7511769897823477
118,-6.968230155056616,-3.9753858968956686,0.8584400979827848,-6.370056354731778,-0.9380809730471753,-0.9998600834432715,-0.11040683149017415,-1.9787753680847229,-6.068615067463195,-3.7476534856493973,-1.7444436831485275,-1.3553018619455455,-4.476441234963471,-2.3112083827950936
119,-3.164590282612073,0.1088620133234962,1.2114250805266202,-2.695279472321275,-1.506571472804149,-3.1264153864582496,-4.058735814608968,-3.7845376514525553,-4.9419036200311695,-1.191215517099369,0.4977645784754401,0.7866057012029711,0.6821065607917698,1.137007392198806
120,4.872401082243172,2.983621847235221,0.3215054517923906,3.9979135735512523,-1.2202030888887714,-1.3380534243712339,-4.786744748863461,-1.7313291281085785,1.0743466227284255,2.5648274126854487,2.3129572620399164,1.9289470352443117,5.368228859267361,4.734415879674071
121,9.091677254988497,1.1295246145290956,-0.354445309433903,7.265083848046412,0.2443322669859932,2.1635544932932036,-1.7452620468452118,1.2538474005813187,5.796954604998368,5.091243744937014,2.932307644035313,1.2861857126334106,6.607023013053148,6.091681120205275
122,5.001397932491303,-1.1641105234232583,-0.537465206050155,4.438202273469928,1.6646693712966856,2.805426551069806,1.8491266425085255,1.3630990387293427,4.1942514835024705,4.361848099137596,1.7375055785230584,0.2230826277757177,4.493261616186596,3.3726489781507376
123,-3.234841678583497,-0.6017095655578194,-0.519716292774687,-1.4332286354275634,1.4345274598038646,0.22488092657263814,2.9642590106917104,-0.4481839675471891,-0.9728970375559405,0.6050654042496985,-0.9107626531322062,-0.5254239344608538,-0.049752318692459954,-2.115418027393039
124,-7.684553861309815,0.009858142103649964,-0.06328600845730407,-5.4379145724657345,-0.2039351259980231,-1.7224951795161902,1.7742663901372624,-0.28556931589202633,-3.1052038738773233,-3.5927591681469955,-2.9279189997783366,-1.3319122230961395,-5.466120205167706,-6.086856526366214
125,-5.835487017558024,-1.6001250290924076,0.7465479438158225,-5.498589910279538,-1.4717799695235991,-1.0294380192264916,0.3398638786926278,2.1288601232090487,-0.8541294051875883,-5.406600055074636,-2.774268618942817,-2.026200090058603,-8.608747619729236,-5.875684839837052
126,-1.9868247296164647,-2.3595939602300264,0.9116247624094074,-3.017651674571851,-1.276599641601672,0.17504048942412537,-0.1405121187925389,2.793103585984998,1.0316419492470499,-3.9088381187004595,-1.3688835520676979,-1.6569573384962952,-6.590739339466607,-3.062891342088399
127,0.2782478006792933,0.15035311071776017,-0.011796890103082632,0.06382380957932798,-0.0026807455434904523,-0.00572915562512772,0.09803547951896754,-0.09400490139912633,-0.23655379692850736,-0.22837286289013187,-0.12039996224954964,-0.04462960619855445,-0.08608322186919226,-0.08922452861402853
