,AF3,F7,F3,FC5,T7,P7,O1,O2,P8,T8,FC6,F4,F8,AF4
0,-0.016659470206701395,-0.0006180626848322213,-0.05738488786767487,0.016059060512845884,0.018852209976077474,0.00853816218019645,-0.0456712116190883,0.01112932223001533,0.03767025916151499,0.008672591922477454,0.027860152619266644,0.02192741795006034,0.037928574222735115,-0.01946418496831114
1,9.543384292812313,8.684777859155728,7.507010052922133,4.898888678704908,1.0951946371669798,1.0198166935505504,1.5214362810473172,0.5765707394725751,5.837710988484999,5.013632954287963,0.6245744155152879,-1.2097772156514868,0.5073802146487918,6.070250192873286
2,12.504366367012375,9.81004467648197,9.156845108258151,5.63832411252846,1.3051900668123142,0.9492430542126458,1.9597940574749302,0.16587870190355242,6.853249244079726,5.756149006985427,1.3526016112205956,1.3898342374156614,0.3019765204617812,7.8649620448269975
3,6.500164266841882,3.882107836694261,3.9199645989550223,2.0599083006259877,0.44937517089710244,0.06027499214072566,1.1605563862495083,-0.36396261441985023,1.7235680247844778,1.6980789151088211,0.9310748110057743,4.152918601788073,-0.6937512032676425,2.6307149221480604
4,-3.926095555060921,-2.795972479984516,-3.48036857739711,-2.234252727180936,-0.7747208693363513,-0.6169711840457579,-0.08655925794864477,0.3471877014017955,-4.840066655045723,-3.3459443366103767,-1.04705473039213,1.7278206539644718,-1.6561021392197084,-6.253374727227353
5,-10.205049605348254,-5.925719817757322,-6.97674563096469,-3.676768887757863,-1.211825212977139,-0.5734261040156187,-1.0497375301087293,1.5557547549579172,-5.7207888117218815,-4.714550497266915,-2.2338133288006334,-3.593652822200453,-1.2890232936208714,-9.564607509811038
6,-7.605005832241656,-5.545560732894523,-4.667881580300936,-1.9679566995925022,-0.2928526938430918,0.08822791985377457,-1.4076492318000307,1.096140033405069,-0.1165165820961843,-1.554907209621762,-0.5568912584527912,-4.858877374269576,0.7340832590791714,-2.4736441936828686
7,0.07683007467974984,-2.7875143917723966,-0.03493180772833272,0.2731311614098005,1.0927359812680755,0.9810775259922638,-0.9183465241365993,-1.0602393747493504,4.718193264541473,2.3644754435587227,2.137842952977074,-0.8381632836525422,2.8694153185190574,7.420795839183533
8,4.869099053431788,1.2267506309621974,2.321184318340101,0.6240356339178705,1.1660113186358445,1.1371294088237258,0.30392217569097135,-2.2935331465434343,2.869308467746126,2.8850199745080443,2.2088210960496513,2.714904734396585,2.784719035205609,8.288271205914631
9,3.3129528728414024,4.041837198367268,1.67175640442729,-0.5206989587753854,-0.5575204660002604,-0.4394768529884109,1.2130648187679884,-1.2261776501812147,-2.569194458961537,0.05613575152369789,-0.5060821497910443,2.0950019616823736,-0.07835029343991909,-0.34174131706260497
10,-0.4335888077522606,3.6034345093563735,1.0989424401926682,-0.6175478905383031,-2.0208441007122135,-2.757693155795427,0.7652442529935092,0.40655160415358005,-4.313357451914883,-2.2742414594038896,-2.3056733196124832,0.35080997653513035,-3.1811175523303095,-6.889659662115524
11,-0.6488321871202274,1.216205202507378,2.394923710154904,1.4887067370123315,-0.9810922714673866,-2.7498030633666937,-0.4573553828652816,0.8330888253394578,-0.7753661733289265,-1.4218132669815553,-1.0479124198470369,1.0054974539540948,-3.3005369905129136,-3.802346912194753
12,2.2652443713114025,-0.37575493608599375,2.886220435992601,3.4187570076705054,1.5261991062106064,0.8394401123355844,-0.9070461000715222,0.5619396192297484,2.6822108319257976,0.892961145336041,0.7575472125577969,1.7421318979170046,-0.5533016720723124,2.8333329734054535
13,2.8197704579665497,-0.9648263918211473,-0.4542032951235304,2.0567110127980706,2.19430545739941,4.540845510033458,-0.3620010381494557,0.5336669657365883,1.8962646584313092,1.4127718037584687,0.20140419074947086,-1.2303199770864623,1.7121585196358045,3.563954661063512
14,-0.9841746599567689,-1.8345813226742416,-5.079510347829829,-1.8494260505157518,0.21049093575231345,3.7539221811155348,0.03927739172297477,0.5037162317950958,-0.468492489166354,0.19284664145705724,-1.014483178214554,-5.176353057884588,1.651370536704842,-0.853450438941772
15,-4.36150395380507,-2.278634491659821,-5.164281501947139,-4.116595304502116,-1.5864663941753072,-1.0854671817178556,0.02491137366711406,0.22695397672919368,0.24831137649647989,-0.03411539342424613,0.5719123500009,-3.521155088245808,1.0286025905158456,-2.5548684323634827
16,-3.0296437568331998,-0.8284637339662403,-0.10516990377358737,-2.559578744124183,-1.0953377158984634,-4.602643685593949,0.5785594793678999,0.04508743921942199,2.745843688162921,1.0500578941225767,3.5192407124690925,3.29790554538971,1.3045498369782633,0.5972449787751406
17,0.5330705607020642,1.3183349636717707,4.054813428854962,0.4991528354949842,0.31311565177015865,-3.089436026302785,1.787788707870668,-0.19130709256176567,1.4458496699582892,0.6154130693482263,2.637509165542232,6.5637689742994265,0.7929495230615116,2.8923973697014045
18,1.6957890254854875,1.7841277871282486,3.3320002026532953,2.0718918552534165,0.7110769291520529,1.2394101194763256,1.9950090556473803,-0.7955881660264474,-3.8962595805753377,-1.9169339653829496,-2.527459477174878,1.6966797400747038,-1.7448265225016133,0.6848507395373482
19,0.7895013311002059,0.8809641955323271,0.8582364049406986,2.1173349440780513,0.4870489560188314,3.3959108547066377,-0.11562158913100615,-0.9656565268955011,-6.154749620214295,-2.8322368989187017,-5.619759506339391,-4.483225972940083,-3.5462300308183927,-2.5766669437574605
20,0.9626336852731524,0.46965188633480714,0.35854779964996136,1.721283082809049,0.525246255275475,1.488065193698937,-3.3755351565168987,0.0374464433713894,-1.1300534081703928,-0.03731731349695514,-2.365777451301619,-3.8077306571373692,-1.4977532193206256,-2.6411071970782505
21,1.805484004958496,0.1349820576135586,-0.08813816335414411,0.4650508052169115,-0.0008390856072640722,-1.646255653377032,-4.72509482533726,0.9082025946428105,5.360354650110516,2.7415077234663054,3.0182441074312454,1.347079082032315,2.3989271971999764,-0.2977938714085668
22,0.5799495994555657,-1.5148285376528248,-3.0046366553122863,-1.8435627262125807,-1.6382989273290158,-2.214460428464282,-2.1385930477870954,-0.007028501380843596,5.260612687460112,1.4618551262697683,3.969554020253631,2.8238178480827005,3.1505240718791616,1.4133856079212392
23,-1.8018471635104751,-2.6853362382122454,-4.837097187882863,-3.01656818077632,-2.3454351250150176,0.011373990007813958,2.824239587537636,-1.4714545262860375,-0.5764592507719387,-1.5876588302108594,0.6318805796782166,-0.43576141058956197,-0.05774873381400556,1.7985432228569849
24,-1.758795864430053,-0.349803944877106,-0.9304429812892598,-1.2058765488903644,-0.10058568359561458,1.7196504921039166,5.82926001232151,-0.7225995650344355,-4.347392889237378,-1.3725041909771307,-1.6073566311890755,-2.0705022008297655,-2.542734910455163,1.7617759077582558
25,0.43215403372863676,3.594692113939246,5.418048569089559,1.60132793179072,3.161602182016047,0.7338108252230133,4.116054337129492,1.933710745233818,-2.2696930126977546,1.691624966012139,-0.4818029917589096,0.5135068563472598,-0.8721801554235215,1.2111107585509386
26,0.7514362641818908,3.425611446300598,6.094647689927727,2.0192911394081463,3.3784978403811836,-0.8734796621246583,-0.2654050015769769,2.9848885948757005,1.808291692615724,2.458943794825735,0.9190153906263153,2.48605161649149,2.199734184028376,-0.41608156649284306
27,-1.3937560055129328,-1.6809296655792394,-0.07838491869080665,0.2845730973746313,0.07347099634957674,-0.1320316421446941,-2.9947140585154823,0.792103093281359,3.122451257541176,-0.6391196033483436,-0.07361292170935899,0.27992038089881244,1.8821011203806142,-2.417934595754933
28,-1.743366553125326,-5.144108179107056,-5.394034959988949,-0.4898715548991937,-2.781056684574139,1.6920906136128289,-2.872301367568256,-2.0636443803949747,1.3596010625587596,-3.211346507191777,-1.7465542499241815,-2.6549824971029157,-1.4515569816625897,-3.16019145979192
29,1.3985745601011146,-2.0505159239477218,-4.149541596621755,0.4518722656429325,-2.282224953127978,0.740218591683747,-2.343815498603594,-2.6119103188266948,-1.2412753172427382,-1.7375518997008423,-1.188311256344173,-1.759890360142787,-2.7642252732345653,-1.7666265513143566
30,3.637516856582725,3.5987810614176805,0.38339459653097596,0.6496234461114885,-0.19732219646579108,-2.790724103846363,-2.556264851954107,-1.1707349949622896,-2.9930662955769516,1.4614988531722912,1.0711149842639298,1.5451829911614228,-0.058206048620869005,0.9076237026232826
31,1.3411049269816457,4.595298814448083,2.2561243860641333,-0.950785747534786,0.3683251693367936,-3.8523528067120654,-1.205229506613355,0.2238932533620121,-2.7043752441039186,2.1428909708538617,1.900478969916141,2.482529116571469,2.480237111391912,2.927121463469854
32,-2.4221961429763814,0.3505564752209948,1.2052155735943058,-2.047412270889792,-0.36933849692860954,0.11736843287299026,2.9898685592275194,0.9271217253557997,0.08647203938354578,0.21244099194654648,0.26255007806869346,0.16073404337335906,1.0467078403026109,3.096177147576896
33,-2.6940132486415775,-3.371120369242206,0.8928271074340123,-0.7978616690080009,0.15630074511456715,4.7728975136859315,6.526172094368158,1.3755734827200805,3.194147323101048,-0.9232025470182419,-1.393214515148721,-1.6892217248342034,-1.849472922491694,1.8208015670073212
34,-0.04584310069670005,-2.8215323522092173,1.9088920758398438,1.2431838435607967,2.224571952545107,4.347467057583812,4.822780507246004,1.1996649803197892,2.958366696506286,0.07885827182280541,-0.9797304202634078,-0.7123667959720835,-1.6823079554828386,-0.16285761684358963
35,1.206715279423881,-0.07354817062494684,1.1822750570372678,1.597051370289974,2.7822444726192574,-0.8163290963523159,-1.470373844617113,-0.16290861964101333,-0.7590796373599729,0.7066042316368448,0.29590836384456765,0.8018997669489912,0.7949073242061185,-2.6188420573718965
36,0.007110380574305276,1.2736940445194476,-2.2662482747579844,0.3249698253658765,-0.14725704041730753,-4.870581418093319,-6.513742520518895,-1.5891384233459942,-3.2379775633333527,-0.8958958668140068,0.4106039197265799,-0.022278300304124976,1.364680902741086,-4.381289434902396
37,-0.7219314250696219,0.768148686447296,-4.841087992270241,-0.565688574947805,-3.7739434041246622,-3.554203962387874,-5.63416278796462,-1.101602653499355,-0.8567550922859418,-2.2853715718571017,-0.004952858228809219,-1.7480342224857512,-0.22691794713291966,-3.1096778585866742
38,0.6374087576839249,0.5313592244555816,-2.7906920826340635,-0.0406074392078827,-3.4185210542506668,1.3145875666919362,-0.11748795834398129,1.1920445570765603,3.6052761934656465,-0.08576914048201412,0.8920077321435448,-0.6778648004710517,-0.1539023929052973,1.396209593117872
39,2.2533231678597643,1.60761964769263,2.7108370574411302,0.8872110878062281,1.055474868318226,4.299450754492696,4.464649710855135,2.574619211775064,4.251066734203364,4.094503432157011,2.3085551110861284,2.8046884205568023,2.16031312458389,5.275004943511013
40,1.8242724620930555,2.095462990917792,6.177100573509143,0.5911281066496676,4.231007639529626,2.3152735809811453,3.959556913491697,0.9183455197060036,-0.4989797805294395,4.427694273213899,1.2770414892925936,3.6395716353520724,2.154929380581056,4.582159178541303
41,-0.8117685693174331,-0.40362550885799464,3.553445990925343,-1.1681599356641366,2.062049974514201,-2.094251625314012,-0.31976199143678363,-2.425612817648244,-6.064420117383488,-1.3098751266504884,-2.6676801350234984,-0.4933111715083855,-2.303800046465117,0.19513581063097235
42,-3.701358815118463,-4.454494471128742,-2.861929504893276,-2.6022723072029743,-2.4523361120420595,-3.665756900975081,-3.165033681470815,-3.8695452694966943,-6.767614314073113,-7.3094241887073625,-5.534566992596293,-4.591974508582521,-6.057539116153503,-3.5787974632437356
43,-4.02450648405189,-5.005240362019776,-6.242676467718387,-1.6658825228155907,-3.424285489660931,-0.7274492446275086,-1.4670938049352216,-1.6610866794587635,-1.3841207645383728,-6.0770570513964115,-3.236140127276508,-2.964387320908823,-3.3223390271543556,-4.291467535509229
44,-0.5870414844755533,0.0364504818694307,-2.9983590037649965,1.2082399575128442,-0.32403385422031405,2.6557425465387747,2.0180654180432875,1.9753985618700252,5.632255674595961,1.6931615790609515,2.8145267056090715,1.897935211138249,3.4814034963619274,-2.7402865803988226
45,3.8532572613971343,5.536582003917463,2.707827736328633,3.121747519463496,2.041237699647697,2.0945742379892565,2.3965759709951517,3.3220208578747505,7.913336611898622,7.327945258075536,6.474856897203738,2.6595388016665473,6.399290642713392,-0.06415119653875553
46,4.806283323945219,5.065643418023077,4.400774591618814,2.231499267284324,1.2983978885588852,-1.1114375200521867,-0.5415095034463313,1.6051546251388438,3.508357331131781,5.19608527826369,4.071985006401136,-1.1855498845898444,2.7201933570516266,3.2227746617083604
47,1.7507711228587601,-0.24448426415835342,1.6357555510781456,0.03306538702414939,0.27107692262783845,-2.0421216926974943,-2.1596869757271913,-0.1650407363518526,-2.5350281887446378,-0.4180195473435196,-1.0223941524342726,-1.992108885420014,-1.8631571644472982,5.287691252090341
48,-1.1278170588485612,-3.364710678596024,-0.7638380643647323,-1.0976688046132348,0.9618531064255996,0.504454450171756,-0.1615610493857319,0.3879184369869464,-4.031438232064814,-2.366058562296637,-3.103059232498815,3.3284546272204953,-1.9685536949722355,3.5612731288005324
49,-1.355845354798725,-1.4720962783298952,-0.7019538812376892,-1.2221692229773982,0.9646847535740057,2.3537026376132344,1.7165846415033261,1.1754606300378752,-1.5368147939363497,-0.859147746249237,-1.7271255164602597,6.57488305283197,0.21789788425028472,-1.4051835331262663
50,-1.5923649884658087,0.9274107528757592,-0.9101143507801895,-1.704669449456373,-1.4862050269423968,0.5010854640553536,-0.3019948084287482,-1.1704361628445017,-0.648437265180448,-1.261576313642553,-0.9865417318382221,0.27111784023478236,-0.4705109921019378,-5.200969605526279
51,-3.8683803929545157,-0.10285256086845511,-2.5819628386790168,-1.9784982214535838,-3.430966039200287,-2.250605787318129,-3.426199872554829,-4.931252152608093,-2.6254334570449807,-3.8390642946335274,-2.088144757747841,-9.098243559198034,-3.583505691093918,-4.428462033099461
52,-4.537397969169743,-2.31881380896188,-2.561574599090149,-0.35344077479369185,-1.850610906681246,-1.7863338564531486,-2.059716136115056,-4.442575457431755,-2.486143755765932,-3.160711070928871,-1.722027927274857,-8.839649258852829,-3.8071687910935865,-0.7547926277461843
53,0.19596125992836827,-1.938624829427287,0.7521974806367481,2.2903505937896247,1.138094681047172,0.8223236758283408,3.1201746819634466,1.1717407253004377,1.6549680501993664,1.685842933717679,1.2929841540379468,1.287968178502171,0.5137561359079245,1.5641886173841655
54,6.661702289947252,0.6560093672405273,3.695849979329108,2.8867828667254263,1.8882015904649605,1.227423608654514,5.228971111419222,5.380612183317769,4.175735323286243,4.295363079018748,3.173439001272705,8.454921885930098,4.618662447928671,1.231235148531337
55,7.5575657726420795,2.8056088239416934,2.9620136539616446,0.8280312017777814,1.1591412741693607,-0.9315764499046358,1.2604690341499396,3.49115329643316,1.4854320178317304,1.5213989007207152,1.6165054644091899,5.625430853514685,4.424057582416002,1.0156660566404416
56,2.082484263616272,3.494935141339099,0.687051574602811,-0.9484226011820006,1.820193116648092,-1.3343490257958082,-3.2962116315366727,-0.3646232785591961,-0.7488662894640278,-0.7625017394740636,0.09633849230765432,0.21386020711062892,1.8984115252543927,3.037268908796215
57,-3.526348495878582,2.530604400771196,-0.036087411395506266,-0.6415072558365694,2.7008783338335984,1.7300267854432252,-2.8493735100029363,-0.2782339754852906,2.7643995224800926,2.2123591282056236,1.7278216779460693,-0.1547257067323139,0.5079479243470842,4.76635390837565
58,-5.08856872288945,-0.7663249625929681,-0.7568400957089011,-0.18905558354713792,0.12137709092687454,3.9325621374668565,0.20169595697467904,1.7638233021417495,5.945048738975527,5.0040470041614284,3.0567074168558124,0.26490654344911635,-0.7085036708699632,1.88161427423168
59,-4.29230136344271,-4.907103099300867,-3.7566446651957057,-1.3501456001704017,-4.832509371981045,1.333037277079514,0.4721635289485043,-0.15648191645106674,0.05174464381504153,0.44874900597496664,-0.7212892587895888,-4.51610660757505,-3.97690079581276,-4.980176485407028
60,-3.0393003429593675,-5.438819688354843,-5.751119293742608,-2.1593568251238335,-5.9792029800323165,-3.2820851184251345,-1.2944786961860093,-5.0134688571144626,-10.289652062494406,-7.658378050351554,-6.980344689701848,-8.840802500072162,-6.574426436292754,-9.106790255178716
61,-0.06476326494562651,-0.5258841527730429,-1.791943512487219,-0.15680251401512613,-0.6909520947465908,-4.251468860375746,-0.4539264437234171,-5.644557017593754,-11.559334845753913,-9.161095060097614,-7.962495211237301,-3.5697904600918346,-3.7174213023598766,-5.310164404371465
62,4.607240236566005,4.989727313885458,5.801745244811364,2.8604617367037393,5.3589478174224565,-1.066229752153527,2.5214859321938508,-0.14320619577668683,-1.1787263932547174,-2.3056613905177645,-1.3090139241741325,7.267608180397477,3.1880838537756206,3.13663044271413
63,6.845526150961789,4.921864755179267,8.678270133063394,2.800755879385651,5.214882907487756,1.690085989468127,2.492224107645952,4.8734769141015395,8.690980132198433,4.7687542126294735,6.622374606639698,10.333346501377457,7.03945586283333,7.931397161195511
64,3.4800525660231045,-0.32181637959927967,3.2150743369619454,-0.6437383152152831,-0.25526959554470124,1.4205267266114974,-1.199639538767555,4.029602369060447,8.639520786449244,6.297179605822925,8.53174184100777,2.3880038614752688,4.376140822275541,5.380016911462912
65,-2.7303389207051487,-4.5033080315362115,-4.872920711595174,-3.209452848150204,-4.002967782505534,0.17037739124495146,-3.1445372856024933,0.10548458974758589,2.701223250228411,4.337940550005526,3.723782200919896,-5.57925695719344,-0.708570702346971,-0.2619398692131773
66,-6.009863561142086,-3.231700165717805,-7.765681022811159,-1.8037415006506505,-2.2175156938996485,0.22786486204428186,-0.6516333138691428,-1.423122428188709,-1.1351213686550896,2.0491258100012746,-2.6151318249859004,-4.882613716827127,-2.887685668373894,-3.02997756221633
67,-3.7296426341818667,1.9090519034718731,-3.6369303840775724,1.7196557957824243,1.8747562883756845,1.1715393972282624,2.3720042867626607,0.17659150822197617,-1.4625156110860782,-0.365549405244984,-4.926098672555917,0.4382865301919584,-1.4664200207382585,-1.8081374841474294
68,1.6822085394072037,5.890391722079528,3.1732197779583817,3.4866763993558445,3.4370997542641697,1.845335302468107,2.3653143411380064,1.9100129090169966,-0.7275839859765679,-2.123988604533079,-1.9251424713002736,2.674804564864982,0.963543954387921,0.27665445794588267
69,5.071021320499615,4.545174938029896,6.671208583056809,2.031450947444271,1.3715116876375102,1.651800439072163,0.8295652727106844,1.6471242792446337,-0.14501648470972076,-1.7565299192508155,2.0547875944563483,0.985292477617976,1.707175596767394,0.4172130328761423
70,2.493588909010201,-2.2649880489259653,3.476111245154169,-1.3182085187437507,-2.363113431598032,-0.4328512075028992,-0.45631586278893754,-1.0241541714164482,-1.244113637344064,-1.5863852817031834,1.1157747853056363,-1.4288120315484334,-0.9088040449555788,-1.4936275478702754
71,-4.343986418209255,-9.225088397138954,-3.899770061161247,-4.330605433865857,-5.129657186174872,-4.330973169763223,-2.7363175178607984,-5.109371262295465,-5.334484827534258,-4.919701391937749,-4.513765848038202,-3.3413611632815847,-5.57253919868619,-3.360406430780345
72,-7.647052916785734,-8.815292514429634,-7.670907772767263,-4.692698625331537,-4.239100779183665,-6.2904558132877515,-5.304113925986397,-6.986964508743361,-8.069596186503034,-7.755414707384455,-6.8650457268816645,-3.715215616806142,-6.734269075990586,-2.609009158205993
73,-1.6214746072954416,0.6629188014798344,-2.6380798713957168,-1.047297359509316,1.1551044219738615,-2.4137687788426847,-3.429141375998233,-2.631606775384249,-2.262079880659317,-2.006485607731723,-0.2191549226523516,0.022128225389896183,-0.13960724876124733,1.1350408320362502
74,8.49517478811401,10.965326596775943,6.062165731646169,4.622754193314469,7.0853197239491195,4.672720137643337,3.823117786605775,5.994677902325464,9.73014018200153,10.296295887139634,9.363780849432203,6.477108806843603,9.424910441820263,4.691102442518257
75,10.703257608691867,11.519746830786806,7.909042118811356,7.204727273932768,7.209560127204855,7.606662585573808,9.036852781984953,10.502591870120852,14.71329053021041,15.459086744669616,10.470983890941321,8.28921311454277,11.498942259042149,4.6679824746616445
76,1.5049848171529407,1.6903036413521386,0.8910830637437035,3.6694541545507735,0.6469337785348329,3.9477730090670775,5.641239024395419,5.8942795634559895,5.884336423119328,6.304598297870876,1.749994450509762,1.6878232378640874,3.2481677687914434,2.0403593208376876
77,-8.70872519833396,-8.10363802591971,-5.491125190912136,-2.7552929208996715,-5.754547278339546,-0.9405854216726787,-2.4099407298142856,-2.374488692051579,-6.396510182694058,-6.725249367083596,-6.263135657714754,-6.33924262427219,-6.277854635656122,0.23174410132800682
78,-9.150813543099511,-8.87808968594141,-3.856112878254363,-6.084458741049057,-5.844085373441804,-2.3988789087612807,-6.32482386322132,-5.7601324221324175,-9.056238808868548,-10.354523351210702,-6.233091101787002,-6.990918608660449,-8.332477395421892,-1.036721330825559
79,-1.9567962844280165,-2.9014519618150496,1.0362341451229904,-4.454490633757855,-1.7562317613819733,-2.48493739467545,-4.489080837841334,-4.132104624300501,-4.412305372124417,-6.472864479473796,-3.032968366403276,-1.9281649440025195,-4.9111174649996485,-4.792556274433116
80,3.382160094655613,1.7454023400395637,1.0643043616992436,-0.8980272204490407,0.6166404054215159,-4.2843302434430255,-2.062876673475951,-3.644847944951161,-3.223350009628402,-4.888746219369515,-3.2774028331352083,0.7971516659352026,-2.3710223347762254,-8.819696226365902
81,3.7539273839530694,2.464733920483409,-2.3630516920386917,1.743692993369049,0.6099939035477946,-5.203342939439353,-1.0501912288516626,-4.8330143399010215,-5.20417458116255,-4.6505065199408495,-3.5642522787182767,-0.08848061184315152,-0.7225545334842676,-5.707709106423667
82,3.0302129560207125,2.705348994771976,-1.843223743397887,3.2061302782471097,1.857627338653954,-1.1288929510798797,1.4680685087192207,-1.3163752970973042,-0.473518145600113,2.974747726946195,2.5645254774934916,1.0860895137417224,3.495665565312979,5.17165404083143
83,2.492558750634608,3.6073496219148318,3.0523666078103058,3.4324495679323075,4.2756583320353885,5.650355588857591,5.497201494294548,7.744407973669681,10.682597197823071,14.902767489345116,10.803245970326314,5.081311902226543,7.837397558581094,12.659758587379278
84,-0.2272510414795208,2.167432415222877,5.106671456575389,1.7051793749909567,3.5565644794365046,8.378765827781887,6.110791472328382,12.431699805008952,14.453019530471305,15.694537930603946,9.913526908517074,5.4335131180293414,6.229677687830518,7.601918716892199
85,-3.638042852480218,-1.8151551989890338,1.338310228888485,-1.057418514067357,-1.0357520212842135,4.746899498914594,1.2826880501078084,5.101866178464545,3.9684183377425737,0.578554598131233,-1.1216031546983913,-0.23863731213032222,-0.5145167533454645,-3.5109473555864037
86,-2.91547591645199,-3.8185146341456617,-2.704762922236984,-2.406974731171316,-4.513761093726559,-1.0835954435920738,-4.15277173698552,-7.290408178712992,-9.352903837678678,-14.654403865676064,-9.990565809652798,-5.311651447225545,-4.76165329007597,-7.173623937370694
87,1.0696826766765544,-1.9637021808670878,-2.441217723995232,-1.8491619813698676,-3.5400596306938317,-5.010392030163193,-5.236007323939747,-11.39420252112161,-11.702761819908956,-14.232881721428798,-7.793302574065762,-4.268019880894556,-3.4235018589675077,-1.9310816038184264
88,1.7069917854895784,-0.2473758681612915,-0.7725137289179336,-1.3285921574203299,-0.7775805062034186,-6.553572838084387,-2.9969528762263336,-4.729104133936738,-4.513539284079583,-2.467307800984764,-0.15770296349606092,-0.567064563701183,-1.603718190777111,1.217504314069641
89,-2.1068992236828468,-1.0843293987299631,-1.3806983738619132,-1.255584260007743,0.4619898933895309,-5.502153819917325,-0.7553967384288947,3.0645220804838016,1.643511363613954,5.627218937890427,3.038411959240315,0.3434311733047902,-2.70650682626501,-2.7705480059072802
90,-2.980931597327954,-0.5368764500182558,-1.7497678321573982,0.526353222849473,1.195215672288145,-0.5507894896112461,1.3785995672059235,4.758185704352694,3.1373482011907114,5.446460075284705,1.5439815450682712,-0.16364207035923767,-2.4845694663768536,-5.231377885160998
91,2.6312499306265025,4.011174527829147,1.4793068656828268,3.9378466542939723,3.0581110805419955,6.248906781124233,4.08268008454517,2.9087443167899227,3.8870686515392334,3.6633367132862418,1.407826588371122,1.854666234791469,2.4794401012758818,1.0813045916905486
92,6.960594730175286,6.761719913457368,4.7490502389402325,4.4861505932538694,3.6278273832943055,8.393125483064452,4.535937103750657,1.790481257823249,4.6184377294241,3.265307247741059,3.038343733216367,4.246713068581537,6.751682226583957,8.661249358083762
93,2.3270297264819373,1.3469578508901898,2.359297472014374,-0.5302176008391657,0.13851655152298262,2.5881984985435937,0.2648464819806966,0.31046641284418763,1.7421926404177064,0.2719428581984614,1.3721966669874632,1.7546637105736895,3.4856798476694193,5.967800552552294
94,-6.066062395155036,-7.480411881486874,-3.280803360037065,-6.220000784464531,-4.468018568345481,-5.201444182186865,-4.711467695053961,-3.026557058064885,-3.79396336759498,-5.156318548952362,-3.5343226939234427,-3.955304529788429,-3.793223035426024,-4.016012320673317
95,-7.043056501163702,-8.519766874066448,-3.986434114946921,-5.263644560927815,-4.454633721478678,-6.1053511187439815,-3.898991172063531,-4.487479401228603,-5.392977933427672,-5.86819752599446,-4.668907703949168,-4.832743779911354,-4.915864159583849,-7.1148230460987625
96,0.3034993090212359,0.021983342127644773,1.5172958678765587,1.8975810200112133,0.3136377233602469,0.26588008381667544,1.8158134403129427,-0.462966935552327,-0.5866123503306216,0.6560049495670143,1.074074794509644,1.5418397465221407,1.8903756022710598,0.8869917348234304
97,5.969252387369491,7.577192822227608,4.822719780298833,6.865926090056465,3.8323286198644153,5.265652122389536,4.500084757651719,5.0109943567872195,4.4499744613298144,6.396644151658927,6.672028271713161,6.8338758359032035,6.511441890911861,7.578250880255332
98,3.651469944178683,5.753710112443894,0.225797535233502,4.045857675386307,2.3993344925674145,2.3863704534498917,0.40746622342677513,4.456897762944828,3.2332123350086968,3.641853356899281,3.936052513376592,2.813480243517766,1.1641994771020856,2.142306186483829
99,-2.0195876347337367,-1.3613832552693372,-6.3705938113506955,-2.626382581557207,-0.9299035054316483,-4.755419937026386,-4.746163913849811,-2.1521512951049293,-2.433149270310169,-3.8955503234885103,-4.894095911089511,-6.6179074397823845,-8.078700339459632,-8.751926742178162
100,-3.8938817609432013,-4.625502583105043,-5.456183776224004,-5.524080749364066,-1.7667448225388964,-7.170967171063337,-4.011753389884405,-6.449419299716644,-5.442271651021173,-6.44749724659134,-9.39545204068684,-9.548130150301416,-9.093954478065905,-10.28781612049869
101,-1.2708817172933355,-1.876568052983185,2.8170346476702486,-2.5646315069492815,-0.250290048176642,-1.1841775811531527,1.7327304602861262,-2.7957554231534614,-2.3512055146475475,-1.3778059769389202,-3.8825630660386055,-1.2858718980468198,0.23349721075995566,0.35108121478286886
102,1.9455307777679205,1.7968333590610386,8.640819351301069,1.9357920919704017,0.7888905561357881,7.353038938575576,5.907141648983437,4.245440939616651,3.54506648101899,4.684749031731863,5.947118143139186,9.351097908008782,9.553115740425593,10.990487149773013
103,3.05212127458486,2.2318655664498244,5.18841057005133,3.5067022332725086,0.44874476457434526,9.311550256860189,4.4289095735841135,6.111448885329028,6.532253345880048,5.499343326973848,9.961838269404168,10.502217500505148,9.188524038984058,10.388417907897542
104,1.5964806360948867,0.07501490559679685,-3.277395895168232,1.7768137132328317,-0.16721103796532047,2.1451153415749853,-1.000326517548795,0.939900016813275,3.6401658137650235,1.597628463663029,4.572224027393462,1.0096086322321363,0.7838708780356266,0.6319307791605998
105,-1.653254381327363,-2.016854995954462,-7.439359487360169,-0.8057958507602032,-0.542415798716331,-7.043023211619502,-5.67789852355294,-4.955460505497958,-3.0276874393820705,-2.918161998942335,-4.333623250503638,-8.76845919770597,-6.418715759220087,-7.51521879884396
106,-3.972408408253394,-2.3334826929799624,-3.9773536232157785,-2.050473105147384,-0.8447464983717555,-8.974229951520345,-5.581484390273246,-5.050968904626549,-7.310612645561358,-4.973660112909707,-8.071118262933618,-8.893453564885895,-6.371514846664177,-7.182295472615844
107,-2.2030590767204496,-0.596725744438716,2.0197924005254846,-1.4285235008382249,-0.5919986287842971,-2.3856858900216227,-0.26410848945268656,0.3561197027430539,-4.369456060777476,-3.181446442991321,-3.9043994135681155,-0.43804025622670234,-1.2517512846850465,-1.1523564772359447
108,2.287294887361436,1.912581907357363,4.214751509058649,0.09540592636786985,0.5489293842637103,4.877526198320386,5.613797122473852,5.101550651848097,3.0417008720616767,1.5841205991214988,2.717572220087629,6.587818353655787,2.5823721301549853,2.9093112034927295
109,3.808577010618391,2.884280215220234,1.8227999375024515,1.0236221953064315,1.432322785298391,5.418273053393703,5.739489639347026,4.103758943284729,6.43051031907984,5.165358379874387,4.690161047288895,5.064906628677858,1.941039836621147,1.357719960232569
110,0.5120128064637458,1.460198747157328,-0.9714427127836285,0.7844422390763572,0.9014054586120197,0.6951857994930528,-0.38656097294874214,-1.1399547588453478,2.0861669175963287,3.5892704346705355,1.2734352092979946,-1.3613138148774682,-0.2963507992249062,-1.6157809207789033
111,-2.116992800158394,-0.44737089712263073,-0.7379140456985727,0.2575127253428094,-0.15773913561968247,-2.2413562840961623,-5.681927537821516,-4.556646232976044,-3.7034216060829634,-1.510780528350225,-2.1072217423037203,-3.794905394430336,0.03477899396985076,-0.02220471221193436
112,-0.05107190235117156,-0.9711258103091223,1.2282944368086843,0.2677484121314033,-0.2673299076763986,-0.6617708114963022,-3.98973983050324,-2.8198484469414966,-3.38497089251727,-4.419259702955378,-1.5628736658146876,-0.02625549240922556,2.0278528831330807,4.798344657078052
113,2.1282636036321807,-1.0702097362459297,1.0292883487947193,0.22138321376860803,-0.06840817341855722,1.1996159174398353,2.019636886295232,1.1667840056156078,1.5120702820147196,-2.6755710146398273,0.9183627462700459,3.1025301176027145,1.350253004295017,5.1246775789991945
114,-0.9594440437125765,-2.1786006429904385,-2.121646917604449,-0.591999386547606,-1.0740013656893805,-0.25355325839791676,4.896701744049237,2.8488245373214838,3.605355148156585,0.6976469536363209,1.684760111515664,0.2908390602546146,-2.0184895760938186,-1.6193936100103943
115,-5.158176654282151,-2.6918613252105725,-4.067136189721401,-1.2222573803370278,-2.235525252353894,-2.3379846957627572,2.2071879906216174,1.6193980430506143,0.6073148223298412,2.425864073739625,0.5917446574002156,-4.135743843468863,-2.847794907521335,-7.50560555871305
116,-2.5612738705878777,-0.24909488659236587,-1.2024500845150488,-0.456861663197364,-0.9160633502765333,-1.0055112101942754,-1.8995618755704171,-0.08948155322263586,-2.6948169343442947,2.3866432403022166,-0.3236777327362867,-2.926941318099085,0.6865536203935707,-4.7095638190712625
117,4.9424364730470565,3.464068012143078,3.704127905849785,0.6987944123430325,2.368837540026061,2.0750317694947698,-3.50338948673554,-1.0581560535561334,-2.5134556895361384,1.2375417992945308,-0.8037788594126403,2.776868341384271,3.0097354212018597,2.754276668569759
118,7.177457490583055,4.271647622980077,4.500866322356032,0.3557679243676455,3.574818936226004,2.0579341543388803,-2.645473107713401,-1.6873897821785435,-0.5275975127786089,-1.0585057288070172,-1.8771971407202273,5.035492048179448,-0.17035580684754664,4.6238273925171605
119,0.8167779450518393,1.6352985433608276,0.22211365043353692,-0.802294070088764,0.842613171010612,-1.0513511764211918,-0.552141281824143,-1.5042995795567136,0.5075850125077298,-3.003174527239,-2.618889399512427,0.9698348088426892,-4.138800824586173,-0.4270542108883684
120,-5.759491069784492,-1.0536760828447778,-3.4175819883448186,-0.2935949868094494,-2.48042172124219,-2.2940486165897163,2.258446452409293,0.37883468820606275,0.9431251950914615,-1.9764100355070882,-0.7466317075052482,-3.509471469872317,-2.0632749082807726,-3.346596045071919
121,-4.95933251293345,-2.2962337422682877,-2.194319403773063,1.7642336854845435,-2.5388007748252615,0.15401980228047044,4.221628732813543,2.567121545887711,1.9880031123288606,1.2575060167588241,3.2641514238592357,-2.9266044023081537,3.794370949993388,0.9058162603132465
122,0.2748390916907654,-3.5219749455837306,1.1754289942177596,2.27035472166409,-0.09425313702165415,2.2469092417500236,3.0177689605418876,2.3259613276060835,2.5550617022675897,2.440416014756486,5.415607885112316,0.6290530728133815,5.061052825798036,5.862803502142852
123,2.921206900076054,-3.822819086723434,1.9793210492053952,0.02922045073551314,1.4101868222324019,0.9838813538661568,-0.8206061890073425,-0.30779346677041974,0.9588641254018758,0.2817733955790452,2.830499343958583,2.1385312346638323,0.1409638892573803,3.8841883603953584
124,1.8051252744214723,0.005306880000572306,0.0751602168782736,-2.2243835507019636,0.8171622297958625,-1.1296209074719479,-3.5920194831656582,-2.196128330533889,-1.9707802913164627,-1.3160296031566787,-2.5115185835536837,0.8144054382347907,-3.7813279007122578,-2.9488459772492264
125,0.341196239514351,6.094831341561608,-1.4546443468021077,-2.1190652779964454,-0.2579911460757829,-1.0893459320195615,-3.1549898206813594,-1.627872818781972,-3.661754089182136,0.05227455315425342,-5.938224954880251,-0.651766377604499,-2.3889063421829175,-7.080551454188657
126,0.004480084355126701,6.931437817074401,-1.206098743075515,-0.8181194968170965,-0.47427312199362814,-0.10697066397123947,-1.2849228756941553,-0.3631292573392684,-2.8000218862520776,1.3084929020724685,-4.816283955190313,-0.7990060952113778,0.12383401827169727,-5.393879982227759
127,-0.07068100308095736,0.016518708138052444,0.007050678854883016,-0.0800341998765245,0.00854409705285504,-0.1650637511075869,-0.03300820984745218,-0.07615952046000578,-0.1773665377928417,-0.13005010790667434,-0.26242031427158774,-0.15878841043099812,-0.20225150251238813,-0.21945404526260975
