,AF3,F7,F3,FC5,T7,P7,O1,O2,P8,T8,FC6,F4,F8,AF4
0,0.05976379076633115,0.09527259029813114,-0.01233356777714619,0.10271796143982906,0.08529877702311967,0.06161056154445372,0.06503341551481918,0.1283755376974378,0.04333333919055517,0.09636964114063613,0.08966280867707271,0.10945570902100832,0.068185188402608,0.0999802899656382
1,-2.256315933483299,3.948357171373298,1.4343307498027662,2.8552037154944045,1.7449930729887515,1.5168981267762272,6.341247889038201,1.6560657743031733,0.3453144146294584,-1.3200176319100856,-5.94820587959641,-1.2533690078157755,-9.913227363990725,-6.73988965513672
2,-0.033528648073381344,4.844337891609605,0.879665054489227,4.64288516971008,3.068649413184366,1.8972916972966556,8.035258549201565,2.5823159953075705,1.9664127562364837,0.8990022528868306,-4.506749246222542,0.6049799333616839,-6.774073048341221,-3.871128388148096
3,4.108879803641737,2.5115004913080674,-0.6325514304232159,3.4262396845585883,2.880347136374738,0.9491698318343398,4.220761468251855,2.015989413013141,3.074401697675997,3.3913502923178185,1.8797350906945751,3.589451483788475,4.140190575789912,3.9502613535019937
4,4.538592507156807,-0.4717303490754268,-0.9002911569362915,-0.9525772664205304,0.6721191997151388,-0.5365351521077435,-1.6690676923889038,-0.08165738266054584,1.3542908232391102,1.4370194969314343,5.009959153315283,3.2976985634524167,7.98927161065734,5.368249589484529
5,0.5747845906114927,-1.8914341590851045,0.01226845161263267,-4.711763742862713,-1.9643023546004927,-1.3919678070413228,-5.09830869873007,-2.106082719351737,-1.9301974204619694,-2.6189027429867795,2.2207230647228533,-0.5839329713368355,1.7185167956288934,-0.6559652498128473
6,-3.7997728766396803,-2.419432200717741,0.3606234278560182,-4.134045490823173,-2.8955591852076217,-1.1136324083621647,-4.585953403236814,-2.3595617174843455,-3.353985330217976,-2.9900193595508475,-1.8369993925186219,-4.064932789237864,-4.275581194825483,-4.879833434981788
7,-5.388012170918859,-3.210310678461075,-0.21499919786760113,-0.3825392843917677,-1.8586000669545133,-0.1980743235240499,-2.0932285962376223,-0.9279202679153538,-1.8905300016164688,0.23650594169696626,-2.870048871756869,-4.029677213407159,-3.069839200393072,-2.1886960888990004
8,-3.6463950041084137,-2.8204411361656256,-0.38154269883036707,2.20236999425053,-0.275314454674249,0.4863940887626648,0.19901515455845556,0.6776648601266981,0.3271525218343466,1.7819791820104367,-1.3495368429676342,-1.1942727091480179,0.8587908624108986,2.6123668164302605
9,0.363434340663834,0.3021128741082654,0.40163459032588583,1.7851393144553571,0.6691309155337443,0.47886961256249194,1.719901697281297,1.223705742362499,1.3002457492073973,-0.1168993218898153,0.4532760935097732,1.6943835335684188,1.3862131474043968,3.460601606477496
10,4.197882654642975,3.9878846332591182,0.9930079985259003,0.6777060321601457,0.8657809622545756,0.005190344440394654,2.210447985752892,0.6659965483675178,1.1159381850187882,-1.6566954548984942,1.534311606118796,2.833823526117309,-0.5167464788801155,0.6270022153089309
11,5.1822476708599945,4.81083168778993,0.43428580519133714,1.2910683274460932,0.8558357056845479,-0.2450171800721531,1.2804355790488537,-0.04229574756447279,0.722063392361457,-0.1353614894102539,1.5970482266980703,2.387611344816312,-0.8405164227095061,-1.8554685285674801
12,3.0384289385408474,2.810750541008147,-0.6912167870294232,2.370446969369587,1.1668069530173237,0.20052047099491002,0.15153397978641608,0.14257678156430514,0.5423607367653165,2.3481723772700853,0.5408144148876483,1.395467620255623,0.7906780776654146,-1.726097737798105
13,-0.2161939193085489,0.029249564956607316,-1.210799939588216,0.6543938551266795,1.4417665947716751,0.8517446511671382,0.9545566440159534,0.9793595790958615,0.5162719338611825,2.6231641988039125,-0.7361700439822312,0.15733804709279559,1.9123363358785492,0.1091806186155588
14,-3.171081064719834,-3.3352706258487914,-0.7171264539251134,-3.934439939193973,0.40553828467615605,0.6455025892071471,2.723166090511157,0.7474891322800727,0.24635169807303425,0.21553038418347428,-1.1426884993013269,-1.7842946535603896,1.0487847998721975,1.0809068751595143
15,-5.328755836867734,-6.7260478989980665,0.3602647695681404,-6.508335924978767,-1.9814345596786644,-0.42324756418086795,1.3007828730614308,-1.3514094073444285,-0.8332220118194534,-3.027910596318423,-1.0634169926278638,-3.786476157433877,-1.4197689159339735,-0.4803875274290488
16,-4.882868268295861,-5.966458798142125,1.237439209198929,-2.630724515344493,-3.0635335978873024,-0.9032582870878954,-4.159386516022435,-3.0759995532906097,-2.269179675437008,-4.308115601793822,-1.2228464857910686,-3.4783369703125957,-3.5522759188496233,-2.637524635032757
17,-0.21953568434784998,1.4090198535531322,1.115412070235115,4.8839593848161025,-0.7241835771089318,-0.1748875029346745,-7.794362498169886,-1.581492065344258,-2.161921661320579,-1.4915286208352752,-0.5690059285987634,0.29129007841780624,-2.3958805072863987,-1.3168607298120305
18,5.650522542647492,9.161505900390255,-0.11096960457326248,7.800881342722855,2.484123862996669,0.04428788420416072,-4.105809840239233,2.047961842612234,0.34842825134763983,3.72673592415754,1.8972385498436815,4.504040346862034,2.468098348976619,3.356261442647927
19,6.729408232916877,8.085363637737913,-1.25394138107986,2.6858576280149937,2.0901618097866503,-1.4495723736648438,3.785518707035609,3.5291414523532407,2.877651569363907,5.668869815275427,3.8264138189777355,4.560525830481838,5.955677112599267,5.329574985685262
20,2.030062638895167,-0.9921139391011942,-0.9075438141132007,-3.975041474071336,-1.2979699372452977,-2.1372298880475054,7.686047375039854,1.3700034211558225,2.4679661494845835,1.3556359705196028,1.8473920619949857,0.3666923148746258,2.6614719574107895,0.9649667577931383
21,-2.5525350393070303,-7.173065669873446,0.528456679674087,-4.270427407290674,-2.201419412842397,1.0705130737112696,4.977625391599496,-1.0503490426993294,-0.03419417670999783,-4.197212831187337,-2.6013464765668406,-2.9199655235922446,-4.445840338279303,-4.420527012449432
22,-2.8724235000232134,-4.180702483653309,1.01781627287842,0.29233518462461855,1.2386041988705863,5.620749398092788,0.5656176486420733,-0.949853497864532,-1.1928751267922877,-3.972216539776031,-4.047180973716202,-1.8181648918593076,-6.201334122731656,-3.788614913369661
23,-1.9381034093687932,1.7453284236413351,-0.2639130611879094,1.733680944413601,3.7276022060093954,4.874069285138332,-1.5946642978705283,-0.28236021865032485,-0.3651364680074007,0.9342513165724415,-0.8576588422529944,0.6395017144694224,-0.07283643601431286,0.862983159616622
24,-3.0008043120709154,2.0517186120087207,-1.430619452874408,-1.8743278532192071,0.6957552591659629,-2.3645378938957142,-3.0261029903218963,-1.629677694459088,-0.2924571835241125,2.8973871753386615,2.052027874450977,-0.09059374715911578,5.353498595986374,1.8988232034411248
25,-2.9388468156666616,-1.977166639078288,-0.42563945992817387,-3.691894421042009,-4.300001286151118,-8.319526452885624,-5.1720009888859755,-3.019007132465537,-1.8126294679833608,-0.5944407699031728,0.732592975421209,-2.7369871327603,2.573530588457344,-1.5866736539989255
26,1.6007265667468835,-2.787329268720523,1.782447528132192,0.5217115677849024,-4.394883538778178,-5.748542986679087,-5.032631166727169,-0.9551012381563905,-2.013149380951421,-3.4108604821840007,-1.812169472573589,-2.3044503481420837,-3.8403889208102275,-2.794017064221504
27,6.308270098384865,1.3826850653115959,2.1816536307780146,5.195660392847653,0.7133934410378222,2.3312899117681134,-0.1661871619398836,3.2208216958293243,0.6628362074180402,-0.6941593914317821,-0.7256595188449244,1.7903828024437736,-4.230525129148044,1.227876366581111
28,4.791370837554963,4.703671772074568,-0.17912930983429087,3.620502974126885,4.59667667503835,6.832097968607139,5.76525443766411,4.654321805069866,3.1977758714108093,3.904926722554083,2.9415189291125707,4.699227903698936,2.0669755561559544,4.999839651916531
29,-1.1893851200719716,3.2029145326865622,-2.6434544906884656,-1.5273883236931174,3.217177477160131,4.385567079760894,6.89848431368136,2.0280981396687157,2.4479158637080443,4.294539015695955,3.9059221372638953,3.273172310218957,6.336660487631783,3.5490408384474694
30,-4.439477352152988,-0.4051653960504796,-2.2355015371945015,-2.8590698747802423,-0.52760092642368,-0.17499481768352673,2.7157509937988125,-1.2005851332029012,-0.2067116486000497,0.3972124844944735,0.3540411492356364,-0.41378608791455807,2.8696393716619815,-0.8616992412214991
31,-2.943738271360747,-2.4491165195042943,0.5168206401820187,-0.0891448710668285,-2.2632932301697664,-2.3132468246534965,-2.1156700221939437,-2.5309018912566073,-1.5562473240810255,-3.2587901636555796,-3.871622291178464,-3.090525158683705,-4.102776248112811,-3.5866051476355896
32,-0.5709332237459259,-3.046063503309908,2.3059007667413325,0.6378622758035045,-1.75695941368269,-2.8241506855011886,-4.150343284435447,-2.819730980076107,-1.3684505799684656,-3.8898132684491684,-4.300198337421008,-3.5656741519385733,-6.610934420337918,-3.555446420227016
33,0.8639490763007339,-2.799144412187061,1.3528859504757784,-1.9216247176862167,-0.8732215982064496,-3.0487499597891388,-3.6881662643660307,-2.494024422138217,-1.2759297108307073,-1.9621622103009926,-0.6076186872723215,-1.6375963967220792,-2.3464784054980816,-1.7997455127759394
34,2.657646044464535,-0.24440375408938436,-0.5599076139977444,-2.045857562637908,0.29909933042336145,-1.0807081481478675,-1.7594397648221778,-0.21796862056467403,-0.9580712743537694,1.000822145059982,3.3804592325085867,1.9064202273650936,3.637005982877449,1.062420045306355
35,3.382834219417675,3.7799507612311736,-0.9838726073764861,2.1217667348458495,1.917294339933819,3.4068452012737596,1.1919491996946254,3.082908881554886,0.8161956555569729,3.0850563287848827,3.436375370830992,3.7296666689494917,5.132798030261353,3.3512000373950426
36,-0.07509840467909319,4.162476257572356,-0.1117890957173354,4.03136728518912,1.8472842105733762,5.310968861119625,3.2918312494412834,3.43683857823867,2.5566018998665605,2.3891843121761274,-0.5589647395156848,0.9304703983275606,1.4842211002452879,2.525372170659486
37,-5.185293551669716,-1.1319025587569242,0.28622677050083406,-0.6168285152600568,-1.2237711893138656,0.6451025008473605,2.0083223438971523,-0.2310744762134062,1.4217875038769339,-0.6243679057430606,-3.868376158876553,-3.6274206047300157,-2.3832150220189874,-0.8643133625156103
38,-5.092120572160083,-5.722927408364035,-0.11748380331283967,-5.547859618188421,-3.9209679350429085,-5.814839912433991,-1.5523724125029288,-3.1122277330348083,-1.8273916603470222,-2.5141089548671554,-2.2787936566288796,-3.7048213422423735,-2.467790571218592,-2.8653725718721774
39,1.0081369602388246,-2.7895364288084576,-0.3054473486070626,-2.7452681739318576,-1.8838124889678836,-5.526142658580088,-2.5545608623957476,-0.9216524123379135,-2.820279323550508,-0.8159127816927391,2.3633632511732876,1.3755751827920417,-0.27763411335368454,-1.3845832727258973
40,5.754415744347525,4.4235952364207565,-0.13551361075793397,4.897443126729355,3.3435780171190004,1.8775054244648077,1.0341463040272394,3.4563045901082425,0.3644955862268552,2.3289922705930817,4.497528351957554,5.137029490685703,0.6115452850100254,1.3569963978269552
41,4.203009044061344,6.614189106093524,-0.23905896061330464,7.218742153490082,5.5066712047949915,7.325443502583315,4.499806452476574,3.6587635812651493,3.79949388248678,2.6292552114834913,2.0135032691776957,3.126411825301092,0.07513548844343933,2.5319426981555058
42,-0.033476148150474505,1.3617872153387132,-0.24518828765571674,1.1901808435067536,2.00585997030869,4.153479282263321,2.2286616266620016,-1.3068363874162925,2.5077024939919648,-0.6749909363628404,-1.9697922565698174,-1.3308188052821919,0.29362488140165677,1.6893391982993085
43,-1.9082570460767905,-4.495412160307778,0.6415412615826577,-5.485809039823027,-2.937928756512468,-3.362369813845035,-3.959249802366682,-5.753828099653635,-2.568827969661549,-3.691921872373591,-3.8201612541163428,-3.0810408156532016,1.1270956677839463,-0.419332039062322
44,-1.7777261194776137,-4.947871680409161,1.5528581017140137,-5.499780192910743,-4.405149899019515,-6.063862114428755,-6.369322408393739,-4.64082683008765,-5.143021844479522,-2.8451383700050306,-2.6815399975856993,-2.0360780639104017,0.7021127323578505,-2.67942190621266
45,-1.8344540776617049,-1.285054568392709,0.7545675482693882,-0.6474930830536735,-2.424676730698996,-1.6914716273141341,-1.696659234639475,0.8211743689198265,-1.672429105370336,0.7884844072292938,0.298092766953262,-0.8974032248685003,-0.668769303063254,-3.0429503604385557
46,-1.5319304521032162,1.8834362625909142,-1.3225886159694153,2.528751739073809,-0.01031736619597193,3.221330195861863,4.3354697087027905,5.29328429633514,3.6998498566101357,3.189467677845267,2.8638673311515155,-0.20357791590959212,-1.146406193867678,-0.4918748580468046
47,-0.2342181696804032,2.202353905812562,-2.1226572958038847,1.5213846435066702,1.281498651482237,2.72958031921534,4.742884324148988,4.959628728041069,4.417592579499644,2.285983891290979,2.4533917347451983,0.6869154523502814,-0.881172297428637,2.330141146777302
48,0.35483754662031175,0.40242722485305116,-0.6423875991796745,-0.6229805699200464,1.7513438891183823,-1.1947694593895475,0.30984311166300577,0.5922168787896628,0.043292402165726225,-0.33210663872823665,-0.8682490403612059,0.972742881729706,-1.0528794049661205,1.9304017740048143
49,-0.22125171211907962,-1.1549057235089522,1.080649592531931,-0.49328267899212375,1.672198858766176,-2.5845436597540115,-2.624091190935818,-3.647603488183317,-3.5694795781789868,-2.04445370206491,-3.067098366260981,0.2864245185299254,-0.6228933208764651,-0.5828608733938581
50,0.6920792622124148,-0.4063546594567337,1.1621025918847563,1.6362656032951,1.0725701039147773,0.08172024263388142,-1.2519965995822318,-4.092625304280478,-2.2778450298286326,-1.8295819604467356,-0.8180552661702445,0.46843090900075957,1.8182138901134755,-0.8122043188080553
51,3.9325346008521826,2.0288620005624396,0.4367271204729069,2.8193543001664665,0.35241508605601335,2.7491396057748867,1.0663700519936288,-0.9141152767399277,1.483558891220688,-0.0916717025899024,3.3346163595608647,2.2500930365378684,4.006280718704315,1.8042866788281096
52,5.368133313498811,3.0027980610734684,0.33667200404955033,1.2318200640478003,-0.19376685917805073,2.1399644289841464,0.855474098920772,2.448231396129176,2.924234587911509,2.2876622351068834,3.9482311489449424,2.7494065340856433,2.3542479320024206,2.7269515463720806
53,1.228370434706246,0.6891995276089032,0.26611768659945645,-1.6885825968991135,-0.8381123953763339,-0.35654333866039395,-0.8165945408749415,3.17122502764773,1.1724586511732178,3.5784526820747975,0.2309769907860129,-0.37104858780121747,-2.0607097700360684,-0.43560355797826705
54,-5.776201046647995,-2.962281219874387,-0.7708654275803142,-3.116952932859539,-1.7039193454857213,-1.7975917524314222,-1.0935075984836622,1.3509559040501615,-1.0165220311876306,1.508464697882,-3.3019048142610594,-4.441149215184454,-4.365855945977112,-3.9712247007257515
55,-8.965008250341192,-4.609884081284468,-1.6196851721459167,-2.33692366401493,-2.129335203284469,-1.7150365845938256,0.05419775456939548,-1.4382294341683404,-2.029705995839886,-3.767898528986176,-3.710411548403727,-4.953064833272946,-2.8364383760989567,-3.7584286641584512
56,-5.208902285426615,-2.9284470566344596,-0.65236919041672,-1.0438362797983,-1.2824755128748502,-1.3015715456425976,0.41585191573141933,-3.7021578031571605,-2.5796427015987637,-7.6145139516663045,-2.671157073613773,-1.6305981818931476,-0.5649134833328969,-0.8539779092937994
57,2.352998576402311,0.8413587954913547,1.1349052197369758,-0.1797493780841689,0.7353757897767009,-0.5969800750273683,-0.4484009965512645,-3.602180076706913,-2.4369499723335633,-4.735803711003791,-1.5930994840233839,1.9466784150032252,0.3460870028134408,1.5274512109275
58,8.152965222848584,4.1222348483895805,1.3987800190711988,1.377560267412948,2.609565988404445,1.0866974418538795,-0.5169406418479974,0.11999178213092221,0.294957372214815,3.948974436850646,1.3258160657039442,3.6015435713763586,1.6981559572779756,2.9615748855417574
59,8.706905936164285,4.6379927935853695,0.1252582475244603,3.9518049843481147,2.811271528552289,2.737267698038901,1.0934479421830805,5.132182146413088,5.064721783504099,10.537784096262373,6.223048757821209,4.06311760974848,4.57862187360019,4.24069827025536
60,4.043553038247813,2.3087285538185456,-0.6336655350659014,4.992044595569923,1.1188524088927587,2.1940099125371932,2.2369543791843234,6.208466268976182,7.085754817314314,8.257482367009539,8.054008491699303,3.6441879056547557,5.762221762505122,3.7774101357533727
61,-3.020543717743238,-0.7805160677216172,-0.2603931752981517,1.8341073611061423,-1.033248280971305,-0.5377066467818903,0.7941445707887707,1.364476861109208,2.643479174336983,-0.85038819182939,2.5826038281136956,0.8972937100680292,1.7694639013955777,-0.31226326477636385
62,-8.43850798550368,-3.1226271736936084,-0.07861351530166583,-4.273337714170023,-2.073645814433992,-2.6325013345137576,-1.995229012083275,-4.855426391985194,-5.273629828247075,-8.461307009203802,-6.435237405779704,-4.215262421061929,-5.485836993429174,-5.84474136552617
63,-9.0127581688623,-4.77940520196087,-0.45260823750049156,-8.348309865067575,-1.8130492466665347,-2.003711792126733,-2.9870631293739813,-6.583301965812553,-9.480594427348386,-9.21614544494088,-10.636756315376774,-8.022270877458162,-9.860760719550564,-7.831205425779563
64,-4.1797709006481,-4.734004983921805,-0.1491189540514373,-6.048200871533791,-0.9834140071535994,0.17222240835697752,-1.0870643528612354,-3.1517216632319984,-6.196298779519985,-4.614208094506075,-6.616110004416087,-6.146427964028815,-7.17496865346122,-4.028621167346454
65,3.4755582867505375,-0.7268763320379503,0.9692697270666655,1.8842165084640325,0.06918004115849656,1.5232632000622737,1.7736636927970846,1.7150367994690487,1.729995235471145,1.5370360756798849,1.5142922791667555,1.2614048479358986,1.1119339497203142,2.8270192143341886
66,9.318529926931388,5.860249894178168,1.1637091772650248,9.117691971277479,1.2675877994177969,1.394853906199819,3.088472711793191,4.854622151235409,8.180731646992843,6.956858046597021,7.841271562995631,8.482422497722474,9.274197008155605,7.916182488627892
67,9.395634714224926,8.727485822323281,-0.3292695799054414,8.869517796759633,1.8935466981590674,0.4207441745841207,1.9107036392426175,5.116322561398415,8.586698249107302,9.147202569820953,9.108533055154984,9.228347223162759,11.248345683420458,7.930511847661964
68,3.4802222919089987,3.9660153797330886,-1.7399084834344933,0.9948678926805796,1.120039655442151,-0.9968582539834022,-0.9207394523747952,2.1208280160039665,2.808602349985951,5.128371603767927,4.766931047248939,2.750045178334462,5.070009373653288,2.8040526190963115
69,-4.5073952696951975,-4.150740168389526,-1.2767709040554736,-7.128526788423014,-0.545310100987398,-2.0433637757663283,-3.3508129103134467,-2.871610016184491,-4.567910929286634,-3.5485307917352555,-2.8126944557786504,-5.365827603731093,-4.639359326947757,-4.114614056901128
70,-9.493575116486413,-8.10321439560293,0.36669149673399276,-8.339072370614188,-1.521271091696023,-1.137649176271318,-3.2560923918110913,-5.971474115204685,-7.664799125028495,-9.404203702371872,-8.24806540388199,-8.606297884597991,-10.00735150370583,-8.075078831312519
71,-8.527430028642794,-5.47365277927117,1.3013272575095685,-2.982016984863928,-1.0718540112412676,1.6001671122366312,-0.3300027756735759,-4.009841614388921,-4.71421430342711,-6.917215505462733,-7.247501100735934,-5.333936457296484,-7.5145833857891935,-6.660492034826252
72,-2.0545319626689293,0.2646498129968959,1.0541763341092365,3.0500677725201104,0.011446797610385567,3.14870833048506,3.130839024193738,1.2117615747314794,0.6031105642930887,0.5702176868158355,-1.3420206637387406,0.8824971848747941,-0.9800641236418937,-1.428822022566551
73,5.9318320736413,4.595780915529782,0.5479943091247851,5.436178685804695,0.7724361288362209,1.283931517717062,4.150412323126129,4.633862788673522,3.7689130662892523,5.39616612916601,4.014600784549224,5.482358259213882,3.914160805347364,4.224162582975812
74,9.36980881078949,5.093634964762495,0.24591032266247317,4.1185364665806805,1.025960422027077,-1.9035881692983059,1.9283594865298102,3.79822820521428,3.7214813275102427,4.7227756411339,5.535102689586677,6.126169829926698,5.35013299901485,7.3564237842161235
75,5.079004234097714,2.110386043949012,-0.3189384307827174,0.8412588021928163,0.7212867234288456,-2.701123419090571,-1.5256076482481993,0.6840523913481835,1.9256095920756064,1.5811299545200994,3.836526476249257,2.7818972263952215,4.252954871971181,5.855600503231294
76,-2.7585497145204814,-1.438072415074765,-1.316148517384384,-2.5783977271512866,-0.3354604890003691,-0.8155570943990145,-3.4761508312745217,-1.9345634060974926,-0.3675156307294856,-0.9469493772666308,0.5132388910312077,-2.605742760636708,1.205702570042387,-0.23946825751685125
77,-6.149301141614075,-2.5131224436696975,-1.903315295928762,-4.097200948362411,-1.5567855241056172,0.8783418526985791,-2.8614793628453103,-3.1139478786611985,-2.150596343373175,-2.2961581423122084,-3.0427773900323816,-6.091572851918642,-2.523317228342464,-6.583086742256322
78,-2.729105096796918,-1.2664577859875388,-1.0666634792122365,-2.5561714037369203,-1.5513023649549034,0.8073269520975368,-0.712192076934425,-2.575932817521604,-1.9358904104919221,-2.2764706539919475,-4.566661246940482,-4.279077523113696,-3.776190674624668,-7.072317643579913
79,1.5645024395854703,-0.43722345300143445,1.030323556152394,0.5994665290735341,0.07051707831610585,0.2069085422550113,1.2637008451574805,-0.11278618701286051,0.3907596173910531,-0.6083405081841825,-2.3416423051452115,1.3763233064806535,-1.0478376948271322,-0.9504713356378398
80,1.1296830739275654,-1.1173276216992571,2.7400173949624826,2.4793204209857684,1.6817637306600908,0.3151729273005761,2.050797752445608,2.7055586919449075,1.958309296046017,1.2433868275924949,1.7676332743605099,4.995446986893981,2.1739110334305156,5.184073716428191
81,-1.749258023143101,-1.1699329769324627,2.2950886140520295,1.9777268794158445,1.4993653954973836,0.5747402835017636,1.6212858414027915,3.0480969742137614,0.06953005680592435,1.1252064326642044,3.513743712221196,3.0636111793609087,1.1913519371294998,5.024630311172657
82,-1.3884145877957657,1.1846969233229214,-0.2311647640206629,0.6156249676138876,0.03773714825853208,0.2204504784467317,0.6698105507561873,0.6572780074300696,-3.1778368629054956,-0.4199805827030356,1.451978407797225,-1.1139165303735765,-2.9130444687793475,0.1370271827251844
83,2.3942929266539106,3.98284488657973,-2.583108552042489,0.035331966783401496,-0.5406756234189258,-0.260677763935978,0.07776357408223734,-1.328691000561418,-2.7436125330502317,-0.6406593990666523,-1.229978572713736,-2.126127384075343,-3.6641527517700485,-2.866180788574086
84,4.5389020245532965,3.553802542250877,-2.4531866341482904,0.00701531874499723,0.35952212648696213,-0.23331454027442164,-0.03538991596623632,-1.06082551221096,2.0164121452754693,1.0246300514322042,-1.1986342922527844,0.2093854297997209,1.7402453935031352,-1.1871242402209543
85,2.3323028243407538,-0.6444361405047,0.00890813871444513,-0.5396897218561477,0.641940652586286,-0.16926602539972474,-0.5663880585482218,-0.6526535561855634,5.380605178197373,1.8201209953132553,0.6225728836934302,1.4204471906265104,6.958930650400279,1.42495224319489
86,-1.878097596596413,-4.947822657568189,2.1831832620839844,-1.5956594989320771,-1.3056696021130905,-0.6911020968955698,-1.8930266970080274,-1.867466538849758,2.7486605369706685,-0.07091614950024629,0.914466370963086,-0.7036266055270395,4.152727794577767,0.7126103775473078
87,-4.883690150105206,-5.32208354138336,1.7160555508699713,-2.027375519050846,-3.4237250495348546,-1.1878793450017933,-2.562069345186914,-2.2638903587083554,-2.9192873884798267,-2.5868087001980897,-1.0141085705586599,-3.305315334089912,-4.445914369288491,-2.358741033206283
88,-5.25216454614017,-1.2199839511323123,-0.7835212097172352,-0.9913269866992475,-2.094637133032658,-0.5587839133677709,-1.0058120962212502,0.7365970520823323,-5.120442900267908,-2.6051416307949085,-2.4521318637285683,-2.879922926604511,-8.344277463951968,-3.461653033374209
89,-2.2111951856964494,4.031635683119402,-2.2257059093072096,1.044751019683317,2.5125104233302706,1.0168871168888403,1.7253402192061196,4.4204554740100725,-2.1038985555238043,-0.06220634786502462,-1.4385532379265487,0.3395903229414639,-2.949212159225925,-0.8426811529420097
90,3.5778494291212666,5.838519358668971,-0.7137042778835647,2.472893444949642,5.525270955352542,2.092010791978996,2.9190041608818986,3.974736972549145,2.123163322648531,2.3350994902514866,0.7923605705182248,3.4419052008659405,4.453952461087884,2.8191866593642474
91,7.84418163441124,2.4378988444614644,1.8356882125441616,1.9493971765752616,3.0804303722193827,1.668218331742794,1.9332710382990852,-0.21052707098147738,3.6940744637758822,2.640100359562894,2.363426358781651,4.3309828825573105,5.77927873819616,4.263794693884762
92,5.848540612683349,-2.601347972943834,2.070112363136788,0.10712840186152146,-2.5413249742678974,0.12347885111420001,0.7229145843336838,-3.071980159141157,2.428463216924501,1.4098067537912014,3.19637773703562,2.904428071677268,2.6248611963576836,3.184618843556029
93,-1.0259287617556936,-3.7526436495355613,-0.17413586628182273,-0.7941041393172045,-5.266187871520959,-1.467897552517176,0.27711128230187626,-2.2328305024246635,0.05136794768149741,0.10690282919476043,3.1617927692153636,0.06423881922514033,0.643916705421511,1.0975020049959354
94,-5.822636526885599,-0.5227212711105051,-1.7532558453585796,0.1386369540230823,-2.3613102077005084,-2.2129343414063123,-0.8544096331456454,-0.42871355580247655,-2.0211695397518903,-0.9103638292295432,0.5420175635801191,-2.8984597636121223,-0.38329547379991974,-1.3576137025986514
95,-4.800366448070784,1.690596062067043,-0.9045086482650702,0.7183393159490702,2.3568127730253807,-1.7336201328831824,-3.305210584429477,-0.4364921423296931,-2.9015542008835173,-2.151991442792092,-4.595075729698202,-4.469445231753155,-3.605728033757546,-4.147922276514257
96,-1.656113792357391,-0.47571257805061473,0.5111352703438711,-1.3207314912527304,3.243224841213382,-0.3673708138561287,-4.5642991336827095,-1.5159925499133247,-2.4308399003254495,-3.3291376662681635,-7.718549855249795,-3.882998349972587,-6.704037363536228,-5.957722269495315
97,-0.7121442199326239,-3.150896663965981,0.38068688519211263,-4.220348601216327,-0.14689316440577194,1.0002904827531633,-2.0111240330876208,-1.5084604409252127,-1.3036781700099036,-2.932197520755473,-4.528880570965134,-1.8181636185788437,-4.634376629386208,-4.608040727113563
98,-0.3654113035035236,-1.2516219528295507,-0.5126018353350499,-3.589445131064339,-2.6743137710011946,1.8088471872867877,3.0091842351464817,0.5353171636579519,0.31158949780962547,0.0353462185396389,2.7912056078383745,0.8251950595270778,1.6035227949394975,0.5010074086130984
99,2.6246098825450814,3.484338139873015,-0.3278579132354424,1.5561831224203377,-0.7039263468120406,2.218655746518125,6.241276417306736,4.02600382932571,3.1988798261179334,4.235854663678654,7.71040318258858,4.0032145037144975,6.275674117379682,6.904694437294434
100,5.919277540597885,4.948343474137736,0.6943437567619253,6.453656945684435,2.8649906640940612,2.0673241677603786,5.126906680020335,6.49655350210249,6.29296654968058,6.497705428577135,6.849856234436547,6.6952386493748355,7.0588157395548485,9.781312820429019
101,4.290589484591644,1.3075319938325765,0.9189873624824654,5.837269234490665,2.796133474924384,0.2844852501485831,0.7416705197195294,4.199539228011284,5.437181697719527,4.3973153805724685,2.092329282865298,5.462110477314979,5.202958684703384,5.275929625958988
102,-1.7464317372944396,-3.2201891928021147,0.1348220403578359,0.14247189989130982,-1.0653378487852012,-3.0880938700567424,-4.086934082370243,-3.4377539170235676,-1.4427886787148587,-1.395424560634871,-3.268379032743297,-1.4005752555076774,0.32786857174290784,-4.500308590566285
103,-5.529536835703705,-4.450669846957387,-0.3287455653852347,-5.18328716617141,-3.800191662445595,-4.974895157682631,-6.585830382184478,-10.257504793399542,-9.09363997161007,-6.958207432496842,-6.595381523980982,-8.621289616602798,-7.158807731095931,-10.87463856674837
104,-3.309778279336421,-2.2662902821062576,-0.04112637274858142,-5.761323239586655,-2.3240909434504844,-2.237492400868938,-4.808405943083501,-8.63161441399395,-9.450085800080334,-7.722787925707906,-5.578413657945049,-8.065843675605358,-10.921160133212645,-7.1075259631320264
105,0.8992141705718292,1.17751833084592,-0.10979464914333661,-2.044167870487045,1.0592337868245285,3.0083821547984644,0.5696783936440184,0.7854859837674418,-1.66866625033002,-2.507266236025534,-0.3247405019191121,0.3028459310779321,-4.991723397642346,2.7163880608304902
106,1.7670779771688832,3.8706048633982846,-0.9766996975652322,2.4594875109230863,2.6285617622928497,4.653317148503259,5.296334951413578,8.667071436883749,6.524240283853918,4.634414932286946,4.722775704330526,6.898253587647187,5.638422242340737,7.915656261088
107,0.016364043401879344,4.109873470431386,-1.28429119229323,4.6552851174100205,1.7942864041438835,0.9047245339638361,5.1542615406661145,7.975791725262674,8.18868496987657,7.568887174411494,4.802324720132834,4.885689270323056,9.448413548234806,4.338418763240022
108,-0.3955862656201508,1.0273982761093468,0.0494180892613833,3.3059160267269836,0.2777903939219049,-2.5151552781316653,0.9576456032761056,1.5369491612020052,3.948410148467665,3.921740487680297,0.586640961398418,-1.1668616021444318,3.6698621752332827,-1.9650497635624682
109,0.603817662194783,-3.631828684237016,1.8494951362142231,-0.7031732951163273,-0.8167156538905468,-0.5688249149787027,-2.309498624310984,-3.2776358213691412,-1.2889983207396511,-2.4239204597179778,-2.9113800855548733,-3.1023801309648817,-2.873882046782064,-4.2986500061516
110,0.16528699996691504,-5.781322428082255,2.0430030401532444,-4.190746043003737,-1.2523099661515247,3.314004155379211,-1.677165548673114,-3.60684226214978,-4.172811177576201,-5.199779830445457,-2.5290217609857524,-0.5627736575943391,-3.1244092755497364,-2.471649314416146
111,-1.0803445730951295,-2.909481043691542,0.33535286923914137,-3.6839805776565626,-0.8002605369571436,2.2752410746884846,0.6346305119813764,-1.9057387946834077,-3.9519007862446136,-2.3054279441109373,0.37097725832207784,1.031387518943969,-0.19077969755274146,0.5365084338207241
112,0.2478657800965052,2.487527286850267,-1.5750107433091158,0.4668368883236302,0.0514213861474756,-3.451445643274511,0.8167404184603397,-0.6696065453781471,-1.3222033614964885,2.0690399076593198,2.5136739234454546,0.0378919438421067,0.11564479476349646,2.9761050613986235
113,3.253747060587778,5.1604649308586525,-2.0759786182172175,3.5482590219037835,-0.007978476251990194,-6.549580712037203,-1.6226326475388348,-0.04243946146458377,1.5784307453634314,2.6542371422270903,1.8643775833732903,-0.46141783577767326,-1.62422869810747,3.5054698312009713
114,2.8008046520256533,3.1830593770549225,-1.0200946831514257,2.18808115112178,-0.9766228868741299,-2.8617748777797067,-3.7056848407731615,0.4339984294987682,2.2160535610760608,-0.38190012730984224,-1.0273545014541454,0.4945313332987691,-1.2890809437833866,0.9682106560578944
115,-2.03482776447865,-0.21871266222749916,0.676900142629094,-1.0717452457634622,-0.8288805039406398,3.4126438106678476,-2.7059864374703535,0.6850694581999954,0.4171127169241339,-2.239303714600011,-3.2563977671677335,0.3575227356851319,1.187748251485434,-2.881764427345339
116,-5.3686510759099875,-1.6221702520862873,1.8539335149813236,-1.5545868037751456,1.450434857036545,5.941249077094068,1.1723329017318525,0.8149818548332682,-1.2000610576152047,-0.49947512749977896,-2.020330164227172,-1.309395468162909,2.2883104358709008,-4.032819027321179
117,-2.9126140641150315,-1.462505089018459,1.6039426748600967,0.7921659683773769,3.5506980853480354,3.6673124605609404,5.264593346383601,1.1868813101141653,-0.5588414839023974,1.8950279547646252,1.8977460470353755,-1.2960640706798043,0.9966947617539463,-1.2778694741464098
118,1.9129501305133867,-1.568107293998956,-0.033925292972538296,1.8661651212498347,2.48976101055467,0.040812153491335094,6.33834055062226,1.4370581349873357,1.1741699377657036,1.5627446047303195,4.0848959822197655,1.5820315976912298,-0.40336201901881874,2.013704189182637
119,3.4895883272401966,-1.5919233668715733,-1.659178714172868,-0.12421706250932613,-1.2246102762288011,-2.1920310171421873,2.6200816990101896,0.5269404138780609,1.2774803026754775,-0.6702873258378249,1.436428813905158,3.5367616115326745,-0.8571111010679425,2.41394536234877
120,1.6215801662045528,-0.3770175352770399,-1.65551430907158,-2.416300204077989,-4.003506035690471,-2.9209624059472254,-4.048852822946387,-1.57162818024243,-0.6161017338165236,-1.799434274263853,-3.373932615110374,1.0961674014148555,-1.3452384457603863,0.5380491595205649
121,-0.06934243659148362,1.3067320793110595,-0.07603645856783704,-2.2836541549205873,-3.5282755739860354,-2.8470670435113954,-8.230208395194133,-2.953630104642661,-1.7085797342555789,-0.8358299293994627,-4.339795084481357,-3.4775931685380455,-1.385261828664909,-0.7018263665727582
122,-0.2766987104127697,1.7954382759070049,1.3305136904044963,-0.5075179520465546,-0.9487984498446556,-1.9813853953976792,-5.704228559107341,-1.7674155231243718,-0.0005425723171793391,0.7847480932511531,0.24319957581371734,-4.933897960662729,0.5636754780794736,-0.2707269939569651
123,-0.4491620770538492,0.9202207875840118,1.2099943575180763,0.8854313711618411,1.3868741172005252,-0.046544246186526715,1.1964551311849403,0.9669412464249432,2.168992425035794,1.3587321219842656,4.694842623227554,-1.6999395173523408,2.8131973957796244,0.3254938233313516
124,-1.0244029759357605,-0.22573390221852507,0.008883419695362242,1.5720643934803233,2.564553377167085,2.4775875204817264,5.765086516932101,2.2152406402939504,1.004090308727253,0.37348355831164215,2.9389140854406914,2.796876689608601,1.5581029449725168,-0.16208866147542475
125,-1.0208305195675904,-0.8049044546137862,-0.9079136229185086,2.000147533666294,2.755303072303411,4.06198282219211,4.981215987779077,1.0826369732305552,-2.604896507651732,-1.0980808946175582,-2.8493007342695673,4.737287272323666,-2.484028769105726,-1.0211711677349609
126,-0.37534390771754156,-0.6131526315921112,-0.8125007796851131,1.6712179087979582,1.9049632136840318,3.209627894146928,2.0812160952398697,-0.05088498397411768,-3.4320006555979017,-1.2344104692965292,-4.621907521577963,3.427247800794339,-3.5999832326138557,-0.8901604160962936
127,0.17455613291814928,0.12333198138573828,0.012373891411340814,0.20824191023959668,0.0905193673864928,0.14139352659460058,0.2807090284374074,0.4155574055879551,0.4263252025693114,0.36799825078688836,0.30325441999207764,0.34220623832902786,0.4874960902382288,0.3371553481941689
