,AF3,F7,F3,FC5,T7,P7,O1,O2,P8,T8,FC6,F4,F8,AF4
0,0.08789337013090273,0.06104621694795374,0.07306314247659207,0.07142508903553112,0.0031069499008442394,-0.034308310345078294,-0.008595633972421527,0.014554664739086749,-0.12588650447509409,-0.00836640005680709,0.03468133659167646,0.07580096774640369,0.06252435748704355,0.061634668956013314
1,1.7572965491281396,3.922859719013341,-2.8956669012129925,2.1227705240051047,1.1127148673592526,-2.462060259628593,1.15356898470508,3.154008481565596,8.847228800343204,10.406008444008407,3.894987251126893,-1.380637853102285,2.076329245147604,-4.519348076720511
2,-1.487597565906025,2.5554993792171135,-3.146439474983006,0.4080927496915866,0.8067408778796142,-3.136070725197258,1.172422809776017,3.040167623332935,8.510879394934697,9.859202137277801,3.976002328953997,-2.110873265429995,2.297560886607151,-3.589307630498452
3,-5.915813467455966,-2.271677837667597,-1.175307431283945,-2.91121461163868,-0.5038444941547396,-0.7826074763150324,1.0094665916909829,0.7757041225751509,0.692160486393522,1.155997349133465,1.0098871260578492,-1.7542702164856703,0.5781544104684984,0.18046973654106419
4,-4.220690956306517,-4.266732749855034,0.8516136626928095,-2.900368975296087,-1.3233630439087116,3.1216911829431915,1.7440063808514452,-0.28053658353972327,-5.172504897269259,-4.847605105703375,-1.359161478912116,-0.2620241658877626,-1.1881435134846672,1.3396466797355475
5,3.0579386279712693,-1.0221015524017047,2.1179753713845644,0.8777876661689648,-0.8602954065756677,4.423532029333881,1.9563164524768937,0.2893082146863966,-4.260116427580833,-4.357097800101554,-1.4227440441227828,1.9064836479601717,-1.0962700692615301,0.4460816483047575
6,7.206615879277806,3.0859186910295096,2.602841609533951,3.7401904512801303,0.47067922943705975,1.0136772186927268,-0.3664619089691998,-0.257118227336158,-0.5282218644499045,-2.644231454243774,-0.8999206724203636,3.174191518106981,0.06995167630921621,1.0803810538688567
7,3.2998633191317706,3.1285537554267293,1.3903419049603467,2.37321813635195,1.5117485551835217,-3.791070190354555,-3.8920475173539986,-2.6994207114559505,0.6639032868643628,-2.883720736570678,-1.692947232920184,1.7245346712491825,-0.20303286106029728,2.1573452307004515
8,-3.0205074615770595,-0.0975304666735776,-1.7007299140017083,-1.1633627306582195,1.1034369770720547,-4.797095376331553,-4.692169618852717,-3.734244041803452,-0.5151397378362848,-1.448267224794036,-2.6427697435276687,-1.825251475106473,-1.9002200029867136,0.4636933575606793
9,-3.9143617581326717,-2.191505752489217,-3.9409527768235,-2.8232288368984086,-0.6569665700696133,-1.14855318240001,-1.4848216722909706,-0.9083049142089153,-0.5391597768545375,3.78632505644629,-0.8394185751688481,-3.858812111196746,-1.629509850176704,-2.04086097050037
10,-0.11369758718748374,-1.4589942119182542,-2.2512302636259465,-1.5557911487751346,-1.9024556557969248,2.9869536566095785,2.364841896831996,2.9384505356700257,1.4816997610122442,7.494998851109544,3.691449511320833,-1.7936336061048979,2.117540310131014,-1.1229337064379215
11,1.7436664287251114,0.0384326597929652,2.130762188669368,0.6522691352812486,-0.9155228789452857,3.73011578205406,3.441077631548991,3.414477749373118,2.9649552729877358,4.0017144221358265,6.335773093499833,2.115189275402773,5.242363020294555,1.3961583099416093
12,-0.1543278973990707,0.6813246313406586,4.339814840495309,1.9547817447079958,1.4446346986033807,1.5223544449061623,2.5401479307065786,1.059550537500418,1.907090006830796,-3.6697420051079233,2.979049773669616,3.279906713461056,2.807664038656789,0.16100836926933923
13,-1.2110122719628833,0.9786696479003923,1.960533343013256,1.819320967754363,2.4450838520792164,-0.7581906621718766,2.0462597500025637,-0.05066555925069871,-0.8672639608969837,-7.125415913840741,-3.997033259989635,0.7296888757992132,-3.6366901977415167,-3.6240906524208127
14,0.7383981129177715,1.097777962660219,-1.9305935860007393,0.189715350166994,0.7568798543215715,-1.8027134649626309,1.2406547151762766,0.6905693966542659,-3.2175829032687027,-3.3856423124798507,-7.577522859567931,-1.930365774658596,-7.047508343413548,-2.9153566656218852
15,1.7610713873116648,0.13793909057088707,-3.094165649469519,-2.117407223899859,-1.95893862380705,-2.120857176378099,-1.958145707396654,-0.1401580034346397,-3.342299799435432,2.346968209772686,-4.22223590613635,-1.7107933210372204,-3.388748575000728,3.327166261483811
16,-0.8453846903016975,-1.4715776191485863,-1.432163041213969,-2.849013561152621,-2.9823659945463534,-1.5238389219637862,-5.601894898263145,-3.133173207246196,-0.43473097606879807,4.292145002897758,2.410352856435266,0.14839056921112215,3.6368109067667866,6.951210923242429
17,-3.3240873064077774,-1.8183864019490896,0.09886687274259061,-0.7464581191109214,-1.37346307951211,0.6771041368061135,-4.8409968493389055,-4.035174816824323,3.878752420455344,2.172823589275278,6.226450953889981,0.8020398888231011,7.0407172538924145,2.371380910834697
18,-1.3670131966257943,-0.5469616165414467,0.34022944161863244,1.9592347517468807,1.3607074121108893,2.973447743880907,0.772066673747522,-0.5843350521659043,5.291662091539418,-0.8513818171895213,4.724355336976745,-0.02371006721549649,3.8626030264796323,-4.920729121192254
19,2.8949772554343567,0.6351397221896211,0.8502969251454704,2.2909218774399647,2.95027016932995,2.4157770103358223,5.469020634637394,3.3706929863579407,1.1080187436045308,-2.4788327785424698,-0.06090232006755866,-0.3186492945961463,-2.5198056220098137,-6.096360629516379
20,4.179005220151219,1.075984167155542,2.319705847235638,0.9905069704409128,2.338375947114965,-0.9178367180025254,4.582597613186977,3.4533699792118813,-5.193766488238246,-1.9945043918539491,-4.078343029075672,0.7259495709846607,-6.073296115535027,-0.790628008596406
21,1.5905456224202916,1.8179187215379402,2.824993220248502,0.7324073701704835,0.2226220136145554,-3.182024015239079,0.1760233472593175,0.7465005807040311,-6.933165378665756,0.3238304703959254,-4.250231849792863,1.5176523246838767,-3.764927945971657,3.8215670181785817
22,-1.4219960276009138,2.381965996668216,0.5242670982443449,0.8374578578099328,-1.8328693369026237,-1.9744712634381716,-2.7058584413207183,-0.9319209877003676,-2.266074479357294,2.55856143656581,-1.0724946566430027,0.49809941550838693,1.6318614598259449,3.1486018059851477
23,-2.8084463387684306,0.4263193853357828,-3.410029180863218,-1.511260396750592,-2.6265417175168237,0.4928473299696385,-2.4431410811364658,-0.8345258024344359,3.7742109366533207,2.0183173529743073,1.741121899801028,-1.646320253003378,4.476047860588724,-0.508450263942773
24,-3.2529030698821035,-3.7168782902376476,-5.446142755675181,-4.977525582898235,-1.9151375280012826,1.3115996326403876,-1.0396625268035458,-0.919834701195778,5.861629042620823,-1.196588148165896,1.8433880146964194,-2.79009167793255,2.4442610327378125,-2.727396949598754
25,-2.640905353366705,-5.483627122726048,-3.0166760211559303,-4.3788387783019,-0.14605671329876294,1.2155778463169076,-0.00672571452859054,-1.4895636097298859,3.9511374006250373,-3.1403702301916607,1.0694413201011765,-1.6220275284730814,-1.2061488053139904,-1.7753477683055563
26,0.33842944726907087,-1.716540799682587,2.634892395726139,1.4601071806144386,1.9502957775717125,2.1588814731819364,1.081241347986987,-0.7759622576194942,1.2318925480575325,-0.8649181529034978,1.435410154548001,1.2028511657553846,-2.305936113679534,1.2781208416075551
27,4.4314461533277685,4.3627485055723865,6.755641963563261,6.822553503405042,3.1934290725033168,2.6793844117217827,2.320313656212249,1.4071275049577336,-0.7211738687790435,2.912141892261195,1.065701052824408,3.5314392980541127,-0.8913382297566877,3.811425395659812
28,5.472425596214747,6.545568373631962,5.215960832078884,6.147297062952682,2.1212787512928335,-0.2897302925999684,2.1150026790266696,2.5633897881619543,-2.7662073790395993,2.9160977479874934,-1.9255389881794842,3.312735405350049,0.22663680587106846,2.8810406047900154
29,1.6582133743218423,2.786778751358558,-0.8992856052784995,0.5513436523382885,-1.2675379327457024,-5.340594729091769,-0.6584852884347098,0.9621485084921878,-5.254727211831209,-1.2069359342341748,-4.195480115591153,0.4738749617943178,0.25343078460044055,-1.7407993897047642
30,-3.3392637113258705,-3.066893509677198,-5.788057799739918,-4.590050379688021,-4.073199776589155,-6.5117742242330765,-3.9335096239929728,-1.6636703758221538,-6.0563976948808556,-3.884041014007973,-1.3566731633020832,-2.748245288503557,0.7076278181158389,-5.629768238091073
31,-4.666755132953649,-5.75686762064174,-5.058829100017618,-5.755327494168927,-2.852253899117301,-0.9544057873002272,-3.8324559300156986,-2.2982267116448747,-2.50716637040787,-1.3386935719827584,3.9607800259053523,-3.8728854398654557,1.6414937506162655,-3.96833673715574
32,-2.111273701663047,-3.3925582826019407,-0.5202174842756189,-3.200409460798248,1.6412234132828487,6.197955271026469,0.386716416136693,-0.6636396040072734,4.40921062800526,2.7289821771395535,4.341653953071036,-2.4458374509868,0.9970895285570799,1.8334569041261803
33,0.5541234911133985,1.3716502340446963,2.5123530172366553,0.747392754640112,4.130760995300926,7.284369203236058,4.4290367049360695,0.6690768399031993,9.095964852781654,2.286997313449638,-1.478737844192995,0.10350962851661788,-1.6243279452320398,5.12529164447222
34,1.1239668358944528,4.036531979872995,1.9849179156533157,3.4232109000526627,1.3221356389183674,1.3562134417894722,3.9076377062964203,0.2911337866457776,6.648736067435975,-1.8696702516415706,-5.547404590524657,2.326813317150636,-3.3183251731546144,2.6562811554808294
35,1.2155153310590099,2.7549786128415414,0.8857768849708686,3.4548951948542306,-2.9288059495712195,-4.6385015699786445,-0.007929405258343136,0.06561665950717815,-0.9822682722597412,-2.799702285468799,-1.5444820728098578,3.6017693996990627,-1.5095527378585596,-1.2815005472446355
36,2.405671830545951,-0.036374653628212766,1.7679230254149452,1.8679768738879698,-2.3799525028666064,-4.347901045956375,-2.4731214324407174,1.742819051516644,-6.404519604829796,1.9525753678052102,5.388981581442865,3.3115436426451543,2.2885777011306065,-1.4705399868366493
37,2.6674051683502737,-1.3446807915872507,2.329224732366032,0.4316959525872941,2.298375409809775,0.47532802529733514,-1.710478868506447,3.1772796806420147,-4.925374241871527,5.6294932522915655,5.002430964280862,0.6115457892523574,3.8952869785759945,0.7090730694455257
38,-0.663513843968584,-1.5406844986152957,-0.7982901659178626,-0.9748578055951875,3.738440199950478,2.9348431991557673,-0.4922173937470609,0.9226570809871996,0.5954468638443612,1.8170398407360455,-3.1604115968485504,-3.786209204182345,1.3154966934701227,0.09616910342365899
39,-5.302445601906922,-2.3239349003016603,-5.478400387916849,-3.205576058227479,-1.2053700499896203,0.313253365940257,-0.7947495749717532,-3.8314584211043625,3.631741400795661,-5.4757376904233075,-7.932047768853557,-6.333076366368941,-2.7613386492006224,-3.555786261203145
40,-5.175442126886398,-2.3718713346287017,-5.479191387670405,-4.414871347831659,-5.853638350873295,-2.9075388259141652,-0.860876774845426,-5.6064320022430705,0.9944006954504699,-6.998741161806481,-1.9522516315856167,-3.420496125930121,-3.730429628964282,-4.3803891689916075
41,1.4330151171534415,1.0344249941497072,0.8973330169637546,-1.4220249277693644,-2.9441137336261676,-2.1089483188965468,0.9114368792948472,-1.9491764573941464,-4.607463856285401,-1.2459482599428842,7.314163233253016,3.591150812656794,-0.3160038604112153,1.0137686382766464
42,7.976275296538762,6.065819686920464,7.31747663675121,4.404190514116176,4.385204704894528,1.0616624321026238,2.5862231948821015,3.078394563150235,-7.24273501377689,4.268563245892537,7.564523691786086,8.05000931806986,3.626525460607783,7.480740447322952
43,6.773760509428127,6.44100011638598,6.722943049312274,6.618350586680664,6.591640899423852,2.169228853539277,1.7025597410736641,4.5752953847596824,-2.5957033422061193,4.353401994623646,-1.3369982581424527,4.960475323898217,3.479859853711924,7.066159835775541
44,-1.4890315049978409,-0.4097352519341515,-0.1895129597695917,1.8683557718400612,1.1089198301811258,0.9869749426696282,-0.7054071702853504,2.7256204794930716,7.4820320943631655,1.9655404219530817,-7.714631284084391,-2.630933644254383,-0.47012991694525585,-0.6945518455665055
45,-8.450909202693657,-8.428876257228984,-6.258089852222128,-4.68605124217603,-4.5615963924599,0.7858545322636363,-1.7558971912787984,0.6245510406107807,14.4456034752542,1.0414227220555548,-4.502486837997752,-6.865722919285677,-3.5098026790675028,-7.83469433362543
46,-7.822834201712993,-9.26276989948545,-6.3597451342324245,-5.858892532854373,-3.903862621416702,2.0620945742519705,-0.8774121681847461,-0.7926362074569252,10.152777063446521,0.11291540136466785,2.3115392485375317,-4.5103141821938015,-2.709123563228871,-7.610073460613811
47,-1.4841538841775668,-1.970199045744488,-2.090091845745479,-1.708662051450212,0.3482463871338081,1.6104325273127877,0.044883896224269304,-2.4808482883353395,-3.549876831156736,-2.931719209128742,3.794486232608337,0.019546148408628578,-0.29067896240790025,-1.774923317814367
48,4.471177442410159,6.316111435327777,1.8591074526591946,2.0337502993906873,1.8721002974732275,-1.9164715313687284,-0.221655142231387,-3.9698042975477152,-15.014193145077154,-5.041797859049461,0.1485139045517464,1.7518471776985005,0.390111750222603,3.302462464495185
49,6.633910112314963,8.612490538673685,3.464620573220481,2.6680202250558653,0.05605887953809363,-5.281455547330101,-0.8561819135767466,-3.4184261612995885,-14.835581870976437,-2.5528492846577326,-1.8505043208292442,1.4869599930714912,-0.03246830396179616,4.774478609930176
50,5.54821729857009,4.595018635503543,4.019244294654346,2.422655702468905,-0.8180664751289205,-4.7013505995446225,-0.3167295067085931,-0.21508659373826763,-5.227110173399401,1.971800949388668,0.6053644184281352,2.607240807511048,1.5335613978571925,4.48416693511638
51,2.5608713637355343,-0.8461735446939876,4.271399934650606,2.5623407195973824,0.8418259965601347,-0.44849780211285317,1.761057535873245,4.106119944498452,4.745808201972158,3.3839924740448386,3.6723468188638586,4.6374776375050795,4.806931273180778,3.7323285030977393
52,-1.6112275455675336,-3.4768337383111216,2.4847115346804567,1.1553423049293714,2.0460925405558417,3.724212530765664,3.5370811535435247,6.655789724580687,9.802178573368758,1.9756334743356914,3.129883875711562,3.7788242110728003,5.106599977369262,1.094343109466728
53,-5.595545717945986,-3.32425019101983,-2.502437804268849,-2.3638093376251694,0.6312656466816163,4.785625495584075,2.1341924094722753,4.622176814430171,10.496521595024062,1.6774275484343852,-0.9034059745036616,-1.2173247618165755,-0.44638862228012366,-3.7992433078323917
54,-7.096062041316598,-3.0225107017754547,-7.79859674327192,-4.886413282683837,-1.444137734791703,3.1588601849784195,-2.6649215962060815,-1.825630948673944,7.637372600023069,2.089808424144249,-5.1205264291574855,-6.900518766259416,-7.836975683317907,-7.612906973430611
55,-4.859845517436761,-3.4979643478870304,-8.35990590673036,-3.7469701939258804,-1.443218463404034,1.2889722511033788,-6.359365429712692,-7.64563894786406,0.7842041311212163,-0.649625270302095,-6.09417326785134,-8.744973700076489,-9.717508894006357,-6.62120811618223
56,-0.06460032910177159,-2.549528283986081,-2.646048796669292,-0.217043628565739,0.09463730499914387,0.19300849009357843,-4.001984831009409,-6.987041616585422,-7.359213500822172,-5.406901938381822,-2.6365569424187307,-4.967057482400525,-3.5739830561557686,-1.2250359048939432
57,4.701630980238825,1.610495961615381,5.165844206391095,2.6724879807468067,0.5587066705773883,-1.446320235373978,3.003046366785578,-0.30613292380581825,-10.599324433855042,-5.756616508818301,2.925895355092326,2.596229462142735,5.498090248382365,4.591270923493119
58,7.237011495286811,6.690046142869063,9.202916041079508,3.5674488578103176,-0.6545228672257118,-4.41447537415285,7.222531037041936,5.438010271493624,-6.277985041726306,0.1904757792065399,6.334064367745436,9.32397646958221,10.05932335741764,7.41776756966196
59,6.4287430468915225,7.992462487898843,7.175059623589598,2.854333202909121,-1.337010749513105,-6.486049822032773,3.91190208465558,5.039668573344069,0.5608609715106166,5.83130156898419,5.381055114199246,10.255242932145537,7.0692982626394745,6.49601055022811
60,2.41163121777248,3.5992799596010503,1.4293235442297036,1.2803725448306305,0.12655610760381703,-4.367185478495068,-2.8824401319486563,0.7219536644202331,3.267315693179579,4.86158483737678,1.6191945280484408,4.274949151806048,-0.25967878021411983,2.6084669651634464
61,-2.989100724874294,-3.364298048025657,-3.9419559047026733,-0.3256285633287378,2.2327149979687153,1.8789105755594124,-5.34817682816019,-2.0029173678898378,1.7984805275133364,-0.4929104239288087,-2.017893129288327,-3.96784356123869,-5.841734609238083,-2.7047020881985535
62,-6.702280549854762,-7.678166638783621,-6.190341302007438,-1.3750079993556605,2.3155645748174676,7.704190937136107,-1.5554429863751986,-1.3066873913625958,1.443832806350086,-3.3276745857296097,-3.802105464644603,-8.192424277017542,-5.847414607271106,-6.699422300147204
63,-6.617003811952909,-6.661938458465126,-5.051209320385,-2.22387583662891,0.10929825851115674,8.347851727794577,2.9489127783138875,0.4875963837174594,4.468486624885641,-1.1801189818166191,-3.561198031401986,-6.677098731933056,-1.694426901078755,-6.641638356393562
64,-3.4611109135412024,-2.187278064741395,-2.2459027875391984,-3.3531143775709307,-2.0480416209266914,3.7048580798581274,2.827432727363203,1.1581870649783954,6.725189681144963,1.9391426384531445,-2.276948004321478,-2.8761181018378243,1.539704900037413,-2.7650909395829957
65,0.20344410359918477,1.5878759084983363,0.06552827700770375,-3.726578044870207,-2.270253270345263,-2.115745975231294,-0.9527410135837056,0.33007228532957233,3.381494981286119,1.3977675008624575,-1.2541099606765855,-0.21775967899054824,0.41905398936751054,1.3998263563409505
66,2.805595494382136,2.7777476331608764,1.2982862706697136,-1.4714438348192374,-0.9432746368807081,-5.579978789043888,-3.5653192487577643,-1.6762858849705264,-4.306859412068042,-2.48647771245776,-0.38943502617705533,1.5598265002132137,-2.6727773659852967,2.978962381088989
67,4.734781086431519,3.401090677841459,2.8381105697084803,3.282904308580525,0.5772270004927852,-6.291440334598315,-2.336029228064762,-3.6804824035886465,-9.741874681726273,-4.851599675928913,1.8021612354242533,4.236448613860581,-1.8928374563680794,2.9960152188998848
68,6.207033958630784,5.21422848039385,5.284993748406504,7.218972877330447,1.5531196955273627,-4.874077757833746,1.1883213860015673,-3.146883531376703,-8.190435053587326,-1.8405069267230096,5.032366758567993,6.9996415153238445,4.188125598154764,3.9519234783382453
69,5.430367979256514,5.4501323622514315,5.989592792893061,6.436723446921624,1.6513431346824026,-1.1808038940460388,3.70956955495,0.992586272334707,-1.7666822960068276,4.3548354641066425,5.913565944027578,6.396823497571835,8.954850828045132,4.935015073107772
70,0.7128248742770897,0.35592076910616166,1.9705438984346166,0.6733408185792109,0.6190847065034822,3.7487394447625926,3.345899867025918,5.429360967462769,3.6889607621803044,7.118971308397168,2.1706964546375525,0.8150222972585246,5.428309937582079,2.216579088601936
71,-5.781851107830726,-7.324996624681033,-4.694086439505525,-5.488892452242671,-0.9356907381413221,6.394487539653227,0.8251281031246482,5.5871722911234825,5.476305473325268,3.0122482258367262,-3.369838839948113,-6.216658208640279,-3.6958563578674393,-4.33950762830429
72,-8.851740906485533,-9.487238804218906,-7.932889522658115,-6.904949743291372,-1.5604449446846465,4.316068419527962,-1.764443902596884,1.5178413133099258,5.5575076188694785,-3.743274412200941,-5.851998875794504,-8.93439046089471,-8.856424546076694,-8.877841899680798
73,-5.997495460506434,-3.2542836617448048,-5.247508811411001,-3.47653418857747,-0.6764221516691372,-0.08446357048925733,-3.100477186156112,-2.4442213302219216,5.55826367824384,-6.139733515893761,-4.34430564741371,-5.530584546120267,-6.283435632607673,-6.330802058538733
74,-0.3689378197117161,4.213393469165091,-0.6218471941628126,0.2969158113549209,0.5461351448215094,-2.1700084958105017,-3.0448326986682543,-3.6843870289335703,3.5877425784173043,-2.5452891796705943,-1.7822111055138792,0.30632322505029674,-1.4704511411315073,0.7886157332843986
75,3.447927304642161,4.996616455607105,1.7453890844254787,1.5665121284060546,0.7653780587164898,-1.023888724009199,-1.4940983482791137,-3.377765195324492,-2.039657462107335,2.178585484058664,0.07560828727465818,4.112214010978091,0.9170807454701775,5.512821619274243
76,4.547633630638368,0.7903796555309277,2.6458001155081368,1.9887142679266805,0.1365034376493584,-0.06851915087892915,1.367245966491908,-2.584694712378245,-8.254022566888834,3.049101791657689,2.098567214228304,4.6651720384833,2.9185435206856245,4.670524159792615
77,4.646150988649363,-0.7354001353659981,4.179932225678925,3.215955657260179,-0.305482359977367,-1.571702204085382,3.600621039506782,-0.5246110976329852,-9.668163211343446,0.16389563473508878,4.2383057894396865,3.040101133305648,6.006589650718306,1.0774566654689262
78,3.9541786110405726,2.3569500746109897,4.791357857229052,3.3352298098350137,-0.18922313716395006,-3.335883036208833,2.7906512841074917,2.258701042290104,-5.134792071049352,-2.5296766455651025,4.220975697713805,0.607536359337074,5.847345770395,-1.1098632931467087
79,1.2674177829766569,4.130017070635478,2.033612747679346,0.685453228676549,0.09524798835998749,-2.198611011387109,-0.37406191008314804,3.082289870061797,1.116298428508523,-1.8222041863882388,1.1652725747145976,-0.9197405542074182,0.022694213161834564,-0.3623484893341056
80,-2.5840564949659384,0.5827035229641023,-2.2686086133322214,-2.098698165393109,0.2986391580568836,1.1469369168436319,-2.262902898021278,1.3429956145705255,5.181801988758528,1.807507496976057,-2.1546450516356943,-0.2832897799579109,-5.351212532541404,1.896761229131372
81,-4.657291969975685,-4.199415847230118,-3.968316523185091,-1.846158544904266,0.44221761731773085,2.967947960082084,-1.1560235572009463,0.17344099386218093,7.15881235938022,4.7248189218981524,-2.562143906912297,0.9985604306615915,-3.7856014632055635,2.513099885439475
82,-3.6935790693772517,-4.5211354144380484,-2.4527384989929932,-0.18699982838788037,0.3450012237897438,1.6033302749889493,0.600861773082929,1.6122406167361065,8.00487109638645,3.6337602657357455,-0.48845546506646964,-0.1544392861538153,1.3278026018535902,-0.7747683955752178
83,-1.5042128126307566,-1.3636471152323997,-0.8237337772591431,-0.7494696039115366,-0.2152986165188652,-0.27971220844765093,0.5888320722176779,2.9155842275525035,6.126148090134242,-0.7774656823679751,0.8180456778743571,-3.399890983340925,1.964431432200951,-5.835377393618934
84,-0.06220163504451649,0.1291618279515754,-0.9597726440309201,-2.866311897601854,-0.9784557974044675,0.5572161595767464,-0.340042026063093,0.47084117550098015,-0.130810422222608,-4.487272881634627,-0.7186659737444309,-4.494195859463124,-2.344198158911189,-6.943001251320674
85,0.6017763937429157,-1.0495221670275678,-1.5820058305074371,-2.7283335926718717,-1.3106965856808988,3.071583289622832,-0.49308758569491135,-4.454559097850862,-8.239057335450381,-4.908735003686378,-3.6622855263964937,-1.651423965072416,-4.930375844918364,-1.6224987827702044
86,1.1438786166469743,-0.8950725434267662,-0.867524249515425,0.3016411898034758,-0.7056982290120472,2.861257393701653,-0.27189231097894884,-6.858623216223377,-12.345323984143366,-3.0128762552847097,-4.298152783966469,1.510974985375654,-2.329908306756876,5.138040154364647
87,1.6279387106425118,2.620102740944349,1.4254454059270671,3.059365984600665,0.8761711832409028,-1.5934878516130333,-0.40570273780508453,-4.243954174791617,-8.636528512890564,-0.16276914188726757,-0.40799543401814087,1.964377662072679,2.620369486633509,6.615839626201011
88,2.0652317456375244,5.979473750034545,4.071804121893129,3.675281052548977,2.5531894937212534,-5.893131805171566,0.030621893943292264,0.7763328679863227,0.42835480099575973,3.415403812428331,5.5255084016548555,1.878797583634656,6.25622612581089,2.6840278805813313
89,2.525648737034182,4.814873777107095,5.06820791851935,3.074311369609646,2.474964471488872,-5.134461173378297,1.2392718122351212,4.167070317934097,7.357937830289626,5.5493236366120655,7.91079511527464,3.640629676776729,6.647446838482176,-1.054012078544284
90,2.2884158862531923,-0.34753766269950215,3.0259712199735005,1.7096505307668333,-0.3580530528622472,-0.6456755783082043,1.0868339880406344,4.7829209365357634,6.734605772493014,2.8641727666044687,4.1609986423014504,4.55234835935092,2.6653696560378064,-1.2147714399992824
91,0.38075787709148085,-4.733991189429766,-0.9999533540167224,-1.0204816930704808,-3.7431161011962093,2.111647221452003,-1.1021194437945092,4.244530425748361,1.9706387576908426,-2.383274871128176,-1.9844351133664193,1.2761726837865586,-3.8781958840725665,0.16544164486090843
92,-2.629203135515332,-4.874576561827061,-4.105852817243629,-3.8648987547979203,-3.6581916287236687,1.4682727742328923,-1.9733717049207815,3.6745948345578414,1.784322094415449,-2.598976765607118,-4.954635774187183,-3.765641986066398,-7.281103888020891,0.056630926536646226
93,-4.636084842636286,-2.0857379755194523,-4.675152024493196,-4.120333336174376,0.5549636846999545,1.090550565540924,0.84001102153308,1.933095827503766,7.483474719178727,3.2520148875767054,-3.8382099133117764,-5.5786695711360155,-4.390079066984295,-1.645913372944097
94,-4.242817932344558,-0.051344739584386526,-3.6827058771179253,-1.7288640579334724,4.22010668735657,3.269410033509473,3.7092997636313503,-2.391856453975496,8.524674404169513,5.091020813551303,-2.089855550060817,-3.8472699727969673,0.3778139490444318,-3.238923160970338
95,-2.046899588235742,-0.0010521763864704357,-2.396318981732918,0.2962798213470848,2.872147132834691,5.07998213684378,1.703102997639462,-7.769813599260846,-3.2967538656968314,-3.67488862940318,-1.8173604848510068,-2.0273371359087187,1.3343736069553063,-3.397729541627485
96,0.6131691890165214,0.1365034021508652,-0.380989387649428,0.4414884277133861,-1.5888090525515244,3.0239250625730274,-3.4103047611668122,-9.79128604018694,-18.976879625761566,-13.281069285818813,-1.4453831035681046,-0.9599376712970064,-0.2079954578602881,-1.5182825136809721
97,3.064494635095639,1.8973546687977383,3.061261519251796,0.6850431024032104,-3.3284417638768184,-1.8397913065760207,-5.012188347496797,-5.431104378483956,-20.616506050197255,-9.230273080394435,0.7043152206257394,1.490445933629216,0.6217184337711328,1.875239507977764
98,4.795922651077141,3.734457633904218,6.406804801276239,2.6398431126076547,-0.5863143353218401,-5.6993707074951505,-1.056053370013232,2.9932822165460697,-4.444482844337126,6.3674424455721645,3.3577690735610166,5.0988446355729815,3.53197674829457,4.606904127314947
99,4.688467620908504,3.3290211763433333,6.49638552666279,4.312805462697662,2.2607736870811865,-6.6320263441553875,3.306753237926212,9.209171665854145,13.48349190116103,15.754898256448168,4.236581938493404,6.346115651008977,3.9746598847504147,4.686062252384155
100,2.1076445612943364,0.7209374303126359,2.1549211409494466,2.7340214244209853,1.3026665769655417,-5.081575716844196,3.2936903793906214,9.007743973223674,17.348201813784932,8.689688259956561,3.289095375455728,3.4332178436464567,1.0258086152971535,2.651025748015425
101,-1.6356433335971114,-2.1770814147602064,-3.622225195547575,-1.5228389941763618,-1.579638928081164,-1.4556458523000761,0.38884774077296647,4.265708057577422,9.427012889097956,-4.657735341678308,2.1080247317395746,-1.147411012860535,-1.5516692586864078,0.2766480940430399
102,-4.1517691590080545,-3.7334663874899148,-6.277470131221983,-4.487215555101215,-2.024546521566099,3.6882799030103115,-1.1646449485976567,-0.08836514262434736,2.668490911680001,-8.253937082715023,0.8525477385799014,-3.915431971830541,-1.6333201004230697,-2.1349751811863786
103,-4.234346008775767,-3.1352935408142146,-4.445616138819014,-3.4436840669733884,0.49342389408280124,7.639925527046439,-0.4700420187071744,-2.299207156424236,1.5419975803486832,-0.8888065937376803,-2.0360764363093096,-4.00361839837572,-1.1714042495953767,-4.732044535847677
104,-2.483074144970543,-0.49126463681281574,-0.955502602227291,-0.0808554020654629,2.524660791462333,7.1627146349066955,0.2031240951846184,-4.505695336620976,-1.301873164205193,4.695354299003012,-6.335342500306978,-2.798109224002269,-1.9837227753422924,-5.638076622042464
105,-0.2279266881268488,2.2493108067557785,1.0085279173341821,1.6939825279217866,1.8467106201172392,2.906456590391876,-0.14848751946372374,-7.252848728383778,-10.346457452378143,0.3775814330949758,-8.279546815039227,-1.7385843199352808,-2.9558714711599308,-2.8187183309599098
106,1.2052771864097827,2.188415982346426,1.1613960428580306,0.37064524671655685,-0.23168670258879015,-0.9488291359763242,-0.22884959179820802,-7.084748974297409,-17.620445585097972,-7.606699887386591,-4.545738764030518,-1.1807984124646913,-2.2786828188142403,2.043705241273592
107,1.0895257111747556,-0.9658867848158578,0.9986677077297338,-1.742306944146551,-1.8396275255258838,-2.6974348292241856,0.40702876044395375,-1.8055909195620912,-12.446243161018767,-8.650344080859695,2.876597247133814,-0.3169819790522907,0.1703901586309538,4.693788919272079
108,0.46988413075117696,-3.370595009490024,1.3006926890433603,-1.5226192791633109,-2.7533211194303187,-4.996398436435857,0.15764615764797307,4.914065024860216,3.1853816845820395,-1.1123163868774266,8.296516536085056,2.036753658870563,3.2886147926145,3.514154167338905
109,1.5427066983828706,-1.0434963942386013,1.936625344658781,1.483448402538543,-2.64562869929759,-8.422054633649177,-1.631630014209415,7.513284562640931,15.317096386910457,7.72610135408391,8.373115729252447,5.399679583376296,5.447776475325193,1.0839491463494217
110,4.204906296786199,4.648092864164419,2.5695247875139784,4.638000017854383,-0.19032902564954665,-7.729044893499965,-2.750196158375692,5.3714904243538735,14.326225037985498,10.900621595068573,4.235998673037059,6.579985181416098,4.565038332318792,0.1549682875553104
111,4.757233762459756,7.301301024841669,2.301023089032149,4.705103311613298,3.941228463205481,0.5928894964431533,-0.9121675612727947,2.365228337229599,5.162422061289809,7.12560525790538,-1.3660864872265936,2.837930315889614,0.10019603664004471,0.36822774837666855
112,0.4687887782724059,2.722128995709235,0.05345956237908758,0.9961053617277454,5.6956012217945995,10.459268178223656,2.8680945479827704,0.7627203159230248,-0.980915138212183,-0.3923227303494986,-5.741250597277977,-3.5386674026818006,-4.515642143496398,-0.07811248916452043
113,-5.7559090522858645,-5.114235713448086,-3.5141435747596725,-3.63135514362606,2.303096831811637,12.194878469943085,5.189196150215786,-0.8442986957584948,-0.7414321049533391,-6.622090477811786,-6.044113392028467,-6.6576984747009975,-4.584260425328956,-1.412065703264092
114,-8.122538489775899,-8.075218415015119,-5.761811889398299,-5.5368208668288315,-3.1693465844688546,4.822102267028125,3.7051222519458444,-3.6912981835977448,-0.22903258988438446,-7.60838905385151,-1.809531767422641,-4.345407433303721,-0.5909252911042356,-2.542623368958031
115,-4.833456704946866,-4.019657237967452,-4.728045384552553,-4.121822392333027,-5.203154674117812,-3.625721012244504,-1.0686484690584932,-6.28701925350889,-4.944086086010647,-3.9711539059041585,2.203736548710309,-1.007572713342802,1.4443625300891094,-3.0710722514828115
116,0.5549372540971754,0.9040596358738956,-1.0014563472624323,-1.6245394909035293,-2.902333209958748,-7.006489731173172,-6.0126556138053155,-6.412024923879137,-12.350400326439331,-0.6613804487457096,0.5573676995889288,-0.885602048589937,-1.5627186894694152,-3.0416124656407995
117,4.393283189076026,1.6924359016399357,3.4223692726836847,0.6726748485208621,-0.18399857563638,-6.217580255563532,-6.919353612411993,-3.3571712271754515,-14.505538578558212,-0.7368054620391881,-4.317674151112331,-1.5764266344268294,-4.388289764710595,-1.3169022066470255
118,6.241955141957662,1.3081949708872949,6.653124347184297,3.435071852110819,0.6760635418029313,-3.91704921591569,-1.9378603198580326,2.0946471443788055,-6.027938344165097,-0.8683441986095035,-3.537351411224376,1.7856198274958588,-0.609329743197177,3.238572382095778
119,6.227832007825595,4.064937493664377,6.857283635856291,5.935332380818314,1.4994716757182245,-0.4816892005396565,5.2107215522326475,7.682253702484674,9.91016928659093,3.4834556043351195,5.33393613221202,7.721207787772003,7.202665710869006,8.279799916069452
120,2.8716920729629947,6.7514771420093975,2.726171020051133,5.101615610903599,3.4010135933239747,3.4527050944382576,7.666597592142187,9.688666173245263,22.132683134890634,9.489135222147675,12.283294648047738,8.797880870565233,9.559626742877693,8.145218426509768
121,-3.708773738754026,2.9454068925325645,-4.321243663556791,-0.010437029275925838,3.789921696569331,5.327968070119027,2.9762297027481166,5.7112934251545076,19.953948783088283,8.761369957692523,7.168282184359926,1.5709078999126902,2.3769954016456105,0.09113000785488085
122,-8.822394540084312,-5.724263128020678,-9.313513950660676,-5.324170682594775,0.6259022222130368,3.701189078070256,-3.6150389783172074,-1.8405183878148237,3.9321903759887578,-0.752917529101968,-5.77826652703979,-7.770300173935941,-7.27798506160744,-10.126743425525937
123,-7.1139439914523575,-9.65686989733061,-7.31865394718325,-5.910407999204565,-3.364667220084129,0.2741489113094848,-5.3752465376914405,-7.18818222195503,-13.048696285353376,-9.83853315649936,-12.470528021014772,-9.998299708486986,-9.526998190914494,-12.076462973567628
124,0.7367769709182074,-3.7526862422427767,1.0816282621973847,-1.7539016066305977,-3.930697686067141,-2.343066146391363,-1.7595317295704858,-7.014040844389649,-18.29768104603927,-9.018571560187786,-6.566441683330823,-3.302196859572585,-2.9191257207056087,-2.2173835920473315
125,7.7206997907961465,5.358953006308715,8.831360564769296,2.5861668563942155,-1.2203381371995075,-3.1004919329306224,2.2711530417319707,-3.3831296618504116,-11.894284034420343,-0.9656737826789263,3.693836823092746,4.939722070375421,4.865336102514288,10.07436103309576
126,7.444661670665703,7.244989032014579,8.577827707717697,3.1807441212291687,0.7082320625557619,-2.2971508495666875,2.732643024949247,-0.4287711977068369,-3.766843369319366,3.4651362892278885,6.636681997229323,6.389640943347536,6.0131610743882264,11.550853687701208
127,0.35549597062095006,0.2042038228805798,0.32175734691515856,0.2156811151198143,-0.0602384137078258,-0.5668931247192239,-0.0011700166948853813,0.38316696158656466,0.22716980493679215,0.16398194069733701,0.49667232028347325,0.40121286653824506,0.29707776293354526,0.4219706679937012
