,AF3,F7,F3,FC5,T7,P7,O1,O2,P8,T8,FC6,F4,F8,AF4
0,3.4007962107953196,4.347592055280201,1.1213312089033325,-1.7055542133503045,-4.323935228965216,-1.6937487376232345,-1.3024170261853003,7.6343725540122245,0.463514219143848,-1.6879511683269843,-1.9204633061597018,1.9748468455201873,-0.30218405287943095,-1.8753917121497043
1,3.6260459198346835,3.955062626244633,-0.566942810964193,-1.1866981870360873,-4.535783207226927,-3.078417433098797,-2.73507846428804,5.790490030990691,-1.1484574816419617,-2.563489732417182,-2.409456870199908,1.617993789109247,0.3847706777154253,-1.8725525248818256
2,3.85755403287176,3.5850336562050167,-2.177183617468672,-0.6930289797647707,-4.741456490925148,-4.446307515020262,-4.139486129551016,3.9936329620870903,-2.7488100380753773,-3.429497527062436,-2.8878880722331695,1.279962086447244,1.0538119430002626,-1.8776025324941517
3,4.097307369182766,3.2460361172276646,-3.6803017031977743,-0.23298333013930667,-4.92718518176367,-5.776372069583982,-5.483734586478785,2.274829902780553,-4.321991624787311,-4.270263654913475,-3.3509613393749844,0.9817259874499679,1.6956028191912254,-1.8939780100187182
4,4.3468137795950215,2.9454656799086427,-5.052188771588336,0.18619134188833608,-5.079794476044122,-7.048987825959059,-6.7381631685006615,0.6632601202885211,-5.8532631346379445,-5.071272465526895,-3.7949186550625753,0.7420049194803974,2.3009931843054066,-1.9251582525842375
5,4.606921083216717,2.689324071609511,-6.274637723458337,0.5586205070481638,-5.18713626877945,-8.246510335149628,-7.87629743599033,-0.8145266917349416,-7.3291970161007916,-5.8197678716585886,-4.217269982121153,0.5763886907259631,2.8610418621060303,-1.9746364678091783
6,4.877642970680006,2.481991170846264,-7.336068730553821,0.8799418429497805,-5.238485282833873,-9.353747844056597,-8.875674793691282,-2.135314253411493,-8.738099946773026,-6.505213197899471,-4.616953041713319,0.49661597304276295,3.36707789326687,-2.045888271070641
7,5.158005513754619,2.326043504686595,-8.232025227442168,1.1474002159381755,-5.2248828829483465,-10.358337639229786,-9.71852102843711,-3.279817437117093,-10.070332332960827,-7.119620709979234,-4.994407014980042,0.5100417773045124,3.8108108421381033,-2.142329986033928
8,5.445932161251631,2.2221366519030004,-8.965403811821108,1.3598999592962346,-5.13941306619861,-11.251012957145637,-10.392248350821115,-4.233148302866607,-11.318505461161427,-7.657733710893557,-5.351549116233676,0.6193219843121218,4.1844947678115805,-2.267257445400683
9,5.738185757990982,2.168967663253836,-9.546385105617606,1.5180153567950625,-4.97739912869024,-12.025753241556446,-10.88975207415171,-4.985132775521275,-12.47754847233749,-8.11705420286711,-5.691648724936936,0.8223338477364964,4.481144282235671,-2.4237572831761067
10,6.030382143324062,2.163328279304693,-9.992040969876687,1.6239577802814382,-4.736515392037957,-12.67981592389685,-11.209492898783628,-5.530470844152304,-13.544650929250803,-8.4977202963738,-6.019101309462888,1.1123395369801274,4.694794227464791,-2.6145865123177106
11,6.317081822190732,2.200250508833395,-10.325608541545929,1.6814950981602552,-4.416814175022001,-13.213653580956706,-11.355364164886971,-5.8687443071497105,-14.519100432907738,-8.802249677328648,-6.339113840321696,1.4783848196528857,4.820786810867917,-2.8420224959385387
12,6.591956102258122,2.273234961719346,-10.575442385551845,1.6958173640442238,-4.020672405092319,-13.630724888086046,-11.336355832117665,-6.004285151099627,-15.402044758804877,-9.035177058275714,-6.6573231638957475,1.9059085898817383,4.856062350180292,-3.1076933474345365
13,6.848014551060807,2.3745425093808983,-10.773679233944032,1.673343573347065,-3.5526648600011934,-13.93720980827822,-11.16603646048792,-5.9459223128362,-16.196210728116025,-9.202621708575343,-6.979376168550412,2.377524192452992,4.799424293672662,-3.4124059687506967
14,7.077873868305813,2.495523935878669,-10.954671338280919,1.6214675975502766,-3.019372712393354,-14.141638835104429,-10.861879961806158,-5.7066245180815605,-16.905607074243232,-9.311823668656602,-7.310503782560372,2.873922614611541,4.6517481024133644,-3.7559929976853312
15,7.274045502537152,2.6269609426485077,-11.153261519955697,1.5482465252602817,-2.429137299917989,-14.254444785463354,-10.444466391823344,-5.303053987520258,-17.535229359202578,-9.370684480963057,-7.655119964233195,3.3748412276627775,4.416107326134099,-4.1371997849772555
16,7.429220538071957,2.7593947135100554,-11.402984081524654,1.4620405513239514,-1.7917700977065654,-14.287446612414119,-9.93658745613364,-4.755042531440277,-18.09077620280228,-9.38734224197046,-8.016472581849058,3.8600400250868043,4.0977975638755275,-4.553628015413958
17,7.536534561756485,2.8834243518067537,-11.734280569735935,1.3711194753306235,-1.1182306748497033,-14.253279696474836,-9.362289205742211,-4.08499968634603,-18.578380564796298,-9.36980314839585,-8.396366004342017,4.310230530719319,3.7042486867439117,-5.001744372136786
18,7.589800899247719,2.9899654489486456,-12.172818948563435,1.2832561729911391,-0.42028444973578544,-14.16479501025684,-8.745887381714084,-3.3172630447595153,-19.004357844377818,-9.32564330368905,-8.794966428306607,4.70791022495724,3.244826667809852,-5.476952584907566
19,7.583705950349953,3.070466760816404,-12.738000818337609,1.205331291003585,0.2898490164858158,-14.03445746211366,-8.11099504425741,-2.477404115476578,-19.374972844052508,-9.26178601824715,-9.210692389929903,5.038065614183823,2.730536941000227,-5.97371806185868
20,7.513963546546344,3.1170883883222746,-13.441735255402282,1.1429748910801958,0.9998480170807735,-13.873778940495088,-7.479606504277372,-1.5915084392873748,-19.69622872757287,-9.18435211524967,-9.640186522128658,5.288717617558449,2.173649123833467,-6.485728859390709
21,7.377425650206438,3.122847039470991,-14.287549701651708,1.1002691766689072,1.6976328687673643,-13.69282285110208,-6.871284237893397,-0.6854548372184848,-19.97368222244789,-9.09857515683869,-10.078361488881272,5.451292118891067,1.587266661602434,-7.006076899306244
22,7.172145757149698,3.0817335547608407,-15.270096977891036,1.0795320943594007,2.371694392167755,-13.499813841683538,-6.3024941757390955,0.2157765557549448,-20.212290167008668,-9.008771006475245,-10.518512803235284,5.5208061965516,0.9848648138702665,-7.527448609148273
23,6.8973917422390825,2.9888064775927656,-16.375101423596615,1.0811957786275628,3.0113988385034487,-13.300878833137807,-5.786127907907449,1.088736495902468,-20.41629259336292,-8.918351184771646,-10.952492236620717,5.495868010838001,0.37981828676263096,-8.042320822924678
24,6.553608270918587,2.8402644296590154,-17.579765574449176,1.1037879556924575,3.6072618278348405,-13.099934076361071,-5.331237700803882,1.912051234596666,-20.58913640662418,-8.829870225765509,-11.370935884986995,5.378496968351083,-0.21506218744863304,-8.543161253355494
25,6.142334527110753,2.633499784814647,-18.8536325084537,1.1440192736319208,4.151185177346616,-12.898719494880245,-4.942993247566637,2.666858672474795,-20.73344144490517,-8.745097476173994,-11.76353993226571,5.173780640368046,-0.7879658727100135,-9.02263155890416
26,5.666088369262029,2.3671357499928294,-20.15987053298404,1.1969747675680307,4.63665263114819,-12.696968491219694,-4.622850668167351,3.3371242598876947,-20.851007674150203,-8.665103770766125,-12.119375275276852,4.889394778302875,-1.3284724245432582,-9.473787067552433
27,5.128230872886222,2.041047372396079,-21.456919217561296,1.256402512066378,5.058882812039662,-12.492690980934709,-4.36890784248951,3.9098339761554324,-20.94285882819496,-8.590353675439092,-12.427230280932326,4.5350212189600425,-1.827879348467915,-9.89026339320442
28,4.532825278600137,1.6563646602231585,-22.70041086034685,1.315086653319008,5.414939423909439,-12.282540921345632,-4.176408247659794,4.375069706180533,-21.009314602447862,-8.52079418145169,-12.675969335507205,4.121704622699533,-2.279451480870529,-10.266437705744375
29,3.8845030622672994,1.2154549352743684,-23.845260463883786,1.3652859768770536,5.703799472130148,-12.062236844620255,-4.038348879572932,4.725978713726114,-21.050081749642246,-8.45593059847917,-12.85489345828202,3.661192413876251,-2.6785807333882503,-10.597551409010617
30,3.1883482297446397,0.7218830097240498,-24.847802345755532,1.399213901897993,5.926380138042878,-11.82700394139184,-3.946145882028881,4.9586535075729685,-21.06435495708345,-8.394881005072017,-12.954088441585494,3.1653024339709597,-3.0228483601995606,-10.87978175664369
31,2.4498086843513414,0.18035083484682654,-25.667846142434804,1.409532229626679,6.085524214723162,-11.572008260992165,-3.8903128804252836,5.071941007673932,-21.050920619810903,-8.336403477721023,-12.964746431055085,2.645359089504089,-3.311986755142657,-11.11025291177219
32,1.6746400994145345,-0.4033792106234977,-26.270531580253763,1.38982969519385,6.185942818890547,-11.292757065722517,-3.861110456527226,5.067200419912497,-21.008258983512743,-8.278895413283125,-12.879448695452203,2.1117313966682736,-3.547742801784406,-11.286981833774417
33,0.8688833733918824,-1.0225727192988823,-26.627879207242753,1.335057245350367,6.234112425010797,-10.985443890696654,-3.849130067643515,4.9480275891251715,-20.934641791504898,-8.220370195129624,-12.692400253622676,1.5734961268074195,-3.7336496637414998,-11.40876048689508
34,0.03887194621614084,-1.6696203777483283,-26.71996011794291,1.2418943221408676,6.238121514233982,-10.647222270238478,-3.8457823199347745,4.7199599834042125,-20.828224134113928,-8.15842220768312,-12.399611107548619,1.038236859316841,-3.874719061579187,-11.474983112117238
35,-0.8087394130723017,-2.336143801458354,-26.535637495431395,1.109023927395648,6.207461587696403,-10.276398380102208,-3.843668224524529,4.390171890864723,-20.687131104277654,-8.09019609173764,-11.999023806682086,0.5119762193231715,-3.9770717748024254,-11.485435398263371
36,-1.6669362741271794,-3.013112639685258,-26.0728623567047,0.937299161585283,6.152759443347738,-9.872539515618445,-3.8368219798593284,3.967165931072843,-20.509540963707874,-8.01237847144979,-11.49059131103777,-0.0007735701106112299,-4.047529159449565,-11.4400693465668
37,-2.528310071299381,-3.6909765877520178,-25.338532109966472,0.729790425831875,6.0854526182349575,-9.436501216592468,-3.820823111714226,3.460466159898695,-20.293765396143876,-7.921228267171539,-10.876311013342331,-0.4968649225888935,-4.093191390801468,-11.33879072796241
38,-3.3850403845919983,-4.359815728094002,-24.347942571442108,0.4917099243438821,6.017416239594124,-8.970379823077971,-3.7927835234946015,2.880319409160644,-20.038324532881056,-7.812655263192516,-10.160220548377717,-0.9743009990773519,-4.12102853290171,-11.1812844393962
39,-4.228905254419702,-5.00951187313492,-23.12388255623893,0.23021749794290722,5.960555278383638,-8.477399048666635,-3.751221631857706,2.237413249134386,-19.742011732124904,-7.682347966781386,-9.348359769351818,-1.431981916378587,-4.137508536634626,-10.966898052766716
40,-5.051328536931103,-5.629942331768275,-21.695435046162757,-0.045881431550597075,5.926380221198124,-7.961739537130834,-3.695841821552504,1.542619756926262,-19.40394189780595,-7.525943048812892,-8.448701001666514,-1.8694383000589276,-4.1482816043352155,-10.69459669049767
41,-5.84346993918299,-6.211194974712752,-20.096559069170148,-0.32652892112019205,5.925586270702805,-7.428320415279881,-3.627242569414951,0.8067735245771713,-19.023577710281252,-7.339221197779268,-7.471045854643494,-2.286575979278726,-4.157933106086135,-10.362993659180376
42,-6.596358501164163,-6.743799387666215,-18.364530945998464,-0.6008762336339196,5.967656662828044,-6.882542507224669,-3.546580213557111,0.04048939548301711,-18.60073100416523,-7.118309808557113,-6.426882726107508,-2.683450074134948,-4.1698090638164125,-9.97045251143555
43,-7.3010644885880795,-7.21896456447152,-16.538323050176082,-0.8577875946144417,6.060509836025514,-6.330004872190232,-3.4552176323435497,-0.7459799855110707,-18.13554220595321,-6.859873257060146,-5.3291976699289405,-3.060080939274657,-4.185911775827875,-9.515249895671488
44,-7.9488991315671855,-7.6288108557823575,-14.656993820271673,-1.0863569277876035,6.210207863252113,-5.776209691150975,-3.3543880854488908,-1.542853029589424,-17.6284477499656,-6.561276084954289,-4.192234107404063,-3.416319694748408,-4.206859799492904,-8.995785629353875
45,-8.531627461796514,-7.966583501502189,-12.758155057686167,-1.2764085801415166,6.420739401159532,-5.226273868120075,-3.2449030811794075,-2.340904807838105,-17.080149745515424,-6.220710175456316,-3.0312022117128086,-3.7517665462611536,-4.231905437704388,-8.410824966909347
46,-9.041677584397352,-8.226836596674536,-10.876572255951814,-1.4189559401493685,6.69388447288359,-4.684667007873039,-3.1269282137040575,-3.1315394897659408,-16.491600474586143,-5.837281045020847,-1.8619437447388922,-4.065739565954118,-4.259002803713561,-7.759756006168478
47,-9.472330767187943,-8.40557916254057,-9.042942540681272,-1.506597320788845,7.02916145804788,-4.154993744666388,-2.999842804897913,-3.9068556154186656,-15.86400712508598,-5.411050516615031,-0.700561453489128,-4.357285906643032,-4.284920251844139,-7.042843327672348
48,-9.81788053078846,-8.50037864774817,-7.282884657223071,-1.5338351540948352,7.423850090223199,-3.6398342957600307,-2.8621895007864966,-4.659704844171251,-15.198853740928934,-4.94303510351985,0.4369756368487355,-4.625223625873064,-4.305392588193628,-6.26145946029845
49,-10.073754268652765,-8.510421028288832,-5.616167250707624,-1.497310574045158,7.8730795846202275,-3.140651756784616,-2.7117104660607865,-5.383741026758988,-14.49793227309715,-4.435162779178383,1.5352376898633198,-4.868201377140874,-4.315310381109443,-5.418279205053387
50,-10.236596479959513,-8.436529958186838,-4.0561953101327575,-1.3959499043447878,8.369969153899916,-2.657769132624032,-2.5454589983377938,-6.073455942644363,-13.763374808466427,-3.890195153412092,2.579734497719203,-5.084764763573475,-4.308944888511126,-4.517426913581775
51,-10.304317575121509,-8.281149586357179,-2.6097692404033093,-1.2310226897748378,8.905808940569518,-2.190414325358897,-2.3599704383495914,-6.724200752540677,-12.997683057082877,-3.311626038270489,3.5572922312657944,-5.273421333424221,-4.280207102612985,-3.564571906902988
52,-10.276115858087882,-8.048296449887873,-1.2771252566453006,-1.0061132768619414,9.47027190041268,-1.736827813259031,-2.151474700890554,-7.332196334618388,-12.203755330972466,-2.7035694609789633,4.4563858875955304,-5.432700040833416,-4.222938097581629,-2.566971126532438
53,-10.152482352528986,-7.743485358118633,-0.05225858489124838,-0.7270097675876931,10.051650425527862,-1.2944254571081515,-1.9161341393092284,-7.894538783311422,-11.384912225247826,-2.070649495573747,5.267407880846169,-5.561204445456014,-4.131225225815162,-1.5334599247953717
54,-9.935198441471169,-7.373632748348382,1.0764778264167967,-0.4015154601102636,10.63711464889136,-0.8600072506728677,-1.6502934989068097,-8.4092068305375,-10.544919216708823,-1.4179009962545193,5.982858239202316,-5.657661530094502,-3.9997348540213453,-0.47439144445342923
55,-9.627334635593812,-6.94693908007741,2.1255162931245906,-0.03918881235168234,11.212991732314087,-0.4300014586608664,-1.3507318656531682,-8.875075696614244,-9.687999416563121,-0.7506853762129322,6.597449778452663,-5.720969913174249,-3.8240476790254685,0.5984767808214306
56,-9.233255002502469,-6.472749814963395,3.114987259363894,0.3489811063515227,11.76506651905716,-0.0007323063680605398,-1.0149085846827637,-9.29193796738161,-8.81882581986085,-0.074620155847555,7.10813022105324,-5.75025235994502,-3.6009779380760047,1.6721521313062653
57,-8.758626250911828,-5.961392677123462,4.067442550282593,0.7509552968218869,12.27890352199297,0.43130175827084755,-0.6411956176505109,-9.660527963135467,-7.94248184903398,0.6044836867701575,7.514030394348233,-5.7449174394508935,-3.3288542241639827,2.732635724559103
58,-8.210424463942017,-5.423987573602049,5.006443027048351,1.1540710421045144,12.7401884662339,0.8691529618057476,-0.22908807666924874,-9.982543048637378,-7.0643827310308485,1.280685082843216,7.816351973617948,-5.704733609995116,-3.00773873040245,3.7652128174518418
59,-7.596927777596252,-4.872225373021314,5.955078042109567,1.545500059123505,13.135084905236106,1.3151659307392087,0.22061631354787134,-10.260654340350333,-6.19015783643112,1.9479848351144422,8.018209541803278,-5.629915837202783,-2.639564436774774,4.754803215165063
60,-6.927681149189736,-4.31811323436087,6.9344950953819,1.9127216724364475,13.450598188160201,1.770748843296965,0.7056784626922339,-10.498500061892715,-5.325503153297681,2.6004107428667447,8.124441016872252,-5.521220344388027,-2.2281752239332966,5.686365279705993
61,-6.21341999860546,-3.7736873989954653,7.962523881841956,2.243991063530692,13.674935693459362,2.2361847901349106,1.2223291371787843,-10.700655868627413,-4.476019755598109,3.23211650450059,8.141398835822335,-5.380038401497178,-1.7792609153939234,6.545342124022253
62,-5.465942613513424,-3.25069883348279,9.052476840671968,2.528780513678757,13.797849219648157,2.7104919215871557,1.7652384435965975,-10.872576530400877,-3.6470558149821426,3.8374919634052604,8.076731761607329,-5.208476833104076,-1.3001875985399083,7.3181337914310856
63,-4.697926423717483,-2.760282189481717,10.212197209707403,2.7581706966904687,13.810943161929908,3.19133852027668,2.327550052074999,-11.020502945372495,-2.843566838929754,4.411279914727837,7.939163391468574,-5.009412155504934,-0.7997330481379876,7.992574947647128
64,-3.9226899185725417,-2.3126234899314912,11.44340694692505,2.9251698686196628,13.707931283511535,3.675016834442715,2.9009836440586225,-11.151329138843137,-2.0700036897519185,4.948692329635288,7.738268969312057,-4.786506708344961,-0.28774598147628916,8.558394800658386
65,-3.153908682830116,-1.9166455359020218,12.741384486933923,3.0249419826431914,13.484826655344154,4.156478158945858,3.4760052636053795,-11.272426337679324,-1.330232227075823,5.445517028098433,7.484248636670688,-4.5441779804126305,0.2252460016801493,9.007635488303588
66,-2.4052988715682067,-1.5797305908736181,14.094980297919724,3.0549310228921067,13.140054322746721,4.629431574120956,4.042061709605618,-11.391424900645063,-0.627482838259404,5.898206100707994,7.1876940211423275,-4.287515807148511,0.7284526489435391,9.33500678729694
67,-1.6902832015459492,-1.3074965128832667,15.486959176546568,3.0148777324202576,12.674483382586134,5.086508768360219,4.5878723442921725,-11.515959522698894,0.03567616118731725,6.303940376368084,6.859345815023166,-4.022145888628941,1.211235679370993,9.53815781156356
68,-1.0216535223387777,-1.1036362173320904,16.894642852922082,2.9067343787916755,12.091382122972407,5.519495659712501,5.10176908222465,-11.65338868873485,0.6573486333575379,6.660668524549148,6.5098420160931605,-3.754042141577769,1.6635002047770677,9.61785006051722
69,-0.41124176429277454,-0.9698237005367387,18.29081450535902,2.734490729241413,11.396304858115174,5.919627455160217,5.572072225444898,-11.81050472471795,1.2363097830008567,6.96712264174385,6.149459649692026,-3.4892947643484686,2.0760468877115232,9.578020998236182
70,0.13039107238051775,-0.905684974039503,19.644837682450493,2.503928498024831,10.596921541846365,6.277938188474537,5.987486649401386,-11.993253777820511,1.7719967293578025,7.2228132477053775,5.7878568228918,-3.233845151714428,2.4408740386226313,9.425733102494581
71,0.594239837788115,-0.9088296851202131,20.923935273515493,2.2223224308567335,9.702801616667019,6.585649933400398,6.337500648825541,-12.206484029724392,2.2644905209804347,7.428006225672506,5.433825681028766,-2.9932021983899566,2.751422998702793,9.171009192055843
72,0.9731073964153205,-0.974938154838147,22.09456929564721,1.898105445100263,8.725162869482324,6.8345820978367655,6.61276940388447,-12.453735387538858,2.714489536969063,7.583684154905564,5.095069141348374,-2.772156420431169,3.002763630566798,8.826560360855831
73,1.2618187453722371,-1.0978978262028045,23.12385986246673,1.5405144120206602,7.676595350639966,7.017558848409296,6.805467071787469,-12.737076228391096,3.123276478931974,7.691496082328642,4.778015370642425,-2.5745084825527833,3.191720471390726,8.407418242862722
74,1.4573928812332377,-1.2699819150654033,23.980982065246863,1.1592326842897611,6.57076993553446,7.12879327651817,6.909595476003461,-13.056985261071308,3.4926842151945796,7.753702371853162,4.487684113390063,-2.4028278181828133,3.31694377527995,7.930488068175577
75,1.5591681097483585,-1.482061915315365,24.638481599006823,0.7640446476227422,5.422140268753286,7.1642290191874825,6.921241113499893,-13.412272624250155,3.8250662038416055,7.773121818392701,4.227616699819604,-2.258256641279188,3.378931218104524,7.4140408744663215
76,1.5688743918494799,-1.7238459634654197,25.07345244864027,0.3645156389965632,4.245645046716061,7.121821701073071,6.838773374873209,-13.800035706766813,4.1232724346737575,7.7530841159879325,3.999875103027068,-2.140375633519039,3.3800036821482333,6.877160672709898
77,1.490642917447281,-1.9841374556895093,25.268523230083506,-0.0302924822534137,3.056415135804221,7.00174343504991,6.662975371907589,-14.215650069822349,4.390623330847119,7.697383136188435,3.8051058619500644,-2.0471483612651085,3.32423326680417,6.339157196980723
78,1.330941013843485,-2.2511113708666497,25.21260496164905,-0.4120632679760997,1.8694880153855875,6.80649516252607,6.397096894428845,-14.652800226537112,4.630867056762351,7.6102195995528366,3.642656026991349,-1.9749590888270734,3.21731702481127,5.818951722983185
79,1.0984224447756599,-2.512607490186952,24.90136371962966,-0.7734211439791097,0.6995317166005379,6.540915148000232,6.046819274562062,-15.103555735429888,4.848104502712319,7.4961194165528795,3.5107239431008908,-1.9187516960195061,3.0663892625227924,5.3344456010657
80,0.8036895737922822,-2.7564393266568623,24.33739643931466,-1.1080781539353688,-0.43941792930718265,6.212077470466229,5.620125310409871,-15.558494739439306,5.046671108202533,7.359817092003447,3.406527998270007,-1.8722671919616567,2.879769370619136,4.901887795907543
81,0.45897243986021385,-2.9707158488462304,23.530104988694465,-1.4109305991799073,-1.5342005146854099,5.829081053577364,5.127073324557354,-16.006871810413635,5.230972979795294,7.206100403174469,3.326479541283018,-1.828366798540589,2.6666491779690706,4.535265149810065
82,0.07773742573465026,-3.1441711617400583,22.495280066218076,-1.6781049557654084,-2.572747107419256,5.402736840899118,4.579481597643363,-16.43682249075887,5.405283558557366,7.039620457277295,3.266350261480899,-1.7794194656534268,2.4367309573638147,4.245744063053062
83,-0.3257565278569254,-3.2664954252075886,21.25442097593728,-1.9069535165547968,-3.5442617378633203,4.945167705411779,3.9905366275126433,-16.8355949251884,5.573514544623778,6.864678331565558,3.221428909692715,-1.7177277937962594,2.199832849222231,4.04119410468574
84,-0.7369327681973277,-3.3286578971311265,19.833829746900314,-2.096001455801089,-4.439362284150046,4.469342145089252,3.374344941709471,-17.189799635648455,5.738979909058272,6.68500508518249,3.186667121802264,-1.6359637617872562,1.965482576579812,3.925823526294972
85,-1.141379327212257,-3.3232103354934077,18.263528262597156,-2.2448485511377334,-5.250176752371361,3.988567607814123,2.745452223245841,-17.48567127744731,5.904173871790491,6.503555361187701,3.1568181462616653,-1.5275848590826957,1.742522984803035,3.899953879171218
86,-1.5253150804614275,-3.2445574836468007,16.576054283467865,-2.354031107692465,-5.970394054661034,3.5159708580149376,2.1183541248042066,-17.709340055315078,6.070582253155519,6.322334998796225,3.1265739398166095,-1.3872029343551076,1.5387534321512881,3.959955249243496
87,-1.876017703362457,-3.0891816845186035,14.805196184647775,-2.4248527131400706,-6.59527254915446,3.063990941436422,1.507020918395073,-17.84711340730137,6.238542508040466,6.142279930399264,3.0907051880172722,-1.2108825679655255,1.3606287797394923,4.098355150786476
88,-2.1821946634240312,-2.85580995626983,12.984727757890736,-2.4591954714849993,-7.121613465916897,2.6439069538558466,0.9244553395476107,-17.885768614101178,6.40716340202576,5.963198733280604,3.0442066917847463,-0.9963518789714334,1.2130330430730933,4.304124163426134
89,-2.4342824579635693,-2.5455133389710323,11.147204421521376,-2.459325441608734,-7.547708357497787,2.265420196466395,0.38230131053345295,-17.812854027550255,6.574312621393042,5.78378630802121,2.9824485724779035,-0.7431151755692527,1.0991385761681698,4.563131116838195
90,-2.6246641282288516,-2.161730282757699,9.322880344041192,-2.427706787869429,-7.873269498851767,1.936308725966395,-0.10947973313761782,-17.616992694871303,6.73667932078378,5.6017117417371,2.901332152637876,-0.4524636682347664,1.02035492719707,4.858750408117605
91,-2.747800745401053,-1.7102086455046392,7.538800908333658,-2.366838449502697,-8.099350304025618,1.6621703998196948,-0.5428500532805413,-17.288179963176514,6.8899166102104505,5.413778919016532,2.797447548003154,-0.12738801704040914,0.9763650241663477,5.172594079765217
92,-2.8002786013137357,-1.198864364651462,5.818114953947017,-2.2791248174010845,-8.228260240070293,1.4462670053287414,-0.9118436787600331,-16.818067726776455,7.028864070346608,5.216152930234925,2.668226961874269,0.22759525735357194,0.9652403484780542,5.485331879417562
93,-2.7807796748803564,-0.6375588933811984,4.17963579071612,-2.166788286549675,-8.263476414077315,1.2894768537474965,-1.2126173740708244,-16.200231899149976,7.147841785953953,5.004638233533606,2.5120830811433708,0.6066834833125063,0.9836212949387564,5.777554010286388
94,-2.6899878361684677,-0.0378018029710701,2.6376608905515564,-2.0318273516957097,-8.209552629083174,1.1903571339268444,-1.4434084027897254,-15.430424203873446,7.240996869736818,4.7749870430840025,2.3285173983115026,1.0030679033323908,1.0269449244984148,6.03062484050275
95,-2.5304460673638585,0.5876109642993855,1.2020409160317782,-1.876019760299216,-8.072026147612085,1.145311279934242,-1.6044098984814152,-14.50681165570074,7.302674965369143,4.523211658982859,2.1181816190469647,1.4092269069732342,1.089701192318084,6.227474094564097
96,-2.3063797386561125,1.2250093257928758,-0.12152770976337379,-1.7009664715209702,-7.85732222889949,1.1488510402845051,-1.6975795069711868,-13.430205420565832,7.3277862340380935,4.245875001632692,1.8828784885578305,1.8172089190988543,1.1657008538843372,6.353277696678685
97,-2.023497577762253,1.8602956314353718,-1.33102473961644,-1.5081688942753113,-7.572656254888335,1.1939377942673015,-1.7263997922449148,-12.204275224163116,7.312138256570569,3.940339255223501,1.6254959809961587,2.218889244267553,1.248342805916193,6.395993737552973
98,-1.6887765191917228,2.4794087303998698,-2.4274882425657913,-1.2991290380603093,-7.225932369010386,1.2723829458320612,-1.695609916621493,-10.83573768341327,7.252714851403921,3.6049609206317617,1.3498787141594497,2.6061951864803508,1.330874507848517,6.3467369201050445
99,-1.310231374703616,3.068789330780172,-3.4143062158793973,-1.07546001021047,-6.825636000692471,1.3752831939830281,-1.6109275410870467,-9.334499350411404,7.147887074582852,3.2392288827598343,1.0606496965621899,2.971303373429084,1.4066447965967341,6.199992382928599
100,-0.8966678846834418,3.615830967042078,-4.296468131952963,-0.8389934736043593,-6.380716638049971,1.4934634799947686,-1.4787783848857075,-7.713730702113437,6.997548203280924,2.8438476008736235,0.7630008330844681,3.3068191288487365,1.4693513740578104,5.953682571703631
101,-0.4574195408225757,4.109299724949049,-5.079827372366167,-0.5918718840044518,-5.900458123803945,1.6178991558940354,-1.306048855059736,-5.989847491403089,6.803167288790608,2.42076875681489,0.46247015599867586,3.60594761882536,1.5132835375146785,5.609106738910212
102,-0.002073535827886019,4.539703295250473,-5.770425010410267,-0.3366162493241294,-5.394336531269057,1.7400906311912188,-1.0998741031059005,-4.182380144502788,6.567757263031697,1.9731729093960795,0.1647190151771207,3.8626612472667308,1.5335550665405278,5.170772690379
103,0.45980326034599195,4.899587963973594,-6.373921830792703,-0.07616371485150271,-4.871868912196768,1.8523691990029947,-0.8674691722581179,-2.3137180319959145,6.295756305331866,1.5054010068881067,-0.12468265117275995,4.071861038418353,1.5263158738673435,4.646137645916806
104,0.9189235331755602,5.183742827943286,-6.895176947652368,0.18612750674528597,-4.342458378679415,1.9481212414396696,-0.6160048810605186,-0.40872182028362225,5.992826497704729,1.0228360635429878,-0.40045758894017436,4.229524740529983,1.4889273394440425,4.045272470503118
105,1.3665083337268946,5.389294808988127,-7.3379977118194235,0.4465059159566192,-3.81524133706359,2.0219278187990324,-0.3525237420519958,1.5057963161453711,5.665580683945927,0.5317378252600665,-0.6578041257599682,4.332832042014387,1.420086400654511,3.380462239216047
106,1.7944724332614923,5.515685849376405,-7.7050681541748265,0.7008855954997076,-3.2989415351488187,2.069625695912722,-0.08388570957680667,3.4017170745352665,5.321255219764133,0.039036847624547504,-0.892555335953663,4.38025720386132,1.3198868865531135,2.6657557197605195
107,2.195558656243193,5.564533899732293,-7.998044368905203,0.9449333238781762,-2.8017338947510715,2.0883021959574073,0.18326972443801073,5.250365297969352,4.967351633741995,-0.447901925521243,-1.1013088397778168,4.371621108687016,1.1898120033609971,1.9164761412673037
108,2.563420443162325,5.539390126623689,-8.217788081419181,1.1741801397705764,-2.331119500156743,2.0762389446192078,0.4425585217113166,7.023337654146045,4.6112728327208,-0.9215333766050491,-1.28152205770392,4.308097606808411,1.0326579708406336,1.1487056083427531
109,2.8926584348320064,5.445414487333067,-8.364697311798418,1.3841529426708004,-1.8938115731506961,2.0328194467005445,0.6878945685464779,8.693363051929742,4.259978634525881,-1.3743907466093332,-1.4315691066868912,4.192172083709349,0.8523943875570869,0.3787566071966123
110,3.1788217980790368,5.288999206461575,-8.439087486325944,1.570521321576747,-1.4956311270781375,1.9584143178698756,0.9135457617210289,10.235143349001952,3.9196818691910678,-1.7993359632099502,-1.55075756906915,4.027552488626689,0.6539711414841133,-0.3773534093174217
111,3.4183872566801674,5.077373595693487,-8.441577407720159,1.7292542117947838,-1.1414111917421959,1.8542567692710117,1.114206212295067,11.626121815981248,3.595601789618438,-2.1897911768167613,-1.6393056243917745,3.819034726265234,0.44308425062005835,-1.104405693445153
112,3.6087281123006423,4.818223310824831,-8.37344027625368,1.8567800095105154,-0.8349102414555121,1.7223192012850326,1.2850847964708476,12.847135851599829,3.2917871718777505,-2.539943161358249,-1.6982820474086202,3.572326350453321,0.2259140475564843,-1.7884425016158125
113,3.748083094010514,4.519352814096379,-8.236888212110316,1.9501428125251647,-0.5787377186506709,1.5651989522745013,1.4220090756376658,13.882925031437486,3.0110172366383106,-2.8449142830123986,-1.7295129750817975,3.2938357608533924,0.008849115696856487,-2.4171695339478507
114,3.8355323113195787,4.188412641977922,-8.03526797319241,2.0071469210407584,-0.37429625563130864,1.3860175382044968,1.521542745084525,14.722480869628644,2.754784010098249,-3.100895136229723,-1.7354600460390628,2.990438223067156,-0.20179086876160168,-2.9802822408111562
115,3.8709854124701657,3.832704284584646,-7.773155149631259,2.026481660649568,-0.22174594587082805,1.1883337322866878,1.5811133523162244,15.359236994283814,2.523354685539679,-3.3052347543717335,-1.7190749814588326,2.6692335778239746,-0.4000201543898991,-3.469702288655966
116,3.8551843973003694,3.4590660182283144,-7.456343750014155,2.007818936322841,-0.11999568903200108,0.9760671025638088,1.5991441726888853,15.791106258105904,2.315906502017966,-3.4564856324729916,-1.683636886176261,2.3373119474167914,-0.5804266677795489,-3.879714070806417
117,3.7897196162680933,3.0738337450511257,-7.091737317663685,1.9518767630587803,-0.06672543132525545,0.7534256118548499,1.5751797031101666,16.020375321643595,2.130719513314366,-3.554403994443791,-1.6325811441815083,2.001542346031485,-0.7383751725194811,-4.206997077370673
118,3.677052824181178,2.6828627028478786,-6.687155645441997,1.8604432700367781,-0.058441830458114914,0.5248293588203297,1.5099895715066807,16.053469570885532,1.9654060047716522,-3.5999103789718383,-1.5693318122336355,1.6683952890398956,-0.8701665523682516,-4.450558198763033
119,3.5205371207113596,2.29158984698117,-6.251076813321596,1.7363571126301034,-0.09056919482693222,0.2948234842092978,1.4056331673132754,15.900603824410501,1.8171524092900595,-3.5950191929846977,-1.4971505761363235,1.3438055031485858,-0.9731506102986945,-4.611576391810042
120,3.3244211586046712,1.905113714136109,-5.792337370241489,1.5834418841376365,-0.15757713251352412,0.06797695124775595,1.2654688243851653,15.575337726252789,1.6829523594307423,-3.5427462576764728,-1.4190132159930038,1.0330757800576693,-1.045792773912431,-4.693177877776139
121,3.093824324004321,1.5282690679278381,-5.319814637465184,1.4063943372669907,-0.253145099972892,-0.1512309082206235,1.0940968205909565,15.094058142095733,1.5598165632503667,-3.447000841660057,-1.3375200782240058,0.7408183729229407,-1.0876958747455872,-4.700162422802156
122,2.8346708154122444,1.1656773034681132,-4.842114988411329,1.210629126831193,-0.3703614776783689,-0.35852972660341903,0.897232883859445,14.475412744128255,1.4449527104675588,-3.3124650744428275,-1.254842318966454,0.4709263313255552,-1.099577961283876,-4.638701294805378
123,2.5535741191461447,0.8217597378156608,-4.367290433884445,1.0020860070809112,-0.5019516858028082,-0.549975036342999,0.6815160340864256,13.739718183878596,1.3359132278779073,-3.1444605707867797,-1.1727018973709868,0.22656451305513722,-1.0832070665807787,-4.516025963853967
124,2.2576693836394464,0.5007085589608025,-3.90260230053866,0.7870084628228342,-0.6405272904349822,-0.7220556831162406,0.45426008250572686,12.908363093222807,1.2307092840799,-2.948800487821878,-1.0923806313509357,0.01016987208937064,-1.0412942244918473,-4.340123455644148
125,1.954398472242005,0.206417833576227,-3.454345195047121,0.571705239938553,-0.7788463038407728,-0.8717877853670006,0.22316173453793964,12.003222197710544,1.1278874656831341,-2.7316254317000834,-1.0147519217861343,-0.17654654796702365,-0.9773468858434783,-4.119449721601935
126,1.6512589084200935,-0.05761725750126644,-3.027737752246462,0.3623077019396697,-0.9100735302518347,-0.9967943511195042,-0.004019561375020601,11.046094719796768,1.026564216931976,-2.499223425054263,-0.9403279486693794,-0.3325989076685945,-0.8954866396490275,-3.862667603196598
127,1.3555318730763344,-0.28842188301711735,-2.6268801209807378,0.1645358726648864,-1.0280288216172213,-1.0953706352850332,-0.21979355478245086,10.058178666720417,0.9264151319709601,-2.2578372073037203,-0.8693154884104456,-0.45772585224741097,-0.8002381471077642,-3.5784123621262243
