,AF3,F7,F3,FC5,T7,P7,O1,O2,P8,T8,FC6,F4,F8,AF4
0,-1.2228311370625238,-2.34610167795241,-5.171524059870704,-3.3301583590742436,-5.955796422567458,-0.3292500086467072,-1.788156740704617,1.9949154481678768,1.5483619074586294,-0.5671795887073902,3.5270279344311635,-3.8854630423713674,1.5846033288666834,2.622536578797412
1,-0.7750906545660964,-1.6729292275971321,-5.998741429208669,-2.9520115334470174,-5.211264915995132,0.30537677659960644,-2.13142052118821,1.6863964311311523,0.7973021801748871,-0.07520218495247838,4.2603447194875095,-3.2872089203774473,1.2364202231487085,2.4632677987081446
2,-0.3762400640678432,-1.0259198666018081,-6.839469113827034,-2.5925041522425945,-4.481173201578449,0.9230673123600409,-2.468011055758417,1.3809055567997823,0.037074669284438706,0.39851721307227195,4.983009976667587,-2.7219215773669765,0.8827032871635203,2.3116337456269376
3,-0.023006202203163295,-0.41003010313355237,-7.6757252698360094,-2.2528852297282054,-3.762878359964184,1.520524609689726,-2.7815388172070663,1.089847927527336,-0.7235646166239706,0.8534430742107609,5.682607320394496,-2.203209388401461,0.5299437594268424,2.174125199286845
4,0.2888845760155011,0.17107721560090386,-8.490067425880985,-1.9339144502440022,-3.05339911634579,2.094663720316254,-3.0568095872438765,0.8241034602672257,-1.4760048259913938,1.2893692671597317,6.347451598696013,-1.7435491852581408,0.18428210825563612,2.056463599051443
5,0.5643671577393555,0.7150430523495563,-9.266266914129591,-1.6359196557502442,-2.3495586424345385,2.6424838383749067,-3.280532194647015,0.5936920259259351,-2.2119938066217695,1.7063972188228778,6.966913080962426,-1.3540476027438986,-0.14865277617867254,1.963428303933788
6,0.8087527000058796,1.2208213733793232,-9.98986671564208,-1.3588491723548481,-1.6481178136346388,3.1609836912109595,-3.4419068558142976,0.40746487393920994,-2.9238143618965102,2.104907452107141,7.531695329219809,-1.0441950038176488,-0.4638552549127023,1.898744392139124
7,1.027514411238727,1.6886890326929154,-10.648597655162531,-1.1023162311517667,-0.9458956729130781,3.6471298739704516,-3.533066668959463,0.2728307705837086,-3.604419047256578,2.4855233777951202,8.03405444610135,-0.8216179504420691,-0.7570052777197516,1.8650343719559257
8,1.2261517630850547,2.120254208222457,-11.232640418988996,-0.8656337531827619,-0.23987534442172706,4.097882423127151,-3.5493543002334094,0.19552666627786813,-4.24752033810614,2.8490694189946497,8.467953198300131,-0.6918412499164371,-1.0244846050663776,1.8638333119397816
9,1.4101308973755513,2.5184579650817565,-11.734733574672465,-0.6478387713093218,0.472704641862819,4.510276256396624,-3.4894259969842256,0.17944373039669706,-4.847633746267357,3.196527960716802,8.829149330841016,-0.6580740613840546,-1.2633520007155812,1.8956630511114927
10,1.5848887490932388,2.8875608958673604,-12.150140037783382,-0.44770695104341485,1.19427212143756,4.881551107280535,-3.3551855209234063,0.22651902833353807,-5.400073976992119,3.5290000443923257,9.115221357624835,-0.7210367618349326,-1.471283864766116,1.9601562542300137
11,1.7558798171865362,3.233105280724847,-12.47649471553311,-0.2637588916438062,1.9268541718115162,5.209316821203922,-3.1515604001294646,0.33670053693967084,-5.900908945383483,3.8476737176846183,9.325537316346093,-0.878846024898291,-1.646487794224176,2.0562164897794992
12,1.9286395870631388,3.5618431804036375,-12.713562685616566,-0.09426082712530916,2.672019933775478,5.491736599932839,-2.8861407207473215,0.5079889606259531,-6.346881846099358,4.153802797502651,9.461173557509014,-1.1269743897463127,-1.7875969726890961,2.1821983132942746
13,2.1088380555882247,3.88162209238232,-12.862939796199054,0.06277710079871636,3.4308337222344236,5.727709171326022,-2.5687058746351377,0.7365547607936765,-6.735314983194637,4.448698223183183,9.524792287037595,-1.4582973895716687,-1.8935531305445183,2.3360918356949787
14,2.3022998919158613,4.2012216548638674,-12.927726886610326,0.20960142617476712,4.203819943737887,5.917032036447421,-2.2106677068894998,1.0169238334168682,-7.0640089735309815,4.733733867847408,9.520487983547387,-1.863236429450927,-1.9634854772914259,2.5156980672126164
15,2.5149730813652704,4.530137069962207,-12.912205962409681,0.34871076510116394,4.990941541797257,6.060530780419261,-1.8244602220804587,1.3422210443252247,-7.331147624734527,5.010367746600259,9.453613161600892,-2.329999645161998,-1.99659306903208,2.718783640979533
16,2.7528342269448203,4.878307570782488,-12.821542100907006,0.48284164923636436,5.79159283413279,6.160142614636356,-1.422906796642895,1.7044577661096427,-7.535214765724994,5.2801773214338406,9.33059277040836,-2.844916587590514,-1.9920387934232913,2.9432068330694343
17,3.021725340122063,5.255791470183094,-12.661528979014424,0.6149404383971562,6.604605932780226,6.218945260168137,-1.0185956312790663,2.094847796144342,-7.674927350108351,5.544904056253577,9.158733938320674,-3.3928563663648905,-1.9488640868148421,3.187011115983135
18,3.327123673615798,5.672392948203587,-12.438389284850034,0.7481174896714987,7.428267939564089,6.241125012693944,-0.623292891403543,2.504135533891292,-7.749189895015608,5.806498264990648,8.946034360716403,-3.957713315217037,-1.8659338813652508,3.448486301412488
19,3.67385280364436,6.137249604424139,-12.15863436523892,0.8855806832539717,8.260344560020348,6.231880715393165,-0.24742060711008418,2.9229208741235158,-7.75707676832377,6.0671520305081215,8.700989339941422,-4.522939616085221,-1.741920630078811,3.726199205941712
20,4.065749506428028,6.658393825030524,-11.828980488828456,1.0305467722494308,9.098105498156627,6.197264000755142,0.10037722587476464,3.3419665826497718,-7.697848554510431,6.32930704440834,8.43239550619431,-5.072100988984249,-1.5753344241470908,4.018995812162067
21,4.505306583902881,7.242305038399168,-11.456312485693402,1.1861310523564657,9.938348339782868,6.143960817486491,0.4135619598765605,3.7524756396317387,-7.571006155984311,6.595626119677386,8.14914915566822,-5.589430037588726,-1.364603232776327,4.325976053594939
22,4.9933163417062225,7.893473835157714,-11.047680073894465,1.3552187920036793,10.777420232409062,6.07902443386534,0.6879090225580647,4.146328156328027,-7.376382582050483,6.868921125691153,7.860038417512748,-6.060352285950407,-1.108203337231621,4.646441545096912
23,5.528542781383511,8.614002612843262,-10.610308630641532,1.5403256632460434,11.61123962840743,6.009574864272905,0.921593304346121,4.5162702292457775,-7.114268712231238,7.152035168384621,7.5735302548481735,-6.471961562520248,-0.8048353197679322,4.979816922561237
24,6.107452534966133,9.40327038203067,-10.151604783031855,1.7434583237673864,12.435322721023056,5.942483179265771,1.115153827037475,4.856050541886596,-6.785566176820132,7.447682266778044,7.297555260401362,-6.81342320293583,-0.4536358783601947,5.32554789222499
25,6.724034524667136,10.257690498896524,-9.679137985089595,1.9659891093157065,13.244820384046479,5.884060966671541,1.2713470263201347,5.160504269626689,-6.391957917995114,7.758252971835323,7.039295226228972,-7.076285700894376,-0.05441108353485649,5.682983063769257
26,7.369735445901354,11.170588087393117,-9.20058211811691,2.208559445763127,14.034571265233566,5.839775125230219,1.3949034683664971,5.425587265696412,-5.936084535976903,8.08559892211555,6.804980272146976,-7.254685029356454,0.3921265254570625,6.051249976653148
27,8.033532104354688,12.13221823818518,-8.723605786154446,2.4710245193197884,14.799175203683959,5.8140060149152895,1.4922068334576266,5.648366193561147,-5.421711516941243,8.430813112933631,6.599703665244762,-7.345431491388175,0.8841359011585995,6.429136515947252
28,8.702152807377276,13.129937223080498,-8.2557058976346,2.7524470502117517,15.533088491925003,5.809862636542692,1.5709163739944263,5.826972194017625,-4.853869111872567,8.794025376657558,6.427263384525482,-7.347976186183137,1.4184589997305836,6.814987337647456
29,9.360449020046136,14.148527992882594,-7.80398596143439,3.0511416407089778,16.230739135976815,5.829062424970648,1.639554489138709,5.960526839163456,-4.238944763253775,9.174233309761643,6.290039880202771,-7.264262061872695,1.99048270036446,7.206622836662108
30,9.991905813414954,15.170669215977664,-7.374888002119563,3.3647647124795284,16.886656988996204,5.871876768436255,1.7070794826079456,6.04904921084215,-3.5847099833240796,9.569186509756703,6.1889187219138675,-7.098472092803085,2.594065235089328,7.6012867769477985
31,10.579266293040948,16.177525270441876,-6.973894581322773,3.6904400632702283,17.495611395142223,5.937138397994482,1.7824608685585013,6.093351599322038,-2.90027071936349,9.975336214066902,6.12326432688369,-6.856693417277622,3.2215371754142983,7.995627043322024
32,11.105233117632332,17.149424386362526,-6.6052242879706204,4.024907243905406,18.052748283454406,6.022304723637311,1.8742722393186186,6.0949287708633175,-2.1959411476522805,10.387854487132005,6.090946945636489,-6.546520945863802,3.863781701298678,8.385710399521043
33,11.553201241701027,18.06658481215589,-6.271549439467855,4.364678845650872,18.553718985979984,6.123571732884241,1.990315213989471,6.055842831589106,-1.4830518234059795,10.800719213565118,6.088420412692792,-6.176627609464131,4.510392775745395,8.76706662722568
34,11.90797129335596,18.909845068379788,-5.973767748970663,4.70619263033633,18.99479342545454,6.236034213355207,2.1372864860014262,5.97860344575509,-0.7737100767633533,11.206855322268112,6.11084372422209,-5.756331418002619,5.149903652282631,9.134752047327078
35,12.156393503144892,19.661354289619272,-5.710859047550038,5.045945230980026,19.372950583128386,6.3538878213837275,2.320497851478272,5.866042606129105,-0.08053094514111482,11.598320065311395,6.152236468554191,-5.2951902707944,5.770072874315964,9.483419730698007
36,12.287898675743568,20.30518258808059,-5.479852477958178,5.380596553458585,19.685940148031573,6.470666392938455,2.5436568533642654,5.72118515856466,0.5836491663824822,11.96652132113985,6.205658085047001,-4.802651231618355,6.358212155472838,9.807385254437177
37,12.294884912380981,20.827819171503947,-5.275918892628573,5.707038103219842,19.93231140505641,6.579504510581005,2.8087136866390456,5.547120494847114,1.2060732246271564,12.302462145821032,6.2634043635666945,-4.287770950174084,6.901541305880528,10.100682668975768
38,12.172944089053347,21.21853630456957,-5.092589673495946,6.022423170944012,20.111408116994816,6.673411621528778,3.1157773754518163,5.34688491256505,1.774382531520787,12.597009452840698,6.31721944160192,-3.7590111574477487,7.387558489060573,10.357113427023634
39,11.920926698505921,21.46960789875756,-4.922090287129824,6.324160803958914,20.2233305442478,6.745541271670223,3.463099978391473,5.123365091601746,2.2769568126190345,12.841185935754007,6.358524110278257,-3.2241027657795427,7.804416385863242,10.570297746157737
40,11.540854879483273,21.576381043548565,-4.755767060981807,6.609878386647988,20.2688676124423,6.789438947831807,3.847122419819686,4.879229890727673,2.703269652201992,13.026480255556534,6.378659231639019,-2.6899672454546457,8.141293912977122,10.733740085960555
41,11.037701133457473,21.537207343134344,-4.584579139300525,6.877360047506865,20.249403947303584,6.799255389342764,4.262571595980143,4.616891987431996,3.044241893981407,13.145162937379904,6.369137542740866,-2.162683996617849,8.388749517298182,10.84091773671684
42,10.419055723030574,21.35324920740346,-4.399623376697945,7.124470460867118,20.166808343096562,6.769917856397906,4.702597171582833,4.338495502297981,3.292566908186526,13.190588162873386,6.321891126851713,-1.6474946716638965,8.539038311699047,10.885396267825323
43,9.694709875361504,21.028183809553806,-4.192657554162195,7.349075494026957,20.023311861060698,6.697257080275541,5.158937654140735,4.0459222024796615,3.4429788255177844,13.157457374835898,6.229497873034378,-1.1488378359875235,8.586373675541324,10.86097070641317
44,8.87618455515149,20.567832984526923,-3.9565868640979156,7.548971782408242,19.821384389001434,6.578090177961428,5.622107618199497,3.7408072873442957,3.4924377570387195,13.042020151361132,6.085369530581976,-0.6704091798331544,8.527115283234767,10.761828466957681
45,7.976235663144329,19.97975040173105,-3.6858800411266235,7.721836421604911,19.56361787084545,6.410259560289067,6.081600597669945,3.424555876072951,3.440212952764508,12.842191421429177,5.8838870512659645,-0.21524277296257033,8.359869862333522,10.582729184627937
46,7.008366161928628,19.272798209411086,-3.3768847386863237,7.865205775619419,19.252623091551424,6.192626990574254,6.526105175189956,3.098352995861646,3.2878541470042886,12.557571757696413,5.620475554954233,0.2141932693802241,8.08549785544214,10.319196515207516
47,5.986373170726276,18.456743605754944,-3.028017498501845,7.976489112429709,18.89094545681507,5.925023004413072,6.943734960041233,2.7631627048461773,3.03905173430571,12.189368000649353,5.291619731666316,0.615896763463534,7.707027281574154,9.967716192250025
48,4.923952253357643,17.541900192044896,-2.6398131339175888,8.053018467451617,18.481003673429914,5.608155650790246,7.322275516141408,2.4197151475337613,2.6993965864531155,11.74022252987647,4.894828099871935,0.9882386789391056,7.229483326932368,9.525932457156832
49,3.8343718207016724,16.53882935890577,-2.214831624477114,8.092131107151618,18.02505345150676,5.243487777011743,7.649451732696672,2.068482965004745,2.2760586802913405,11.213968643568188,4.4285590749024415,1.3298863622820642,6.659646507895137,8.99283173466803
50,2.7302198650790483,15.4581055806452,-1.7574355785263418,8.091276045598706,17.525176353293762,4.8330968726690955,7.913217137778245,1.7096501318163508,1.777409082072232,10.615334943627959,3.892122740768169,1.63974498425573,6.0057531708713245,8.368898943052132
51,1.6232164720544726,14.310139911424178,-1.273464288646889,8.048132600618848,16.983291926474127,4.3795339310511,8.102062919469647,1.3430772073764996,1.2126121753707402,9.949623152756569,3.285570973854165,1.9169128343617057,5.277151497449955,7.65622929710096
52,0.5240812794117369,13.105050968454746,-0.7698380144411205,7.96072821551598,16.401189602752275,3.8856966637297043,8.205340429786464,0.9682679130280905,0.5912151743157313,9.222383284499227,2.609587542522353,2.160643289089174,4.483927093262099,6.858578899716331
53,-0.5575542543814687,11.85257282395406,-0.25412713973128664,7.827544889008945,15.780575840966636,3.354727708305067,8.213587848865265,0.5843433938044282,-0.07723932710161079,8.43910987601923,1.865390531417951,2.37030874342701,3.636516162335369,5.981342859987265
54,-1.613195723135474,10.56199293118498,0.265883380154751,7.647607472764825,15.123131764404965,2.7899415504521827,8.118849579941482,0.19003210503034873,-0.783554731033162,7.604983406536037,1.0546613472468511,2.545367882243433,2.745329750739354,5.03146000451391
55,-2.635496397198075,9.242117976059662,0.7826107113948202,7.42055146444446,14.4305769274374,2.1947770154193718,7.9149755525656635,-0.21631603827976842,-1.5191569335623594,6.724680407236169,0.17951571798758492,2.685344212146788,1.8204165650305528,4.0172554335616875
56,-3.6182259548622007,7.901269217965887,1.2890557259217488,7.146671847826985,13.704735594824879,1.5727678423427465,7.597887220077559,-0.6366834105105329,-2.2762921460249768,5.802272691178611,-0.7574691263132217,2.789828264656489,0.8711923408847226,2.948242239615966
57,-4.556192213564596,6.547310080888668,1.779139768492518,6.826957209015515,12.947602767741028,0.9275236928654791,7.16579820804013,-1.0733005594388727,-3.048136819646875,4.84123029768243,-1.7531611901449824,2.8585171384205084,-0.0937397546928175,1.8349089603287565
58,-5.445113078215549,5.1877067679199484,2.247991419172167,6.463113776033254,12.161407786988233,0.26271767983925326,6.619380102673966,-1.5285214439868784,-3.82881462266306,3.8445339502087124,-2.8037121428217855,2.8913022175130085,-1.06666070048901,0.6885185085868344
59,-6.2814420732423395,3.8296176900461707,2.692179250532497,6.057581760760518,11.34867331453066,-0.4179182568310677,5.961866632996578,-2.0046591940348093,-4.613320685224281,2.8148908677091993,-3.904336208368542,2.8884082051476403,-2.040694027470487,-0.47906292443050863
60,-7.062159334818422,2.48000108996005,3.1098846169321206,5.613542590297063,10.512266857573826,-1.1105850035534155,5.199091452214456,-2.50378840090696,-5.397360650375747,1.7550340952309555,-5.049050821215413,2.850575144233461,-3.009660973251128,-1.6555006004063642
61,-7.7845477335091955,1.145725048964399,3.5010060388229443,5.134912646484657,9.655441442990494,-1.8113890289405656,4.339455830866952,-3.0275247502378355,-6.177120326693937,0.6680736631014633,-6.230410741711295,2.7792639394157614,-3.9678566661626955,-2.828096073814834
62,-8.445977670971246,-0.16633749795103775,3.8671869507674574,4.626318804315961,8.781862506741028,-2.516292278431547,3.3938236311208514,-3.576796260360575,-6.948988654968112,-0.4421387311478425,-7.43927201074816,2.676859750068622,-4.909780652850763,-3.983877695459014
63,-9.043722868860685,-1.4492431720779182,4.2117623663814365,4.093053453319341,7.895619852834286,-3.2210390776110067,2.3753427377649916,-4.1516217776519175,-7.709260497745036,-1.5706699300049958,-8.664619850064666,2.5468482306283122,-5.829856884335266,-5.109695433941251
64,-9.57482440114486,-2.6959500259521914,4.539625573426736,3.541010412408362,7.001226050770928,-3.921064809432281,1.2991950271692867,-4.750911757410228,-8.45384570284628,-2.711223071831984,-9.893486561112079,2.3939450747866995,-6.72217420766024,-6.192336367973178
65,-10.03601370470427,-3.8993275755992554,4.857020702020959,2.976606281361151,6.103604756961116,-4.611396147430355,0.18228076516387465,-5.372304168689368,-9.178007457827622,-3.855935847804911,-11.110974515569,2.224166245868494,-7.580271417444111,-7.218671588808831
66,-10.42369974977047,-5.052200262811267,5.17126924970729,2.406692713056886,5.208072974470648,-5.28655658754655,-0.9571528368987408,-6.012045443686062,-9.876148097890688,-4.995271988840441,-12.30038931052016,2.0448315580449377,-8.396984338348114,-8.17583903054031
67,-10.734022585043157,-6.147417963856196,5.490438417494715,1.8384633247359516,4.320319406138058,-5.940492964341196,-2.099926540647823,-6.664923895908715,-10.541656803497437,-6.118011933711017,-13.443482119472401,1.8644962679942907,-9.16436870905285,-9.051462271771742
68,-10.962974872298672,-7.177948990701818,5.822958024733531,1.2793553054367774,3.4463772140747384,-6.566538066415215,-3.2263742009952563,-7.324261566766042,-11.166832084898852,-7.2113467243285125,-14.520798228007061,1.6928047611719421,-9.873711511566842,-9.833903147025477
69,-11.106592650183508,-8.136994314708833,6.177192899260202,0.7369418504030736,2.5925854922431313,-7.157421261132361,-4.316804971363945,-7.981969480600795,-11.742891298926676,-8.261079671672519,-15.512127842787994,1.540259998199656,-10.515641853806303,-10.512544562475874
70,-11.161214075371683,-9.018124288245668,6.560979946127561,0.2188090249163102,1.7655314209164985,-7.705333773049542,-5.351969824419631,-8.628669847603181,-12.260077546028581,-9.25193944561546,-16.39705263299417,1.4179046817886907,-11.080347925148637,-11.078097546357936
71,-11.123799591211151,-9.815439823576304,6.981143047843785,-0.26758954294640486,0.9719647990322761,-8.202049515841741,-6.313520229051535,-9.253886579777953,-12.70786991285926,-10.168004062651285,-17.155576545776153,1.336915543992674,-11.557898811216308,-11.522923140537879
72,-10.992299894003525,-10.523758626082602,7.443003468874056,-0.7151048322176267,0.21867797873345077,-8.639097895145888,-7.184448236861864,-9.846302695301318,-13.075295796674629,-10.993228062993916,-17.768823291350824,1.3081193869903487,-11.938660618274783,-11.841356357390755
73,-10.766050612888334,-11.138823691017702,7.949907751028612,-1.1170928565078926,-0.48765280167439795,-9.007982361921906,-7.949499234218393,-10.394079414407921,-13.351334068003283,-11.712055907389903,-18.219776098347367,1.341447269341357,-12.213786745478451,-12.0300168019185
74,-10.446165648912443,-11.657525925275587,8.502798720299056,-1.4676402762179228,-1.1406637744603125,-9.300437114226188,-8.595550218088842,-10.885226498398708,-13.525386395603562,-12.310094164110485,-18.49402771788708,1.4453512972013336,-12.375752904689175,-12.08808800426351
75,-10.03589517035645,-12.078126038809092,9.099857864530087,-1.7618063512268878,-1.7345304668843906,-9.508713459014734,-9.111946778156051,-11.308007190367391,-13.587784209220668,-12.774804673124127,-18.580500808026706,1.6262169388068808,-12.418899171010798,-12.017543816148413
76,-9.540910300341576,-12.400454356249783,9.736248630159322,-1.995865978455487,-2.264211495176463,-9.625886492396006,-9.490790771009118,-11.651355788759453,-13.530293842538695,-13.096172619944763,-18.472092778088992,1.8878117186697536,-12.33993500363491,-11.823295831580062
77,-8.969476379850377,-12.6260634786897,10.403989032001437,-2.1675334184523676,-2.7256912098451176,-9.646171643516803,-9.727168603267799,-11.90528349643922,-13.34658371468339,-13.267299919868197,-18.166197391587698,2.2308160134124146,-12.138360745740577,-11.513233715163551
78,-8.332482376071683,-12.75831013197438,11.091976559338367,-2.276144545789973,-3.1162013142309064,-9.565238991146156,-9.81930858629746,-12.061249689858753,-13.032623505505649,-13.28487742360095,-17.665059714741737,2.6524801282901116,-11.816762900599121,-11.098134229314017
79,-7.643305955038231,-12.802349211824735,11.786178078733226,-2.322777684611393,-3.4344027790679847,-9.38051074739246,-9.768656189254171,-12.112480161790696,-12.586993113681375,-13.149498701342246,-16.975931541276204,3.1464423836287807,-11.380951196789988,-10.59142568926646
80,-6.917509587483687,-12.765032395546143,12.469984293458394,-2.3102980564845477,-3.6805125384055133,-9.091423829111465,-9.579858112337368,-12.054219058899758,-12.011086246342806,-12.865790649945223,-16.111009289476293,3.702727915167545,-10.83992080286288,-10.008809734907233
81,-6.172378977631338,-12.654712739423111,13.124715410360496,-2.243316879610956,-3.8563637048672197,-8.699636249339411,-9.260649342517691,-11.883905805678095,-11.309199228777333,-12.442349178510336,-15.087152427968062,4.307931894380274,-10.205639153342599,-9.367757227173778
82,-5.426328209322018,-12.4809641919399,13.730253982179212,-2.128062467831061,-3.9653933180696415,-8.20915577679418,-8.821641735384214,-11.601272531473677,-10.488501130168546,-11.891480928801153,-13.925395143663462,4.94557744026983,-9.492670740065039,-8.686906611155814
83,-4.698205145425835,-12.254230844975734,14.26577344042422,-1.9721671714892586,-4.0125576882353915,-7.626373824963085,-8.276018132808392,-11.208361942575568,-9.5588876308025,-11.228764190250045,-12.65027585993551,5.596628961121319,-8.71766351361243,-7.985399964005872
84,-4.006535669025332,-11.985424774888454,14.710527264139056,-1.7843802880211639,-4.00418103917006,-6.959995972176208,-7.639141563302394,-10.709469688598535,-8.532727945463321,-10.472453015424573,-11.289017963060711,6.24013602266526,-7.898726903321555,-7.282193725606917
85,-3.368746787276286,-11.685493462825903,15.044663636384895,-1.5742224951728157,-3.947747217329277,-6.2208699991139955,-6.928093414815053,-10.111017992853537,-7.424520274953321,-9.642757281216774,-9.870601029228826,6.853980172551652,-7.054734583874022,-6.59537827997778
86,-2.8004075087205558,-11.364978792908799,15.25003207999828,-1.3516015502057848,-3.8516466141779904,-5.421720567752446,-6.161157317020565,-9.421368444759892,-6.250475734157084,-8.761038195927021,-8.424765604262745,7.4156959374908045,-6.204586378812743,-5.941535085620808
87,-2.314524031452761,-11.033590320469175,15.310950226610656,-1.126411829441481,-3.7248917954242122,-4.576806130928198,-5.357267492198587,-8.65058237448951,-5.0280537036975375,-7.848963702947184,-6.980996532300488,7.903336181412032,-5.366464219023496,-5.335154370344307
88,-1.920923032891574,-10.699815911454706,15.2149000832347,-0.90814142692065,-3.576816114664606,-3.701518444870925,-4.535442246969113,-7.810138314967895,-3.7754737157737033,-6.9276709332248805,-5.567530087810865,8.296350495593764,-4.557117354866405,-4.78813202938477
89,-1.6257541059405378,-10.370592464015022,14.953124366012956,-0.7055095334221265,-3.416769806970656,-2.81194760809257,-3.7142251036148197,-6.912618001431533,-2.5112301814088336,-6.0169828113860095,-4.210429186252675,8.576442817136229,-3.791212307638322,-4.309362145865889
90,-1.4311395960116176,-10.05105776941403,14.521095138382412,-0.5261537294832741,-3.25382754982681,-1.9244350956675988,-2.9111569826540022,-5.9713743373228265,-1.2536353364197426,-5.134722988127198,-2.9327691225309063,8.728370977104579,-3.080783157906957,-3.9044419305158353
91,-1.3349966337047277,-9.74440137470934,13.918829402181114,-0.37638239849239125,-3.096520214260769,-1.05513401867508,-2.1423016333299776,-5.000195384524658,-0.020411418591871597,-4.296167140723721,-1.7539728010486908,8.74064756196098,-2.4348162939961533,-3.57550752145999
92,-1.3310506995971674,-9.451827297066124,13.151030094044804,-0.26100251187018153,-2.9526015466731366,-0.21959126946229027,-1.4218426057199556,-4.01297698957591,1.1716548319873117,-3.513658736280327,-0.6893273760592252,8.606100880363304,-1.8589983850738012,-3.3212183121188334
93,-1.409051204217027,-9.172634297514163,12.227037407503412,-0.1832278604708207,-2.8288578015468127,0.56763799192116,-0.7617643456596971,-3.0234139505725732,2.3069919588334664,-2.7964036964380967,0.25029755752631505,8.322259469192053,-1.3556457588042896,-3.1369007864124545
94,-1.5551871050378818,-8.904410186318865,11.16058549031547,-0.14466742566583388,-2.7309649835632075,1.2933359650425054,-0.17162420698978642,-2.044717228636713,3.371463118162746,-2.1504426883168097,1.0585254750626576,7.891534042312938,-0.92381860491191,-3.014850135633867
95,-1.7526860257608665,-8.643326199098425,9.969372797474175,-0.14538827469677437,-2.6633948037997053,1.945921974660571,0.34158256071321935,-1.0893631910988686,4.352535574071223,-1.5787847650815379,1.733353237353555,7.321185141406549,-0.5596074707832801,-2.9447727416925935
96,-1.9825661487080388,-8.384507624443332,8.67446841621521,-0.18404269442563176,-2.6293673372291226,2.515701076634189,0.7734665663319076,-0.16887947570515713,5.239412332586201,-1.081674577390934,2.2768602185883764,6.62307971816413,-0.25656559026592946,-2.9143396371365986
97,-2.2244987210110354,-8.122449632082402,7.299588550111106,-0.25804580116765463,-2.6308460989145903,2.9950566383857766,1.1222017733412197,0.7063299344937467,6.023135759479449,-0.6569590769334647,2.694778351280241,5.81325268886516,-0.006250875187561173,-2.9098137343596475
98,-2.457732161521449,-7.8514441749214265,5.870284800501353,-0.3637879598701999,-2.6685698564412936,3.378582929226088,1.388404442824832,1.5271200750569351,6.696668691397532,-0.30051852968358356,2.9959585171715175,4.91129893797911,0.2011632755929712,-2.9167129059986823
99,-2.662027043231681,-7.56598525575198,4.413088348524249,-0.4968660442192084,-2.742114655271967,3.6631557333970077,1.5749429817683378,2.2857020733670144,7.254953647604592,-0.006729380887065858,3.191768336420741,3.9396276489103714,0.3762492297618015,-2.9204751794569543
100,-2.818553558940793,-7.2611248140066,2.954652685109853,-0.6523184367343651,-2.849978842987531,3.8479421249332595,1.6866891613558939,2.975703996379843,7.6949470355403475,0.23106880834497898,3.2954536640912306,2.9226153320344435,0.5296960865391868,-2.907098218731066
101,-2.9107076971047867,-6.932758516636185,1.5209336707256498,-0.8248502415867583,-2.9896833195943655,3.9343539994737284,1.7302222120748205,3.592198115610845,8.015624220353898,0.4201253988583509,3.32149249895459,1.8856972484220118,0.6717232319516983,-2.863730504781854
102,-2.9248085249982902,-6.577828714384992,0.13644015143549562,-1.0090375311999529,-3.1578794973030715,3.9259524483688635,1.7134988019125614,4.131698176236029,8.217953648921476,0.5678693029095276,3.2849669805847173,0.8544387147876248,0.8115641703332935,-2.7791956962539723
103,-2.850647221912612,-6.1944402161412135,-1.1764190324929396,-1.1995028635025156,-3.3504593887258376,3.828310716584584,1.6455033073257053,4.592131382107485,8.304842943432496,0.6815554225015148,3.2009770797438732,-0.14637310224718034,0.9570427071452918,-2.644435181948038
104,-2.6818689677789145,-5.78189285935168,-2.397874896687312,-1.3910584433848685,-3.5626657875417065,3.648842400065462,1.535893068356151,4.972790295713268,8.281064365351911,0.767980877504154,3.084117275485352,-1.0935803266337718,1.114257101505811,-2.4528573197100947
105,-2.4161798034043707,-5.340641990078917,-3.511217476441596,-1.5788170283980696,-3.7892041934026377,3.3965997170073248,1.3946520783799372,5.274269051483635,8.153168308989121,0.8332797125640617,2.94803347482946,-1.9664177477230185,1.2873808003089224,-2.2005850541316834
106,-2.055379592084517,-4.872202372131617,-4.503093588949565,-1.7582730094611145,-4.024360163793188,3.082045221468045,1.231764348513876,5.498386281751171,7.929390040217216,0.8827983376356653,2.8050715414515164,-2.747163112449244,1.4785817727733124,-1.8865958284359516
107,-1.6052282522957266,-4.379012231793179,-5.3636857680954355,-1.9253571493588577,-4.262125585316957,2.7167992277905775,1.056915602011976,5.648094642558086,7.6195474485037735,0.9210477593815132,2.6660219394562596,-3.4216530224123107,1.688056586376438,-1.5127491567056495
108,-1.0751568535411151,-3.8642733791822876,-6.086776089691336,-2.0764692037363197,-4.49633572236454,2.3133638342794507,0.8792290258654426,5.727374717065277,7.234918735973349,0.9517228028641379,2.5399578471822553,-3.979647299649085,1.9141694324707321,-1.0836997092418004
109,-0.47783977070732225,-3.331782224708513,-6.669699963854369,-2.208493686040053,-4.720816692001121,1.8848232514874141,0.7070377631441236,5.741110288049611,6.7880825819535415,0.9777730157429809,2.4341573786064705,-4.415030838568075,2.1536798784569386,-0.6066987464154759
110,0.17135081354541362,-2.7857654936073226,-7.1131975253443525,-2.318805009710226,-4.929540617583743,1.444520708112801,0.5476946093228665,5.694943027436624,6.292702557638559,1.0015059890600786,2.354095598473802,-4.725849754616131,2.402037232294283,-0.09129310701819814
111,0.8549822956554555,-2.2307330746199057,-7.421173290055958,-2.405268439890764,-5.116783541350423,1.0057150507135661,0.4074186842700863,5.595107296219369,5.763242689435365,1.0247025565821668,2.303489865914579,-4.9141861085090985,2.6537158838617,0.4510637526357558
112,1.5542625553085918,-1.6713580022965255,-7.600377112451178,-2.4662424105598064,-5.2772798055377885,0.5812240257312198,0.2911793780624008,5.448249230504966,5.214609901476952,1.0487247112361622,2.2843825031387115,-4.98588129652092,2.9025659230311147,1.0074710221104486
113,2.249775569689499,-1.1123895677119247,-7.66002047973168,-2.5005859473365026,-5.406366295425375,0.18306457324212827,0.2026188484941729,5.261237846027396,4.661729473782446,1.0746008504159184,2.2972471308766593,-4.950122655961613,3.1421563940341044,1.564090859330507
114,2.922223918870045,-0.5586003960168466,-7.611341837349355,-2.5076724080139474,-5.50011041556112,-0.17789740847651211,0.14401519510502764,5.040978702933372,4.119070489354783,1.1030792529346487,2.3411089364335087,-4.818911893943409,3.3660935846192532,2.106689933781735
115,3.5531517538290216,-0.014763316911551666,-7.467133822219644,-2.487407798276668,-5.555416488545841,-0.4922744329890599,0.11628856886557083,4.794241719767719,3.600148221697224,1.134648815719444,2.4136743919367007,-4.6064379955408,3.5683027385439585,2.6211927433072852
116,4.125623107074024,0.5143499517749021,-7.2412453558455985,-2.4402491912850763,-5.570106214351633,-0.7524486218294102,0.11905121685314776,4.527513278860553,3.117037446210392,1.1695337927172609,2.51147129131641,-4.32838130579199,3.743267644067254,3.0942282968183332
117,4.624831721705756,1.0239586617520324,-6.948073286269637,-2.36721718760961,-5.542970085074605,-0.9528143330193387,0.15069960028099683,4.246878998365253,2.6799326716918968,1.2076739842326178,2.6300032649785963,-4.001179808167354,3.8862273577810833,3.5136524887381304
118,5.038620088257452,1.5092628704431985,-6.602060965457484,-2.2698963882007988,-5.473788351026862,-1.089961284943047,0.2085431409041969,3.957938485288727,2.296787358609379,1.2487023567020918,2.7639225745022316,-3.6412931985652617,3.9933314054594358,3.869028116703974
119,5.357887397686281,1.965444553709923,-6.217223256555637,-2.1504192542397313,-5.36332192112314,-1.1627888608135413,0.2889614930663656,3.6657484146990233,1.9730552260164334,1.2919292053254239,2.907221462870853,-3.2645036783034964,4.061754037794097,4.152043020956232
120,5.576869137549719,2.3876900300799457,-5.8067179263366455,-2.011430737649639,-5.213274891583773,-1.1725436603645578,0.3875816967538122,3.374786885364181,1.7115455258388816,1.336337700984079,3.0534380794456846,-2.8852921386070554,4.08976638206229,4.35684516587879
121,5.693275666966255,2.7712415934535715,-5.382482011930906,-1.8560327956937315,-5.02623104126687,-1.1227732796194427,0.4994679817329991,3.088931447707059,1.5123943362804313,1.3805923057443195,3.1958707816614558,-2.5163233069141904,4.076764965202529,4.480273440627545
122,5.708283426684666,3.11148342143508,-4.954948832866817,-1.6877089308239117,-4.805566853257655,-1.0191901568211417,0.6193191835772818,2.8114456988615575,1.3731481746321725,1.4230607830195405,3.3277956030582856,-2.168064144254828,4.02325684844712,4.5219664502857695
123,5.626379761672296,3.404063217549786,-4.5328573547823305,-1.5102297875352144,-4.555343831178383,-0.8694412510385062,0.7416704482371781,2.5449735780123324,1.2889548236889634,1.4618522875963245,3.442684586209147,-1.8485484074802385,3.930804480527241,4.484338861800264
124,5.45506964736118,3.64504668513346,-4.1231609456745595,-1.3275423846605303,-4.280183410737357,-0.6827833355463224,0.8610965374011057,2.2915445120891245,1.2528571378765125,1.4948762605419852,3.5344249144846045,-1.5632891353105889,3.8019359223583815,4.372424084428787
125,5.20445942280408,3.831097535590139,-3.7310368322802345,-1.1436474921313893,-3.985128629179317,-0.4696698385737547,0.9724138372002186,2.0525949561874626,1.2561856167948173,1.5199271508606589,3.597538639971681,-1.3153313266943325,3.6400275229791847,4.1935911960097565
126,4.886738900241572,3.9596723316634383,-3.3599903154734303,-0.9624709452242426,-3.6754975054085657,-0.24126276693917562,1.0708775790674867,1.829011854035425,1.2890419202638543,1.5347973025149853,3.627400336956589,-1.1054296124580147,3.449166303954841,3.9571524056417875
127,4.515588686249683,4.029217255735815,-3.012039937901892,-0.7877349348884416,-3.356733323013263,-0.008891624005872222,1.152369512157565,1.6212005400743228,1.340856881997889,1.5374151892648185,3.6204459642898557,-0.9323301949021092,3.2339985812975427,3.673884653619928
