,AF3,F7,F3,FC5,T7,P7,O1,O2,P8,T8,FC6,F4,F8,AF4
0,-0.130678995813844,-0.04090566478541171,-0.07662040554673087,-0.07554481802577671,-0.03749933692783995,4.391093256118892,-0.004072050622170403,-0.00596890992751614,0.026239357220661976,-0.10764840408070647,-0.07732359456658468,-0.11355329639214479,-0.10940705210503246,-0.09547480328028764
1,1.14136361613374,-2.9095985972665916,0.8060810695702482,-2.232692436402325,-4.106711228268674,-9.277822531777895,-0.2888670941841309,-1.7288848547074467,-0.7000172195691775,-1.495799154701933,-2.7399040856201227,-0.42799195214064073,-2.525634872352355,-1.6950626345366682
2,-0.04416055074734107,0.735225745550307,-0.06799448432069735,0.15840980036394983,0.7772342206667816,-3.4598023657918047,0.4699414930102172,0.8370419295558689,0.22195476066841824,1.3926320868072057,1.6424296300239054,0.34386434183949943,1.4585248308810952,0.8402998995649574
3,-0.9842920399547319,2.695827663133758,-0.6793808864427613,2.1981489815352124,3.620856904203057,8.248049236343123,0.20724234912835277,1.6804975793220684,0.5250066227516255,0.8900266080361666,2.060529395829652,0.2654771848134702,1.8901024958954795,1.389026600427726
4,0.05970034164912988,-1.4188742281740543,0.13383014062059023,-0.3076739329949982,-1.2872446081391284,1.2528755644578289,-1.009521616833007,-1.7774466497296568,-0.35813969786046856,-2.3184982026648506,-2.851294501557817,-0.5313736264547573,-2.4703711761818217,-1.4103598152005685
5,0.7784636248421086,-2.1981299728410155,0.48855980206201566,-2.0698418679092603,-2.762392576843069,-6.598341393328223,0.05764179219469053,-1.4479038749518127,-0.2471446214637752,0.10518797895585252,-0.8590935379089678,0.057732928994467414,-0.8046559015125984,-0.8719387326314818
6,0.14538578379628614,1.9732503028952026,-0.10355052175232442,0.4990011203832907,1.3665440734213468,2.9936244450321405,1.5693419652324063,2.788585893593795,0.31729122589934555,2.6486639702997588,3.420094171563797,0.6009281231624409,2.908969311619014,1.6739652613121199
7,-0.7277319060132545,1.3851587205561637,-0.316389484970083,1.757122985848517,1.756887497647211,3.058657987848796,-0.598911710669078,0.8908485659986771,0.007454707912212447,-1.1711623774988877,-0.5502848538376791,-0.5263414428965405,-0.4162761894548908,0.30331053846304235
8,-0.4386134724175378,-2.16930670375652,0.05145810246436868,-0.5764485321560289,-0.8945310979101241,-8.920326614777036,-1.95351260456156,-3.6561975713408064,-0.13040487252433794,-2.297832193775847,-3.1951692286427145,-0.41774778872553625,-2.6933127651950244,-1.5612263437132492
9,0.9338021319025755,-0.4022526379339229,0.16643187746270538,-1.3143036670763777,-0.9394663784642532,3.618652693782391,1.356826120839959,-0.025291284003626735,0.0682107556427559,1.9302383240880934,1.7413089913901776,1.00651374347377,1.4004200804084161,0.09021511561165918
10,0.5798342580611732,1.8135047221330984,-0.06384847623382645,0.38333539076291057,-0.07533157681007083,14.735625413183037,1.944093944619882,4.11252980552719,-0.0825088142686204,1.3816148514240612,2.249460337093454,-0.10767166547880744,1.9465954700747814,1.1345800809807882
11,-1.3099917785429134,-0.41865892277866557,0.05068137199203807,0.9603216646473584,0.6651713202241298,-13.421286115782996,-2.078772211063311,-0.9139896006345088,0.0632858270428975,-2.0551813585062,-2.301665093313881,-1.2575947855719278,-1.839256060698331,-0.09742577847995733
12,-0.3803485646877006,-0.9263715572771154,0.1402093135287416,0.07513639317767916,1.2592729768048498,-17.883431154216098,-1.471862254422865,-4.024604269893507,0.16648053049873685,-0.2123574529852493,-0.9166643269513134,0.9032104240590685,-0.9764625485421208,-0.613734772959416
13,1.6244888853434156,0.7111464559926113,-0.43588096982488217,-0.9447296411455317,-1.148987490286511,24.104882406328944,2.426780411911908,1.5690071551501457,-0.3310401151809099,1.3948282220454473,2.014309891775624,1.0561996441447015,1.6143560435673676,-0.35106199785456627
14,-0.17656281488421124,-0.19391399109196578,-0.167526286750639,-0.5814150393295352,-2.2007865504206943,16.655418442499485,0.7090307237506234,3.5124113808257555,-0.010805470237831422,-0.7896812691209005,-0.30587508934045826,-1.7156167957994857,0.16489622055537742,0.2973284252226666
15,-1.6353126061333811,-0.2957619846597381,0.9913805326190785,1.3576519074018651,2.3207410653619087,-31.29549239043669,-2.1681937680102488,-1.6544638874327735,0.5759468269738702,-0.053651299730845606,-0.9924030170900731,-0.35182945323702247,-0.8590825010485055,1.100345749670816
16,0.9277008068581517,1.091689683853422,-0.0009953569721679893,0.8238104610033716,2.450691423221483,-12.085744321276412,-0.010039989395314976,-2.911696696030667,-0.38630587868797406,1.2507245669326696,0.9720995271329075,2.2263794432596677,0.19662993394181796,-0.4006509259147167
17,1.2223765548417902,-0.684210347472487,-1.5776544317359784,-2.03482194518433,-3.798850001376395,30.11729829763405,1.3242947287373392,1.127827799979695,-0.6253898637180755,-1.6305234741042458,-0.33677089618269795,-0.6649634995992161,-0.09483653952015894,-1.8142756935757778
18,-1.6251806289084667,-1.3920664306677797,0.42126573201671336,-0.6035702450463845,-1.7871420047082454,8.988805807121523,-0.26775208783127846,2.6023798038368575,0.9046282911148169,-0.9924381932814872,-0.9106121453429444,-2.235096097666912,-0.04308522851029105,0.9084669675841995
19,-0.4368029949649637,1.8140256977820637,1.9822173303781765,2.6398843957164204,5.027224177666916,-17.993576079071484,-0.18073126453584573,-0.2281631853281282,0.37928548453790134,3.213459852916647,1.4204320905484245,1.6449413127346517,0.8736328612437593,2.1449113444736874
20,2.0603549774571155,1.0048770615338227,-0.9884210450701016,-0.02288632707601283,0.3482616628557264,-15.05686048951839,-0.04683350348784832,-2.8080840969659633,-1.350627796758845,0.09500579265278007,0.31791578315322844,1.7837969671523157,-0.43871748752791545,-1.553035236051093
21,-0.5455158756679416,-2.619139853586851,-2.054100161517233,-2.87052292436305,-5.5179714988447115,-2.647011797026393,-0.8457150300125917,-0.6356382198416342,0.1385584752635346,-4.314499259617456,-1.8479355760800058,-2.267338414361972,-1.2419416934380472,-1.9327107380960296
22,-2.1385633492211404,-0.1655589854895984,1.4811598844383798,0.7729713551817283,1.4093882125709702,37.72362100676076,0.8504215264724198,3.481619076206022,1.542545656855658,1.1590153787883632,0.3462800203492998,-1.1325487629565347,0.9180512074522879,1.9514548882169955
23,1.5146603798379468,2.8045651229006756,1.803873811390439,2.641131406488864,5.069823604855423,23.492799807622543,1.4034779634058332,1.0777720570529827,-0.7896918505085376,4.739893608822869,1.5432220128687333,2.407756624326849,1.2055506952328743,1.306042395931465
24,1.8783806505085536,-0.7046374173982637,-1.6899312136903142,-1.3156719265898202,-2.910231015183416,-79.8060491744331,-1.8190651153422435,-4.329778099058712,-1.3862971069482048,-2.4201746700802884,-0.6042152572299155,0.6025570348158577,-1.1032965094839686,-1.8257120215172373
25,-2.29530179910512,-2.379236495757116,-1.3964620732726778,-2.115615728917331,-3.8425807364893103,-32.54940819531184,-1.3578630241317673,-0.9042818482349897,1.3812606748230132,-4.5019713224317615,-0.7713299721839465,-2.1763340310872796,-0.9765756088436369,-0.6073723514463208
26,-1.368356938441549,1.2224600662530454,1.5356288996897354,1.4680151693003065,3.7054697705361184,136.09101057677174,2.56239499565552,4.948710441088928,0.9060723040330906,3.4015447769250517,0.1994078267866747,-0.3968130523340584,0.8929335437385076,1.1658275033130494
27,2.765524450570669,1.6074494293867498,1.0478933293634938,1.5792057942097606,2.2567428747618203,19.180478779031773,0.829398751763295,0.18263319777667245,-1.741443679262235,3.7479420791933107,-0.03314074095647347,1.8113264847046522,0.8254206414951369,0.18865004141922564
28,0.7331011695411698,-1.214526085709979,-1.0993837620152132,-1.2760152742631026,-3.632952012488328,-193.1937560169669,-2.7908782169616093,-4.992500576412315,-0.22364558732130563,-3.9337826780181873,0.8047615363783641,0.5181957955129467,-0.40671313998588865,-0.23007048162750568
29,-2.850697082305244,-0.8405806974109156,-0.9056133626435486,-1.2539825348565812,-0.7918877082033837,20.099867364056927,-0.11950474873990524,0.7993971441914673,1.7737861788499243,-2.668599318247433,0.49973835995138255,-1.5160637677162832,-0.9148164135504662,-0.2074848981902244
30,-0.12867160858833704,0.753189326816105,0.5572819133467514,0.9417153789776721,2.824130731288789,233.7113938665408,2.420937771185215,4.302691502078217,-0.4923103888579031,3.9432710203369035,-2.103389656469571,-0.8257099950829967,-0.11361791352584127,-0.6157529666655147
31,2.534424151663897,0.34240648300532844,0.9911734814177005,1.1902165743751816,-0.19606925262578226,-78.23472174042902,-0.42422358970217916,-1.6478940356628693,-1.4748233686307142,1.4539173039332154,-0.47974163707490364,1.3579023914241595,1.2189750362601508,0.5539656904010716
32,-0.26001525500324457,-0.06688457844432993,-0.08067630690316588,-0.6724950300717664,-1.5901322042696442,-243.34528082165565,-1.5888383472085186,-2.9641549303357677,1.078549655852433,-3.410696092147437,3.331005737578771,1.1664159138959513,0.4615784230601441,1.111605613318516
33,-1.8960258044115812,-0.20032805043079646,-1.2242877918428783,-1.2912663320196616,0.5558265080170611,139.06408077832975,0.5402349317917912,2.0010368120177917,0.9221912314426652,-0.30411233284136147,0.058579119528566696,-1.287220827290061,-1.5698827969837228,-0.9471991671482484
34,0.26045828078596456,-0.59660497355672,-0.2291661334901435,0.5720042366785562,0.27835849786402705,217.5978772496609,0.587455942015756,1.285529730439483,-1.4149190734455444,2.370450449833718,-4.2254801312221595,-1.4747746402063413,-0.5768992601139996,-1.2308961510773277
35,1.1356908194094817,0.34307472306019515,1.4869364805831742,1.4216547501542636,-0.3188089601740244,-183.55291706695243,-0.1401343178121861,-1.6550709788852804,-0.24895105843683235,-0.555531926742837,0.5461052805715608,1.2371564006280773,1.786808802847982,1.126644450086352
36,0.20401739046721146,1.0720645754501685,0.3489546586804868,-0.6377050030915647,0.8237180512156301,-164.35607537482096,0.24094689890907314,0.2871313584345677,1.4472555069810555,-0.9552953378299008,4.6954038981891655,1.7729967287816861,0.5459219658256503,1.1499837613818842
37,-0.5359143268048618,-0.621293688997309,-1.674201090231469,-1.4950548862001605,-0.3676738431064939,197.9089541824136,-0.6667367668759159,0.6502236112196853,-0.3873145493504477,0.9138446920468037,-1.1128821987770898,-1.2098539468363518,-1.7946472871923418,-1.0064855851599364
38,-1.039477257428573,-1.308757219842351,-0.3101045371495118,0.8323877333893569,-1.5221784845789053,100.68204490514991,-0.6226739263273733,-1.3119660454971631,-1.2008281196358108,-0.5717474453379293,-4.791982179252388,-2.0932834011035335,-0.5077044174025381,-1.0981626203287542
39,0.3507472138220998,0.8905542794862334,1.7127829125681546,1.477937788803855,1.2965058972154966,-179.38206113628024,1.6138358645022328,0.7157523961565792,0.842739998792895,-0.6688319687938716,1.498384339945544,1.2804020748411589,1.6546883949545728,0.6985645811730508
40,1.982897514220374,1.3479948226323542,0.1805848897046049,-1.1411319990961166,1.7207509529312386,-45.37131402857086,0.44981399341998546,1.5178214363037612,0.7813307223386998,1.8641057550593743,4.640946167556751,2.40138019405707,0.5435329985387317,1.2021155695750145
41,-0.6791950813344175,-1.0627951507256332,-1.566565468744541,-1.3332557932338251,-2.234687675638292,136.7707986711897,-2.375497975127641,-1.9756295180509176,-1.034553977759597,-0.08753159892678081,-1.6569070806684425,-1.5254763286445274,-1.5004223559382803,-0.40877991832087623
42,-2.70376350064672,-1.280402156464364,-0.0595968799967023,1.554423832707701,-1.4275172327144983,11.213630779374492,0.177014559865053,-0.9327170458247129,-0.34990733743671537,-2.6232012872206374,-4.386547654982494,-2.5885445775928533,-0.6281100391853035,-1.4271592461271494
43,1.4074524969817268,1.1267153744080718,1.2535153045739602,0.9854527923409402,2.958893148122786,-85.66720777192903,2.69684398295527,2.676232736508438,0.9844655075282404,1.0765955226433337,1.6274628676844145,1.9437968231684732,1.4377138206303839,0.2972681992550245
44,2.956094160037535,1.2021574110474875,0.06247528791052254,-2.0006273145117452,0.7606757583234993,-0.8375183384581704,-0.9880760393747937,-0.10218975256065954,0.0627260707803202,2.742846846883951,4.159379765139987,2.535658550399455,0.6659930453255462,1.6351800291077654
45,-2.2664988331839804,-1.148616607337103,-0.8698998691586246,-0.3641739054303746,-3.309581035573625,41.285622613457505,-2.505576799781734,-2.5902264725372683,-0.8285189235920932,-1.9567893752228547,-1.5192362523560272,-2.435008814564902,-1.4851516425210174,-0.4026009144760399
46,-2.6883100554551085,-1.1700087420160596,-0.27476769312673427,2.310182046458177,0.07558665590203449,7.707752655685145,1.6643874530776208,1.0716390607415596,0.010272881191987446,-2.3653606971774255,-4.048238804988735,-2.195294580412772,-0.5719510685615682,-1.6937540321233986
47,2.973525379478442,1.252334933905305,0.58958881027417,-0.4970046268902907,3.245054233065101,-12.644904973369965,1.946916649880423,1.8455856587837287,0.7673420565436857,2.5006755442323256,1.4964351573548476,2.8517349140070585,1.5896138547744907,0.6652426208462963
48,2.042916754072125,1.1567378787368294,0.6876105092592079,-2.2753907610381887,-0.8595304317341913,-20.947666624489763,-1.9899361121138541,-1.5333867362001439,0.055557669797748344,1.797109849834854,4.061094332815737,1.6283723470145173,0.32730046684510705,1.5470715202541951
49,-3.368476857878241,-1.5662995137758586,-0.6107201501409997,1.3954871973034089,-2.854539799796593,0.6006600653258992,-1.3109638605507037,-0.8826097673102604,-0.96273733128544,-2.7138547833997824,-1.74054921597963,-3.0834161343598487,-1.6903050964298016,-1.004665130193917
50,-1.2524583120499597,-1.0295521769629479,-1.1591309392320737,1.7873546040530333,1.437918876479906,30.96483555593329,1.9563954997473798,1.3497655157445587,-0.050672833957595434,-1.3248838201802375,-4.090678913518362,-0.9712900613314582,0.02769347204691074,-1.207953529963359
51,3.4640640157893006,2.1405084878817027,1.060165277099567,-2.0068856209120387,2.307957630091213,0.15523105295078182,0.8810103629596497,0.2368883520928971,1.4290305522331945,2.8137762103933164,2.3773518352938106,3.111914440473345,1.770358157591958,1.3732884225143545
52,0.5054245372885096,0.5852931398569474,1.4444644946703626,-0.9551598047522357,-1.777048585347861,-33.083572950802456,-1.7559026920531098,-0.7672811056471375,-0.2723620637337549,1.0447922645275804,3.9218014663713068,0.36112173211988974,-0.44892324523254845,0.7031367711879579
53,-3.390745893252542,-2.8706062815964333,-1.906420217273066,2.042447615678747,-1.7664011061545561,3.031754785973458,-0.7844594293992383,-0.2538427037799153,-1.9865603778921386,-3.07448027965211,-3.390248123192044,-3.0048868815547305,-1.8522810164188235,-1.7470955706778986
54,0.13336188743749736,0.3466492819053099,-1.2958447122849757,0.10782662383363908,1.944101696267966,27.990474685541905,1.6605620265163663,0.28400285917166096,1.0566943971558398,-0.8118618453713754,-3.305186366053982,0.12805602565935698,0.9364015388990349,-0.03773005940422661
55,3.2874713361122,3.4877548924337223,2.9382566820781673,-1.4259788007242276,1.310072192397924,-4.59898948559223,0.9335089232113416,0.8944897890269737,2.3193157580918062,3.630304821907131,4.570745164688478,2.859142754165995,1.9449532655710355,2.078152436086036
56,-0.7109413758525992,-1.773362525503611,0.5852524974676616,0.3460450026422178,-2.033758750755345,-19.62243327487272,-1.8583263009052604,-0.36863329805448275,-2.230330039239194,0.3442558077660735,2.081957611308212,-0.49882906860917814,-1.5291022675486698,-0.7838916747657594
57,-3.2145125559255674,-3.651045358908686,-3.831327460464271,0.3733998904110285,-0.9287871634248629,2.599245388124765,-1.090517396534158,-1.7493318692248854,-2.1204615917911473,-4.359850319531399,-5.553453081224831,-2.7385099303157543,-1.9927384246186863,-2.2693512969833667
58,1.3101710439392145,3.4588281049393657,0.6162064027088694,-0.1283396856966493,2.0944357069313453,12.192150799611863,2.3429674023480294,1.1873286424454512,3.4958005545025523,0.5790569697076428,-0.3024701779387905,0.7937913947263956,2.246457774370343,1.7023290370411521
59,3.135077385426024,3.1166888738876324,4.273441352445719,0.6847416836537097,0.572669616629803,1.7497115846550324,1.0160527776765187,2.2580381974420294,1.254709875905679,4.923198833551939,5.943206366097455,2.6484637547000895,1.8776785434597185,2.2089772809051276
60,-1.970126383886732,-4.965511540504196,-2.044003078117229,-0.7510115228106545,-2.105196714471206,-8.01533659962316,-2.920925505143845,-2.4933825531900196,-4.437582244483348,-1.944424930215181,-1.728853375525956,-1.0427910717678825,-3.0221005646536594,-2.5700533495619253
61,-2.958995951661826,-1.8963048889722245,-4.0881631398287235,-1.2999626008943534,-0.21691964153791388,-5.916986077873739,-0.6084333298368707,-2.0122027696123617,0.1492975355608955,-4.933563450121894,-5.488472292415407,-2.5579309841247118,-1.485081781981097,-1.8468390356352569
62,2.650680949465319,5.822867373787391,3.327457720573713,1.980800934491349,2.0126075234414564,6.970921378175885,3.3250585654607985,3.740981934699597,4.699397876936043,3.4554800146217826,3.5243850049676575,1.2356923131691366,3.686981751948561,3.1836082434636284
63,2.607187471360274,0.30422526102436237,3.302711172341956,1.2143605338586514,-0.11045331087098756,7.984497316584147,-0.04615335757903202,0.9736571054070353,-1.7292735682859537,4.168119438777565,4.220862113702115,2.442945623215183,0.7934034373985963,1.2545759566336339
64,-3.2500371541536395,-5.74728026228005,-4.1188376540914895,-3.0864713364586116,-1.7914018135843692,-7.400022649330901,-3.3630641714543863,-4.35709279437661,-4.143837583772717,-4.639742235549021,-4.5873584320336045,-1.3385120929373298,-4.028285244744176,-3.3734542742925706
65,-2.0572237487036937,1.152508905425482,-2.137254122108359,-0.4724742723300159,0.3545582557653721,-7.636029081464625,0.7349574042128807,0.5049932266512882,3.030491515835622,-2.7052263729568145,-2.4859427780458345,-2.3138183644955146,0.07356954859578568,-0.620055457477186
66,3.652128185121836,4.794286035573498,4.212714874955459,3.643478444757372,1.478738478705452,7.57563520499323,3.0136703062052175,4.022364024124093,2.9152977742888035,5.054516849886957,4.621207476082249,1.334800291003405,3.8987509816712116,3.098696581035282
67,1.3539558260611715,-1.9978200072352064,0.9252231224702648,-0.6135060913846538,-0.48654488417490055,5.935433303562619,-1.246763535985251,-1.857550297868124,-3.6886548450346646,0.9194012227997085,0.8349512516805164,2.205124319168812,-0.8758783126367815,0.16947995275133793
68,-3.773705784209228,-3.3512969541952,-3.6131232243780222,-3.457100326533124,-1.1566640547366467,-6.793159323382552,-2.4207948097492618,-2.8168195066671453,-1.3783491659010119,-4.489221245095272,-3.6783603338669164,-1.2547941969796081,-3.3124815725689105,-2.486268295409367
69,-0.5910024736720453,2.010075238620744,0.004362153991318989,1.6176196883034375,0.5385252035132613,-4.322670545605263,1.4880555118309022,2.576051835981169,3.5668020446197866,0.6611888773443255,0.1887392156888176,-2.139982629020106,1.363073332041572,-0.05722821046574479
70,3.5923416341728687,1.9650187818594713,2.5260656605339142,2.626571476792754,0.898557048926852,5.547503937349442,1.7979188984330523,1.1674143987354575,-0.03299991703663278,3.069152288399009,2.169850171158373,1.1671944650434314,2.4639118038174552,1.7861255873069277
71,-0.12289083986454115,-1.3261686616279658,-0.4412376998091038,-2.1912340246277764,-0.5927448517005784,3.5925987114082276,-1.5229503784177836,-2.4362098679429827,-2.787553015388915,-1.5680025472794785,-0.28006724499191665,2.099817124040967,-1.4020413414957449,0.28307190796642073
72,-3.150297418403551,-1.09043543932821,-1.279623805396492,-1.475430078155294,-0.7205284495179655,-4.872924237330052,-1.303740323891699,0.3599716870512595,0.9798999657638511,-1.2154602947559796,-0.7159850459537231,-1.1399310375374627,-1.64837899570936,-1.2617809422861317
73,0.6999815419001935,0.37147092585705044,0.36313448062881265,2.201620761110886,0.7330940727797558,-3.4979149926185324,1.521659768580218,1.574063949547731,1.658106049966519,1.5830112141242056,-0.4855784760011772,-2.0233672969521823,1.0532039884904072,-0.6813256420415101
74,2.5363700212804057,0.8901296167536294,0.19970374361892917,0.3934281091636012,0.5713406611508597,5.39436994236708,0.9593829575614302,-1.3105996938725364,-1.324734304119665,-0.5210150777168522,-0.10690968111346677,1.1986520753633545,1.1212662912665927,1.0693717268668117
75,-1.1012716212752203,0.34444042366350275,0.06930831395115203,-1.763415453621948,-0.9931225182406365,3.166618623175655,-1.6537150917584587,-0.39577832976950567,-0.5349772789936871,-0.8259300352232768,1.6709719058188888,1.834229683001547,-0.5464264296324892,0.9898997229453965
76,-1.851011578424256,-1.1795668601268436,0.5107145456664849,0.332406615137109,-0.3640050153498381,-6.757212925704351,-0.646635266559343,1.5154887705192512,1.1441411127414787,1.6833492231415157,0.015215450814244524,-1.307813695716475,-0.9714019393214269,-1.1823519261491027
77,1.344684102040231,-0.4598027488641758,-0.5937547863218534,1.1620523735724377,1.333454345235955,-2.0078685272960786,1.9865682513737801,-0.6175949932882716,-0.30615023484975656,-0.30183029236689335,-2.658598698148611,-1.4780149172948738,0.16400773982515898,-0.9701860205438143
78,1.165429256289007,1.5314691479881537,-0.8375529568282926,-0.6274378337169887,0.02433682301369337,7.836322318187649,0.17952336860515777,-1.1265357101925586,-0.6614574692146382,-2.0962386121748584,0.8505438172696831,1.3787781738379308,1.079093754884169,1.396710680905678
79,-1.4856561048761543,-0.0879274440209387,0.9706707177040611,-0.7117213806108122,-1.6578398823978462,0.4674205308691073,-2.438561819197813,1.1127897870465608,0.7458948885537823,1.298253607428872,2.9221622514624555,0.9514591471979369,-0.09122115029557304,0.5267712284387202
80,-0.4929517143032234,-1.4754802960737805,0.9354313561990115,0.6429307400304671,0.4737374691144453,-7.626135980994475,0.5923828482086255,0.5197212837652174,0.14166204111146766,1.9341060263842758,-1.9765335451236776,-1.2952153244756839,-1.184022562521706,-1.4182764166870392
81,1.5736714388180748,1.0460696507348284,-1.0937467784913113,0.608388098566891,1.851936955139086,-0.05157142994801099,2.8021659541521338,-0.993204852790968,-0.8266195218398383,-1.7931600210026046,-2.2706585017508676,-0.31815064899962575,0.3139324404792487,0.22567708190854324
82,-0.2073118512043652,0.6997794911134622,-1.0285107279501235,-0.6743482762078481,-1.0999878372579648,6.242934988637745,-1.696545585159553,-0.1241800857195766,0.20481370457885859,-1.6310284971568443,2.6954573933597734,0.9483946081792061,1.030247736458915,1.0017797282608802
83,-1.6048410467340644,-1.9541539637401817,1.0311257726790586,-0.8337675898230507,-1.820665664522425,2.4590772456737042,-2.8221491678132886,0.438304645974572,0.7034618282287542,1.7279921529223925,0.9540238354355176,-0.28892385618015365,-0.619126332902822,-0.9842935936264163
84,0.9865282134420115,0.8193925153470898,1.2797222047019934,1.0156926663886348,1.780003581662461,-5.295442359350926,2.9983085833656182,0.2478158920016042,-0.28035009869498767,1.6624287398822657,-2.486895868559818,-0.2818107356766751,-0.515416798332834,-0.0874696250346154
85,1.5012755588676423,2.3211680345238883,-0.9744241524044922,1.1486686700853626,1.51039778570534,-8.248928015055728,2.2975059423940736,0.17851736962855774,-0.5702610829277891,-1.3925119571672389,0.42561792506095375,0.6844953595223501,0.7025420892117656,1.373252573653137
86,-1.838033324676626,-2.7946925913407212,-1.69522068594453,-1.8028155788305318,-2.412944857323275,7.148472241544185,-4.222110084549327,-0.9564425097373311,0.11300721125313427,-2.2931555251229914,1.2282128169365063,-0.6607870902833253,-0.23300473994314608,-1.1283469476541712
87,-1.1416030430998672,-1.8101491065541826,1.1196344024507916,-1.1880003011157774,-0.9181716709806541,15.908914218729763,-1.1735028604961744,-0.4395020479136776,0.586709462892062,1.28726823602317,-1.1699492588714855,-0.6796132254113477,-0.33398017415899267,-1.1165072613431026
88,2.6440832302214172,4.711670497582161,2.116312486635472,2.910612806602843,2.887620646789104,-13.248046972076198,5.028936538604557,2.042073923235804,0.1701396047560176,3.4145671212017525,0.7217994996363333,1.7070943006564818,0.8991056620120695,2.2374445366316267
89,0.44089595174106827,0.3753834634538549,-1.5414968251665029,0.63321888975861,0.09668599976321289,-22.171573149156885,-0.40705855836129706,0.05215985154959932,-0.824377781234977,-1.8643656647375733,0.8015990213186679,0.16096704587796004,-0.5007291901630301,0.19531641979474898
90,-3.1806133017707983,-5.996470678791285,-2.3071772522798986,-3.9621248859958067,-3.1011095663452397,22.39020311476106,-5.131429925133583,-3.0941426425893774,-0.39842828656345525,-4.562940080959829,-2.656988507403584,-2.5799318974754533,-1.126392064086156,-2.781952182245789
91,0.5569900543844384,1.6923775105376624,2.1306522917792203,0.6043113549445297,0.8433236887694556,23.837606073654282,2.1185217357447033,1.0179989587400045,1.2441375236241219,3.269023162057629,0.7025914057145105,0.8288318311516663,1.557152132610899,1.0943780227957247
92,3.1986108964456132,6.220929971995682,2.094858091983919,4.470023234974831,2.986677178764572,-30.165664717284926,4.411377258812281,3.658770570242425,0.42662961263474636,5.127674023507964,3.8260208696692675,2.9868383313513465,0.7059460987407438,2.4749754968218247
93,-1.6339269935322898,-3.840700579198143,-2.634504923845226,-2.2822137868965995,-1.743535348158213,-20.416359102817708,-3.5428355650981076,-2.5098456438708916,-1.7139613834624785,-5.220208825314396,-2.8799503736592023,-2.0613060858483845,-2.422830155153343,-2.237872253851778
94,-2.5547404274177694,-5.2754553431565965,-1.4850906486583373,-4.0655083087508554,-2.5470051956587985,30.45913328186926,-2.990789579727833,-3.4324917042322576,-0.1947217322834168,-4.655674415764334,-3.7655195559268413,-2.747048396484215,0.28960956364879026,-1.371097679881789
95,2.4453224949743477,5.4425584290464135,2.7884696547373475,3.882572571107392,2.4333069104822527,16.07652495821802,4.315299527484662,3.957039068871775,2.065152017829639,7.108502497162623,4.977892739775148,3.1808464607629245,2.7099534593373984,2.7294469367663012
96,1.3223484941533823,3.4327851398573035,0.6834034677562907,2.7066899411490972,1.8734398850922382,-18.823562337631824,1.212324982185303,2.4048957880007094,-0.24787554056843225,3.0938144478275293,2.501473475855154,1.8899540446462784,-1.5046756222019444,-0.11802366906131886
97,-2.6571199267604366,-6.035091574848282,-2.469495596012466,-4.824167625112065,-2.7863890438636596,-19.295216584163352,-4.26883336354041,-4.881077632063707,-2.1655400835235126,-8.273063432175835,-6.286808971112897,-3.8405072384713255,-2.2602130118286707,-2.3270920633634664
98,0.1907093673503611,-1.2561120063346707,0.0012735690454971625,-0.7454739918755278,-1.1286253906183854,-3.7610018548471866,0.4807408802110988,-0.8716720095668291,0.76785172119707,-0.8328489540673656,-0.516869954700497,-0.6610685093815329,2.4498735592295997,1.3964908916189793
99,2.1072164112388765,5.507010470999259,1.7809783900966416,4.735870091526414,2.7728205135608963,39.51386440917011,3.5030796944506624,4.9975929358398705,1.9738894181560904,8.311722882191754,6.442818759400085,3.848051870491982,1.2517268562897552,1.1924204994685814
100,-1.5450350233964663,-0.6254189582778953,-0.3238256668675464,-1.2040380839770843,0.4885304767893318,29.023428878848843,-1.7192480455673582,-0.6990106478018009,-1.2107702798080067,-1.4750423081736859,-1.4942629792375328,-0.5785776298621487,-2.7392934963883158,-1.9698652253410023
101,-0.8996094029052139,-4.137181261530523,-1.009310766087905,-3.64313877053341,-2.4709493192790393,-81.80476126441233,-2.3312577021495953,-4.326035039129995,-1.5473060757950525,-7.252981688491648,-5.54710002378386,-3.2393779299541907,-0.13670127693768233,0.1775691307444923
102,2.3482897696537153,1.7750972384888704,0.2438623309816988,2.5388495477626547,-0.07087972909527221,-43.27611299055143,2.349168829503681,1.8774830799274094,1.4652779596139576,3.2194674971401906,2.950265410778458,1.5064326364431588,2.2944575143542583,1.6887865134599833
103,-0.627797441577818,2.4541121451070285,0.4678153587561144,1.9578884949763544,2.0243985441022523,142.1645672131357,1.1246206303411597,3.144191586952232,1.0024961427995749,5.5020352086789,4.051439465047725,2.238320358882037,-0.5739525231998995,-1.2019159394819665
104,-2.414766389120348,-2.1116777865798055,0.049742574137535495,-2.935418957751737,-0.10565000142682725,33.08320061380279,-2.4585821812555717,-2.4420403762362324,-1.4940223934231587,-4.082509898829719,-3.6086852186360763,-1.9580966417629693,-1.3978682469729204,-0.8077817498230692
105,2.0466904366403997,-0.9831156813985655,-0.31837092597674327,-0.27545926198704196,-1.5670570126187082,-206.47054558247527,-0.1411082827590453,-1.8243615171967436,-0.4604819611814636,-3.611697969536979,-2.491798009512963,-1.1340985748164956,0.5720340464336752,1.5098997322478378
106,1.8222429664408901,1.8928035666542014,-0.25173237501273577,2.4668885091749098,0.10355126739324416,7.603309333148363,2.276184009410437,2.417910415515667,1.3226541078225715,4.1095178204456,3.5885672914690123,1.9514110863621204,0.5554189221518426,-0.17541443373726906
107,-3.013778272260961,0.01323557273066249,0.4807646103467691,-0.9038451175263633,1.1650178781720126,254.69111641833592,-0.5606793592228663,0.6586032492445496,0.009204812531276604,2.026037302220954,1.2303849440614831,0.15603933103322581,0.08320570708518046,-1.1074456148620102
108,-0.8459096672155726,-1.533620336159637,0.12352994267010158,-1.5167345007583357,-0.004137835656454803,-72.68571293645135,-2.0103199543791006,-1.9869622672796392,-1.0073905715816345,-3.5950670437772683,-3.207252570841983,-1.620818551425391,-0.2357759676343583,0.7988182131955909
109,3.387640332189669,0.4960064923173286,-0.685816900553635,1.3747387245882654,-0.813408922320854,-269.0740696951375,1.0770998915096153,0.22656501209086385,0.3026583064960457,-0.9362495206127148,-0.34380387829231696,0.5856402625493472,-0.9909683496423604,0.3268407220192484
110,-0.18148165422118245,1.3657338328691375,0.365915429490417,0.5572133318779255,-0.15099778928915975,144.73410225750217,1.7359097396863465,1.3504736892054883,0.6097139488866807,2.8859430357314837,2.754568592381754,1.1223374464450344,0.6274495598720288,-0.8635246972738867
111,-3.240193430757573,-0.8297492411789048,0.6369192054934899,-1.2551734223608595,0.4842350148454683,242.36753003329375,-1.5290240070418486,-0.8406681627514894,-0.4534486316719335,0.2946299813804522,-0.3086215701777688,-1.0805390638552392,1.612781304381508,0.391285210895749
112,1.004446225917868,-1.4666840751684802,-1.0235962456128824,0.07306749221457054,0.3705400143129222,-201.6661484463642,-1.3974523205474014,-0.6394031474589668,-0.19076287891855134,-2.2244055631812136,-2.3435826602377143,-0.5719966056927581,-1.5429662051841637,0.48539064097904505
113,2.7782582492804426,1.3139674620046424,-0.1801315852108913,0.8576452289780077,-0.18174744118832267,-181.57439451491683,1.9457136406512947,1.2398497001824067,0.43964946728943666,0.06768531257608616,0.9126234329641741,1.3611022538137478,-1.5439388224798536,-0.738041155931368
114,-1.5158393817128086,1.6411268058558173,1.5410524222966362,-0.2813823413049423,-0.6723037699808664,226.08395647498418,0.9085222529142671,-0.08979205949013658,-0.18393703157340227,1.6961251807412485,1.9063585785662815,0.038410970705285284,2.514352117516507,0.03119619225228577
115,-2.2305903288672306,-2.107415990500538,-0.6133151187713438,-0.49922275002833466,-0.042917022940427096,105.03892216530386,-2.243751865248194,-1.4575816920873574,-0.28060343786883607,-0.31274077743288875,-1.5457191862589355,-1.4598086545016205,0.7120172160647587,0.6598316466755529
116,1.7503690234272171,-1.5499070723201893,-1.6559253965158058,0.19292834065096487,1.0303598227315636,-212.35699877758594,-0.26022431958038633,0.8064359779190993,0.44706402566648445,-1.2692011018456262,-1.3034227637363938,0.43477476783610014,-3.022046533924545,-0.3930106508317529
117,1.7572754823469883,3.0946888570482756,1.4869346203743756,0.3564814977058084,0.13107282523038302,-34.508807067628865,2.3038234839958713,1.496926039071191,0.029007294634808507,0.522554223714466,2.1290803682262465,1.402435696884996,0.5901365836124014,-0.32004128428741685
118,-1.824761509914188,0.9117548233343701,1.2752219010946135,-0.030244193953019947,-1.3609452636814474,167.9365741492228,-0.4460279274964425,-1.4654135104817696,-0.5479176393895405,0.8696218939226051,0.45476664191031874,-0.8130810409601424,2.739186406779646,0.46378986548101314
119,-1.4129058339295184,-3.9272948490619504,-2.124492898484734,-0.4232094255655002,-0.07586418469113665,-13.403912682806356,-2.0742954104492393,-1.3654067306538726,0.22938611714590904,-0.6919300290827879,-2.488605250534714,-1.2220202864409648,-1.8409340149114404,-0.04265087591591888
120,1.8642291099217365,0.3251661888539905,-0.5055678462223713,-0.020226612702067444,1.5655428439291936,-108.91324041858225,1.05947262459022,2.0106839717428637,0.47895543902458015,-0.4448683901188444,0.5908067332266851,1.0771657512660633,-1.678412292579976,-0.2888279271680893
121,1.1632178893405993,4.186619096824121,2.2871050519430973,0.5645502344156595,-0.05252694667180355,32.122297099459246,1.616834985109501,1.1027602504248588,-0.39770801636183317,0.763041451585921,2.462738835593867,0.9649290147640139,2.5221233579324283,0.25523100198335535
122,-1.9490920009827934,-1.9235788833130727,-0.4062037663568226,-0.109979016300898,-1.599945684209649,52.97721854849927,-1.4784121437853583,-2.408709184597352,-0.2919696180317321,-0.004724971154703772,-1.672352108526861,-1.2372630839313403,0.18379468676856547,0.017597360304136205
123,-0.9321975611852718,-3.5878643114307174,-1.8986250985865747,-0.6184225899559987,0.14442549206149188,-24.89552586925354,-1.061927587597982,-0.7694762921915307,0.40720698425434343,-0.6720570602126907,-1.9838507134037988,-0.676047971629356,-2.338690321852435,-0.2742709562604744
124,2.0968691757082327,3.4354887313347633,1.17739497786915,0.3654225752476733,1.5119093190270754,-13.653945070542296,1.7048751918159295,2.6699373265345985,0.08698082935538036,0.4252419847759599,2.5847891059535613,1.3328091357554799,1.2174749336976005,0.20349390312585475
125,0.6500962137124942,2.1288467759780083,1.056045911753782,0.48628658798102087,-0.1267629639560317,1.1345662830484158,0.5159788592324429,0.4076661483382396,-0.2541346834023926,0.3885081244580629,1.0998641049106717,0.37526726790229986,1.335086065897763,0.16192724967692648
126,-2.2744833994316505,-4.380466057462293,-1.586841620593198,-0.6212926109862894,-1.4111561494397655,-2.1207253390812757,-1.8141234157941808,-2.830177911967465,0.028695703525108366,-0.7296699482568761,-3.1454514066839088,-1.4076126641433637,-2.032297509335077,-0.3001734131140238
127,-0.28211015629713254,-0.11625270664832646,0.019534652269202014,-0.17378566600506598,0.01761365079794787,27.75568457254683,0.001589538657220215,-0.01525808603359381,0.009503543233654833,0.06157870504634211,0.0478275070467416,-0.04931037225663094,0.13261438622425212,-0.01649768374603391
