,AF3,F7,F3,FC5,T7,P7,O1,O2,P8,T8,FC6,F4,F8,AF4
0,0.07715515105439269,-0.022152594404853065,0.018420961960135523,-0.007497432104530253,0.05156377850370725,0.01935636803422304,0.03122717339052432,0.030981484352839286,0.030678194018388585,0.010075866610482799,-0.04542083798913194,0.05531962498088729,0.024585198874332248,-0.00710872922435711
1,0.3888244850308331,1.9888016993640847,-0.6896350096296351,1.5383511687108609,1.8106587329767982,-0.5288505124620188,2.9969021347331046,1.3860928840765412,0.4610750991823445,1.5871024951268518,1.7043662434304927,1.0883188722850656,1.19696088638746,4.177519855090351
2,-0.9763734103213788,-1.6395027095716002,-0.9309014884462248,-0.6855266937871279,-1.316116531223865,-0.9570130150109016,-1.928110338728817,-0.7973728980579939,-0.6280345408502488,-0.9980329449462108,-1.296892192176454,-0.9099450808103894,-1.4081768452964385,-2.198339073976929
3,-0.2126080893213198,-1.2751087093466011,1.0199789080027726,-1.4547932336466067,-1.3229259190471894,0.8012778897085262,-2.210928658317498,-1.054164985872163,-0.39833614935261397,-1.2878307838030896,-1.1977806271636722,-0.8623590854670532,-0.5416291068690537,-3.2788031305968524
4,1.8975550011186078,2.985941520005575,1.7004921678575853,1.481874109762706,2.3907187845517575,1.7754526042096141,3.4102536147729574,1.469826630620925,1.2686333907536804,1.8928202993308032,2.450461446982236,1.7036283749551653,2.4670486400042355,3.96863964091846
5,-0.18159889190911616,-0.03533639917380042,-1.620633508207464,1.161168565030154,0.435936532105982,-1.3104673132295863,0.8300379334646468,0.376102906512964,0.21637637664997283,0.7132506982774907,0.2375266406351204,0.397778450524874,-0.5988058555290965,1.7018089599192425
6,-2.814008594340941,-3.755958239208472,-2.213839907042727,-2.3742862056499736,-3.1176834995546843,-2.3842998371130575,-4.1790061022038945,-1.946511124225424,-1.944057583351423,-2.603352955546072,-3.2439556262497704,-2.3562593819135955,-2.981309735402813,-4.997601903684525
7,0.8520950154048664,1.6410646860103022,2.3576611159755414,-0.5340024757799929,0.6892999828885863,1.9564279365978234,0.7596647810360956,0.5506560239380158,0.1317510949897378,0.04650548475457981,0.9809114210422485,0.24958498029910087,1.916428209102365,0.13013600137000658
8,3.620207442805456,3.8342083741218738,2.429662603267035,3.224773447567314,3.4000017863538057,2.736325526329457,4.152326459615224,2.162636248574567,2.596008981192148,3.0712207761034893,3.6080530280996728,2.793321104859363,2.908978929753217,5.225783861836491
9,-1.8083775947480232,-3.181913338141088,-3.0845165149703,-0.4681066574147585,-1.8409230312291116,-2.625565135324635,-2.13967962407899,-1.6088502766727384,-0.6580857113215529,-0.873732730900722,-2.237448654911826,-0.9812695372420868,-3.1007908045705004,-1.7866919507318808
10,-4.149475892950396,-3.275171426215173,-2.376097841459623,-3.8099218199587384,-3.2270442496636575,-2.825352105754784,-3.4752874219697767,-2.082217546120235,-3.1401981921062,-3.283384637863613,-3.5728913313978183,-2.9677895590155727,-2.3677480831642663,-4.822963641025421
11,2.9539499026289366,4.32591470260253,3.679390323396138,1.7270292362360549,2.795599563919813,3.2078045238186803,2.986013816616113,2.6682467119864697,1.3191453497774268,1.645413513712071,3.3398706809822243,1.6625366854718384,3.92892850812022,2.9647444426500233
12,4.240205738515857,2.2850654331184637,2.125729898161254,3.9322747118528256,2.6851382511489135,2.677785338171714,2.4577504412314766,1.6908555357926989,3.5061558540794255,3.275319360507369,3.2367683262186238,2.8866988945138674,1.563144290023931,4.088332481716666
13,-4.07350849492092,-4.847508985626574,-4.064469195322191,-2.970422675079108,-3.370631854906223,-3.605662541105021,-3.1582227724741654,-3.5782434727790906,-2.0290752036738318,-2.2596750043275295,-4.149876675043851,-2.152851027678439,-4.300076736031061,-3.549201279700287
14,-3.8231795972205864,-1.1674494946558942,-1.7644974825736743,-3.537384830339814,-1.9409760115670118,-2.3461486050528375,-1.4644399983448912,-1.0087832042389673,-3.664027429562083,-3.1192870487007736,-2.7314552965605445,-2.623230541172248,-0.7092548909219955,-3.325929576797203
15,4.884568907312455,4.678461652845342,4.2044542285005235,3.866224223399018,3.4706720828896147,3.7387311725296284,2.724402883334073,4.1678223260002465,2.6929341845546455,2.6556150006912156,4.587499170570368,2.351487267074778,4.21878152642042,3.5905383306885437
16,2.9832009973397833,0.24693195073758334,1.3711221118027983,2.7700512300820215,1.1983304217650577,1.9112384949519845,0.7967124103174931,0.12422161664288521,3.623558749288054,2.902352013102738,2.201517618319151,2.300279259396572,-0.020683750495822956,2.7555806415502873
17,-5.139531652027945,-3.922093165635519,-4.094717562915182,-4.163283516409553,-3.1100297523783897,-3.55452054265314,-1.918646735467076,-4.279295200010379,-3.234455829921298,-2.8196558023339273,-4.633562016817782,-2.2362798002798754,-3.757173540703722,-3.2341349684514804
18,-1.9537738964882163,0.21270857777677452,-1.0128496072153341,-1.933953022022766,-0.6422827390973036,-1.487793645722274,-0.6050193561741342,0.7816332904112728,-3.4142222748574995,-2.7045023517576143,-1.7926186332722123,-2.047651719497206,0.5069240026011458,-2.4869231030594805
19,4.730739022126847,2.829467581982564,3.754252639335135,3.80874502870354,2.401873557012689,3.054500927173131,1.0502896457707953,3.840589671312172,3.603039373689118,2.7808462827663414,4.342885657477312,1.8745941414742526,3.0272294701811093,2.653921880061621
20,1.0378010371881978,-0.08161673655383196,0.7487038231603216,1.3685733142617935,0.3910097389228978,1.214902021411909,0.8578336339854354,-1.459790685165055,3.0678267756895528,2.5835655903324004,1.6277790097462728,1.9509517848734028,-0.6793507482469978,2.5391654263362984
21,-3.7425533508742146,-1.7387209890224462,-3.229809127973803,-2.9821351332451123,-1.5193517400541408,-2.327396943158046,-0.3993687435596808,-2.94098839297673,-3.765738820907063,-2.602385135964515,-3.856266211461436,-1.3992266848057218,-2.1712109760817375,-2.0215293869369204
22,-0.4904256299368833,-0.5871509939033199,-0.6248823965213812,-1.299351555795063,-0.4711584296518017,-1.213459299371128,-1.3713283329406674,1.687748497999405,-2.6163117202719754,-2.564892185793746,-1.759390058232095,-2.0152176750524524,0.5217501166951088,-2.865041457108938
23,2.421390990494455,0.9817104099624431,2.6020529540544466,2.0252658997933617,0.6437870778284082,1.561303608859744,0.13423413240647722,1.848007241678003,3.7016034486447964,2.3724803783016037,3.3808293993846887,0.9584232801076853,1.3541292989545508,1.500729992186591
24,0.42198930041820804,1.5525066318065701,0.6552582682029275,1.731329856939213,0.8225281913218773,1.5164138809841126,1.8824558843038874,-1.3988517784323826,2.0982643563729697,2.629902644181588,2.115231304828252,2.159188350361163,-0.08979094437054462,3.3517939745357332
25,-1.0798353969791832,-0.7741538555016328,-1.976476041356052,-1.2960435124182628,0.0817711677813985,-1.0032512220188428,-0.2745639654927113,-0.9205329372620951,-3.4077813668302324,-2.188731023426916,-3.119088719594727,-0.6593643620113502,-0.7363396953023162,-1.231388013516287
26,-0.7653180284911159,-2.4423582377461237,-0.797901342552251,-2.4383230322721503,-1.3263389827176324,-2.009387366345254,-2.1358368455619,0.765805854215671,-1.5582675689821,-2.7047059986529014,-2.4826271553807784,-2.2434855263284277,-0.47637939915184835,-3.8113582107892188
27,-0.017029268660067973,1.124439000046465,1.4502799140300724,1.0101682730612362,-0.5800278245481814,0.8613840832226123,0.7030961660254099,0.43768011366860626,2.908764129713108,2.12751077926357,3.165667591969884,0.5260072385351606,0.42191988332543945,1.2808167409860207
28,1.3152967118025083,2.8726742670502676,0.9507385776579105,3.0580893536803964,1.8437578708985372,2.4321100769360884,1.9565987174454678,-0.1606605024052999,1.033075992213478,2.6625842908483177,2.5678833449399314,2.1245670657325064,0.9725538011340503,3.9997247328330787
29,0.7339463883963812,-1.806588233726276,-1.0667097505883334,-1.1425608751124967,0.8446408385905455,-1.1883830140817515,-1.2129738502943517,-0.43410017341198615,-2.2519827879679024,-2.201233567634584,-3.428555108127969,-0.48780734872670517,-0.40539537262717434,-1.5826225133700436
30,-1.8155662391626644,-2.59503265453318,-0.9827475503425243,-3.2562140509390445,-2.251235220320657,-2.4669368257093254,-1.2925731115676211,-0.01879440862313851,-0.5370522322107395,-2.357296455383687,-2.1241344450800272,-1.7173158896823144,-1.194597799889168,-3.6924906980994887
31,-1.089929585420866,2.4274674992896754,0.7843415330500061,1.437269696571517,-0.9294903668192543,1.8137466671372275,1.5711256621020397,0.6529097316576001,1.4848291362914223,2.3254759186557727,3.6345615490669214,0.40728767049989917,0.5535020945252234,1.915498074320693
32,2.052785402125734,1.6102855378299483,0.7932130699380084,2.8865376141952366,2.4661855220130993,1.8885533456886283,0.2214349247988221,-0.42787774562967607,0.06594877781429337,1.6877718788757747,1.0879931631105084,1.0421672815872505,1.024995579861127,2.7955901355978567
33,1.225391574232215,-2.576300329041977,-0.48621081755589307,-1.5282918228931854,0.9303027676693577,-2.380400214721669,-1.579928450382725,-0.6684934158590182,-0.6294616741153766,-2.326154693604534,-3.436095211795157,-0.14101088437395756,-0.6464975722137326,-1.9638346741631998
34,-1.9227123526750465,-0.18675712703037242,-0.3681878445866907,-2.0705345106552846,-2.464373357769427,-0.7016011964529475,1.0733474180950082,1.3663826725764927,0.3762977648371538,-0.6671672539005614,0.3547863804997536,-0.23185028880539776,-0.4967307446528693,-1.426690321930363
35,-1.3326207866642674,1.9966906156943014,0.03144286442181122,1.1205551291512146,-0.9605286482855884,2.4879871980232267,1.1242382690908845,0.12420123515473515,-0.3193031238798871,2.0005162591999466,2.573884760892876,-0.3885943123337823,0.4702754558947085,1.4502914975854506
36,1.4475160504520503,-1.2390394531252533,-0.20035722907463163,1.150002459598909,2.2907127041729014,-0.8152323056650995,-2.348822207136327,-2.3726969478880835,-0.7470714873646594,-0.5464143869769266,-1.8215780366677707,-0.5147614581971822,-0.20674176071635048,-0.09600090117817557
37,1.58119904301004,-0.6985892719543326,0.67540112304302,-0.14417582147041005,1.1173731736746702,-1.8810969925280137,-0.1959086166970167,1.0519484746669858,1.3631229441840416,-1.2112678771981071,-1.0108864351995348,1.1461737904958162,0.0832326907280866,-0.27488148578488414
38,-0.7450089729514459,2.2404094152389997,0.7468936542072228,-0.5282174171792635,-2.056814672836816,2.1975273994317894,3.358820513768743,2.9476223657412244,0.9612498234111395,1.686521391272084,2.8833704315891997,1.0178060718085415,0.824434795152954,1.3696182829984238
39,-2.069543058086038,-1.049908089440243,-1.6352006433363808,-1.200211770228457,-1.4387823666815764,0.5864759743013302,-1.1068417812756575,-2.5860189132212743,-2.4560963122299087,-0.0345004917849991,-1.0352410009786988,-1.9930563488929591,-0.9613682895548122,-1.4207320515956368
40,-0.02801917021726206,-2.5718375905203743,-1.0999132513018532,0.47633826376926824,1.9119622389888844,-2.9830576383795724,-3.9067430735826636,-2.780867655902062,-0.9288503726968226,-2.473533098921403,-3.237539655999485,-1.1988031496817937,-1.1307057876582864,-2.073158180719972
41,2.8185607176690097,2.85019678171831,2.75243473383876,2.5349708117718084,1.868089943565334,1.0766928259105861,2.6026933962416448,3.9927358639584445,3.4861381629662476,1.5682034910786458,3.177250835944541,2.7578953160792663,1.9744962787871556,3.3059718035534287
42,0.7248730803165779,2.246801092318703,1.147760449630438,-1.0074259138208776,-1.9828950950816646,2.908597339566837,3.883369145879133,1.9120641351504692,0.6150907379880125,2.7230874377918424,2.816569660120058,1.1099550662340487,1.0292909855649026,2.095967320319749
43,-3.79770093881461,-4.353358028514869,-3.879562372647002,-3.49102947932454,-2.255097879732819,-2.623942391965055,-4.0663320525722195,-4.829540116215882,-4.308005117789711,-3.118336287561883,-5.013025024929301,-3.332426272901312,-2.887001202010376,-5.004490281921282
44,-1.2256588713749508,-1.4844202360408394,-0.8674909116075147,1.887773820239466,2.302738817665065,-2.016733375378467,-3.2825195814083687,-0.6976044015023014,-0.0781946146349639,-2.4120003214539136,-1.7851789270937561,-0.8850378515716091,-0.5777259020283139,-1.560152380991465
45,4.9530784753242,5.39529655465939,4.878922957720763,3.8830863237374222,2.4123039349240276,3.607139571574837,5.27342450770028,4.924239885931817,4.814928976083048,4.415786330284707,6.269062895452316,3.7312893632900486,3.524277129988367,6.248333788078758
46,1.4240374703625804,0.5615705456205968,0.3050537810341923,-2.777334649166662,-2.771660960088317,0.6215396667404531,2.193695498850095,-0.3938911832021044,-0.5518619396594333,1.6687191622152064,0.4402133976874318,0.6363169832503884,-0.06865104813250329,0.7312406669020144
47,-6.208965248409986,-6.015911973616915,-5.66360159059186,-3.776153204591521,-2.2106866816295065,-3.789128819658435,-6.040360757858071,-4.44854042919532,-4.999396477135991,-5.290959136754801,-6.866332272344233,-4.069408482236213,-3.83467513073842,-6.9604925049952655
48,-1.2141257539961505,0.33823525996807274,0.4728312947962825,3.414164031190371,3.1863352311841404,0.8419490457360265,-0.7785680667080271,1.0376432103574036,1.1484638708012156,-0.697143010849618,0.9237699704053849,-0.36446257754063455,0.7552147798267933,0.12404757734038394
49,7.440676186282145,6.362032145016132,6.194118937302585,3.4107101220651717,1.663464250837598,3.208853038807409,6.250990627668106,3.800141429698443,4.952917194216984,5.713401430288314,6.890760152935164,4.462441291451271,3.8739170542123613,7.229798397740503
50,0.5118223527336726,-1.1886777764552618,-1.4149548398723555,-3.7327548745208103,-3.336322953466168,-2.0000170536950157,-0.7568939855168718,-1.214372534627461,-1.6664113617928398,-0.3212572592493079,-2.111085135762472,-0.05093298294815688,-1.405705075648299,-0.8476604298081648
51,-8.450515324372052,-6.545220368519218,-6.4410101135424584,-3.0404352704187563,-0.9407258661411173,-2.1186824471669774,-5.870803806589522,-3.364987446369564,-4.79617969873635,-5.7576103792942765,-6.503422798067371,-4.912573945201832,-3.7292622837576115,-7.208544657241254
52,0.6836180669423485,2.064848178335492,2.479004995803439,3.851200084273098,3.1176382855394027,2.661867160688387,2.1869398546869387,1.1883609216338766,2.1618420136523233,1.291550516564912,3.0438670181323655,0.7618766922949923,2.0315133258236737,1.4102005522426564
53,8.990136494965993,6.551902264438256,6.352492246647165,2.7878365106889635,0.2954023433230214,0.8456614068310018,4.956133828648541,3.298580224559574,4.5856047712039025,5.5210426079162955,5.852440627233885,5.261762447869726,3.439339964477736,7.007764009214577
54,-2.2244930918526684,-3.0147679484760315,-3.5867238230114213,-3.947821119130459,-2.594584756950917,-2.8339168486965707,-3.2916275396433727,-1.3194633943870238,-2.7316088854976166,-2.200910964665102,-3.7152240528777445,-1.8143738823725168,-2.6722303053747085,-1.8466008498658946
55,-8.846305427300047,-6.266448379296326,-5.86690788996708,-2.6054209864471747,0.06127894534299032,0.3392000607996615,-3.6625089438093092,-3.4537603756352375,-4.266502483063361,-5.049297291441753,-5.03590371354264,-5.258030266723985,-2.9669381357388014,-6.659052646560166
56,3.804193333928242,3.953688371714755,4.582805463210722,4.11676001761989,1.9693041102244262,2.647331199798622,3.8964488643328585,1.82354546665776,3.41023089071709,3.0528145791607106,4.126070811887795,3.054404367608903,3.3137038470693407,2.1689025085385825
57,7.9567797166352845,5.590535299808679,4.97515303134762,2.356309209893257,-0.06163464691366083,-1.2819621504646324,2.2412214229703813,3.4964700497068444,3.7148451836996,4.321276011339185,4.123625360413704,4.70746919509568,2.244948024772616,6.15907115569398
58,-5.036455524778367,-4.662050480428691,-5.246804789809187,-4.298836589355596,-1.4765871135795952,-2.2627966350361435,-3.930283778257146,-2.6266794200515413,-4.098777475980533,-3.7883363560724357,-4.256085073633449,-4.1503077262907855,-3.8450486623749325,-2.3278797630486436
59,-6.4865297506700985,-4.5742157263481875,-3.792202026626078,-1.9496466831511032,-0.19796608663855178,1.9314317517044517,-1.0011394474414268,-3.1383612908580973,-2.8474221992668887,-3.3102376575702452,-3.2039053930603796,-3.622880600543532,-1.2647760424290198,-5.550428199746028
60,5.602545538429253,4.898863847113157,5.373546749021232,4.327498720208348,1.2676776622936523,1.8111148482847914,3.4806256176623775,3.402770157847111,4.583900108023279,4.258247653989858,4.086607210486764,4.734808176327602,4.090547756320381,2.2536683677107314
61,4.804116533458125,3.4609878319481258,2.576880033995171,1.435692314262635,0.5236221522396787,-2.2904965682436385,0.22277357624911936,2.343159273761932,1.7284385958603459,2.0825432978214415,2.4072069776913545,2.2725793654399324,0.14561243670342702,4.96578944656446
62,-5.393437032700663,-4.56283357296156,-4.885153109492685,-4.052271463241033,-1.349067056546993,-1.3862673782893136,-2.8037230003172837,-3.773435877032274,-4.647312878598547,-4.2833775555450435,-3.652140291734182,-4.59351089645757,-3.903516129315921,-1.9431874606931971
63,-3.353090477784167,-2.601545007458457,-1.6653095617776905,-0.9994523805488519,-0.7311126195629482,2.3815781635858437,-0.046000016372395494,-1.3784611094034898,-0.5963667736932965,-0.8589012422975436,-1.8792783382190037,-1.087754116263622,0.8677569680860818,-4.590126517400332
64,4.567201356956235,3.79559642293174,3.9066437956598854,3.4566463567570476,1.603007786847616,1.0657652892006526,2.255682403187923,3.5501414997736025,4.2054901391570505,3.781701969947323,3.075534515276312,3.793010570394215,3.268459040521008,1.5246755257982023
65,2.4779018896032987,2.2767149716840978,1.3394644158613567,0.860740921619624,0.7306123718599018,-2.245854511392057,0.3884007889132594,0.6783812253351666,-0.21860751736392955,-0.026016345065325873,1.715436260434734,0.4704909031862664,-1.4878653339111025,4.5575365499722515
66,-3.487147010790685,-2.9516128688454897,-2.7521152971351643,-2.6986285810634643,-1.866860073576432,-0.9209314491552978,-2.1539943503376033,-2.872937856105886,-3.3956656794754725,-2.884504918776678,-2.5527718418879886,-2.6732682147242794,-2.3505163609078252,-1.2432846230027743
67,-2.292892461791165,-2.5337236741089777,-1.6974408602043412,-1.1438627152620442,-0.5486893948575624,1.9593680347196483,-0.9544029401334714,-0.5965700265656907,0.4492073546258567,0.26866734874978143,-1.8979511017499853,-0.6041679418328979,1.5087944353785383,-4.848692919378788
68,2.5738691083615373,2.4405894113147073,1.8196540002881723,2.0536470036415637,2.020618176681612,0.9998360122259554,2.631715998560777,2.1625472232661274,2.5519835554858,1.953324797556119,2.2873407621151087,1.7059253729318098,1.4603397128458264,1.3646664709579277
69,2.6561573048305465,3.1377801765420825,2.59434044172331,1.7907523897349222,0.2878647663025159,-1.6341805270700993,1.3518580685926658,1.192925949205556,-0.0354896063572207,0.2252218269033351,2.2796457255771494,1.3660230046011976,-0.9085132561342047,5.258053273540969
70,-2.1480662590913435,-2.528303099768163,-1.444096170291083,-1.793016891919268,-2.0368111024922397,-1.2970256079610742,-3.567263085102306,-1.9120132450300895,-2.076518139014989,-1.4601212791616576,-2.4076463276085858,-1.2935824499989266,-0.9479311924989906,-2.0470071507768046
71,-3.2478250642840596,-3.6723086681005426,-3.6827191545866866,-2.5608047500103344,-0.05521186192566196,1.3883501230374156,-1.2653427007397673,-2.174417982706144,-0.8190029577985376,-1.236576887557348,-2.628791865979902,-2.3815042959423143,-0.12025974624068383,-5.45704762065067
72,2.3336122073187493,3.2069264710259113,1.7746859356207871,2.057711996490281,1.9735774376552335,1.7405032448982303,4.637053504704059,2.4331405710762657,2.266075276309467,1.7763890907005457,2.9115178534724113,1.6101037057942587,1.0722214483223047,3.2505489608786076
73,3.699874742231029,3.7318269402631183,4.529646394976573,3.115123831441403,-0.09942034700951558,-1.2992028377081994,0.5928887785100616,3.0201086714351013,1.7098343278411625,2.2773521762345834,2.7132187432210912,3.182657227136084,1.222427971573672,5.123133308942511
74,-3.0448385340387674,-4.201106335273537,-2.7241018700585773,-2.7823394812931084,-1.9219909186253636,-2.2145906753754097,-5.464350018229541,-3.6921974992873183,-3.175943604780929,-2.9776624786398513,-3.664159589128912,-2.548915465624632,-1.8984203825817922,-4.730027752726703
75,-3.714971313612347,-3.10197509333338,-4.75729726040054,-3.1478291388996396,0.2056091409656953,1.373079522252693,0.5282400852249362,-3.220285655761073,-2.184256765484826,-2.7763977823984054,-2.381376865309908,-3.386988490907774,-1.9923863579686498,-4.07196251247327
76,4.0374491571221505,5.095692945023338,3.9972238240742737,3.7000617015882447,1.9392115412819857,2.607428250297884,5.778172715856566,5.314914928262138,4.580411761906811,4.768138797765714,4.444677038366077,3.78344813470229,3.2580116297837067,6.1109558300496065
77,3.1396019521694845,1.8400452252930766,4.157200438840249,2.5123056548555964,-0.34692459953408955,-1.554387087380943,-1.8104280668371615,2.5054494410995516,1.9166185772648248,2.3218195425596577,1.6065048937999076,2.8205491838138856,2.105597697457394,2.3352953217012704
78,-4.987918584934763,-5.510607477379262,-5.179063592951148,-4.428807976024391,-2.0033188206204278,-2.850196192178446,-5.4963738522853705,-6.749332671921225,-6.044756881344283,-6.56939691471608,-5.014458021448377,-4.893571176280238,-4.783344529241589,-7.014170540284462
79,-1.9891885461604721,-0.23339378089644675,-2.7503626942605495,-1.2935120566761937,0.6036298140498949,1.765687465784888,2.9533183541771884,-0.9555869818242071,-0.8348558439731169,-0.8453908533580093,-0.48542631546044795,-1.5526544183082807,-1.4303748099974676,-0.15780480032855249
80,5.5776232336732345,5.239912966733066,5.852327108480854,4.6097310724538225,2.0130948677826925,2.9221012200348806,4.705352538404329,7.497732621330537,7.078179286371313,7.735925750354221,5.1797200053945405,5.499098731451825,6.009756664314783,7.179365495871132
81,0.43489449554844706,-1.3263533384375765,0.7850230810556247,-0.2051503458146829,-0.994957698531654,-1.9462351880029547,-3.747303945063218,-1.0516736113915368,-0.8502151508193024,-1.3352344045713804,-0.795691493523629,-0.14612952018366665,0.08555122401756103,-2.0805450793760096
82,-5.570560910247231,-4.305956194532219,-5.7169465453897885,-4.046425799106707,-1.8323978765938491,-2.825310143240305,-3.5773544978448597,-7.303496655857034,-7.307387962517224,-7.8019225969167865,-4.833127337580004,-5.360163960484005,-6.520128657145171,-6.544258751157238
83,1.2423101595671042,2.489682625213752,1.3266474397878278,1.5618874529494435,1.4515996310821835,2.0605986739605098,4.101857785982803,3.013002008029917,2.722103631393743,3.632679123364773,2.0107607969431314,1.8910822065215636,1.5815878284322786,3.985861259921559
84,4.872203760774799,2.9236364460792084,4.6829348006906155,2.7871151582088634,1.35592445355934,2.5595907947348486,2.292258521175875,6.212984649099724,6.6034110418867265,6.653148722838131,3.970789294603981,4.429386536938298,6.08677170177075,5.252792091522463
85,-2.7251438351248294,-3.059909068355251,-3.1227952426854952,-2.3884645914184284,-1.8319121554799713,-2.077766047170246,-4.017297216659094,-4.496575386527087,-4.310253606528339,-5.410001961048681,-2.944735727491413,-3.2866542455515946,-3.101447064042035,-5.271707510099445
86,-3.550753075750385,-1.4015547528729002,-2.904404586311993,-1.1104918532239332,-0.5634471130786969,-2.124124615156682,-1.0023344696770613,-4.503544851467693,-5.112380783286339,-4.554660589615864,-2.6851256526919633,-2.853780111681811,-4.753999670755924,-3.5894960254234625
87,3.7440977507393063,3.0349955605381918,4.229247017313608,2.471915135390419,1.9724017394640152,1.9485528918692754,3.5473732841782346,5.270651616964132,5.254611942550324,6.208535070111736,3.4363529413750733,4.024943303500727,4.041109521510841,5.835363553078856
88,1.808801976251156,0.022643883759076527,0.7316392632654438,-0.5826231513646486,-0.4619967006831818,1.5467300361779939,-0.16982965036744985,2.536092363478354,3.180291563914366,2.031095925326123,1.1364830163007755,0.9280617638986283,2.8195676940817394,1.8659768467256297
89,-4.142916093013172,-2.5734213454705914,-4.471474544333782,-1.8436184102691897,-1.7475784622733994,-1.6110039005031984,-2.7821863163705514,-5.319797902228117,-5.416761957875787,-5.889683478915995,-3.4034970525852306,-3.958517272064087,-4.152420288960152,-5.758217996034187
90,0.08409529381016759,1.0493646435984438,1.4099967672279237,1.923383773375424,1.5562984290297495,-0.9131947577248194,1.133125491372244,-0.6180925097819436,-1.2070434315960454,0.3392166238595458,0.4871769504479426,0.9906350656581553,-0.71790732136517,-0.3097959426674252
91,3.9000587737480172,1.9025876567057254,3.9099665541735535,0.7452633054965344,1.1134809015016292,1.0287784411013596,1.8422802931490072,4.770727147154679,4.893718722938665,4.640513342978829,2.8444470692031367,3.1252283268091072,3.4416595057915567,5.2309871013740175
92,-1.8662780660687908,-1.800767491074574,-3.1638075989683307,-2.702143089136784,-2.522303033918491,0.36494423093034994,-1.8445945915647906,-1.0606983079631827,-0.5039310824823177,-2.121747879028663,-2.006078306847792,-2.5801727255449394,-1.1401143166465062,-0.9908433377547154
93,-3.103194978836195,-1.2104426064878593,-2.7792789809788725,0.4881190473953478,-0.12107806094830102,-0.2379167165542534,-0.8568810762364499,-3.791357777157565,-3.9323679292070786,-2.8562985957991973,-1.8179690906338957,-1.7143989410463982,-2.1299320519322054,-4.4424153290059625
94,3.333363555201863,2.324579735198393,4.337744879854814,2.911114028224233,3.181880465972317,-0.05490854109676853,2.3218849152697523,2.411320573847319,1.8320329134878044,3.1333620965745608,3.2649442511260656,3.6257366841995897,2.4922980625299447,2.060481538658315
95,1.8998482334129254,0.5714676106562734,1.365478958298404,-1.5655634266066936,-1.0985957417373757,-0.6331388579212931,-0.07963438951223303,2.5247625931841124,2.7883348948667304,0.9666262787869471,0.41882609802673926,-0.008859671262924298,0.5331298153050491,3.4927751997137086
96,-4.3496729407263794,-2.727271725654246,-4.907113531116772,-2.692438834668452,-3.4155841586072526,0.08139239866810238,-2.6215430889056353,-3.3870489056675313,-2.823007502828903,-3.4292811435533763,-4.128842572704279,-4.040702210662843,-3.259602482533897,-2.9481839266025416
97,-0.4564963426214889,0.054805771972207096,0.10424704775668713,2.3281616554003164,2.366163627080283,1.390199017291745,0.9422099963529923,-1.0833033376698624,-1.6030032708126236,0.7100710050374598,1.230382369403719,1.781163883755343,1.0658760332968236,-2.381328532952737
98,4.835254192507055,3.0384552784462966,4.937753509425042,2.2339048965489643,3.1837785520617965,-0.4359202001548961,2.781917709811832,3.9373420800319923,3.582465015817529,3.199379563878839,4.475947401887225,3.8399714469224087,3.4914532306808677,3.635570215326867
99,-1.0564990048149374,-0.7529271679286905,-1.4969646315108378,-2.752404998720866,-3.4911504211909485,-1.8386322887489774,-1.7605562923892055,-0.4153663530970606,0.36719388179986984,-2.0239361069072435,-2.9648802682094773,-3.3839578714090655,-2.484326401761639,1.0719072467109423
100,-4.754121786153109,-3.178045050527996,-4.495243877575575,-1.6787181134093088,-2.530018592788235,0.9941712565823496,-2.7717361515680046,-4.007413375023512,-4.143608317472559,-2.6430129712491532,-4.211420778276525,-3.097275832496192,-3.2759031804479153,-4.001797498013665
101,2.4620885576208202,1.5529170391491578,2.7285252384753367,2.8880451564985465,4.308065330319991,1.8576681995652649,2.551858381483869,1.8131192063934436,1.0061556432462462,2.957377982300499,4.560248500627777,4.646066776075152,3.626477818930943,0.408835582368227
102,4.119753554106948,3.0023313306049757,3.6092612908858284,1.0963913453397,1.5686287606124565,-1.5565182778064555,2.495935154539316,3.5789078928518387,4.393874656843675,1.8904236727763721,3.3114055415711316,1.9199278179439532,2.680579288636095,3.8703909012899054
103,-3.5777630726206255,-2.3673200493013593,-3.6913094858638154,-2.7858245621684716,-4.70655658856718,-1.4495653669193445,-3.2483848405767475,-2.9131508998426057,-2.544196580981594,-3.5401437824397632,-5.744523483306505,-5.429899403831342,-4.426711794688049,-1.9057437889216577
104,-3.0126326234119736,-2.4002784391056196,-2.313670790315226,-0.5137780469089399,-0.45810780955018876,1.9211282541078367,-1.8703229115908795,-2.7179327934771593,-4.1147198920744135,-1.0002124261104932,-1.8762774783082137,-0.45009152569392724,-1.7552075211086366,-3.111363275489984
105,4.235836195933816,3.0036937873913065,4.225418543365481,2.464351956978399,4.649100184405012,0.7413293004286589,3.6835852131303986,3.525431966847489,4.1002210184791075,3.778901056649303,6.25754878425898,5.630631286705503,4.806590353074019,3.144853256051256
106,1.5905208299370583,1.3797860670277844,0.7209028020933598,-0.03478197502020622,-0.6346865554253243,-1.9588241348563846,0.9174627235022731,1.5924494457548461,3.1196520307707014,0.011692343195431458,0.152068671338936,-1.1258957711119388,0.5749821236955521,1.7396464200785282
107,-4.319552487342875,-3.2427809254491504,-4.165430242647687,-1.9265017938678455,-4.169986076573283,0.062493189382073155,-3.6609449534657967,-3.531320586448171,-5.343643872237235,-3.6419893680352704,-5.940054538868866,-5.197206555549312,-4.679796853234567,-3.815178683017998
108,-0.07593297151149123,-0.09449915320730973,0.9375501294261342,0.4823344878809908,1.5682789818410428,1.6580392874893184,0.18821121859811105,-0.44264593273714614,-1.4118005664048587,0.9982444644466192,1.5101605123401423,2.5845568193203188,0.721949557140718,0.04268430655311889
109,3.798742046458338,2.9345409289396875,3.4344399317231122,1.1977635353847746,3.356190988691009,-0.7562718046978743,3.0665109534484727,2.930346207667126,5.8737626490953305,3.0963148418252944,4.806660515604395,4.159991629194903,3.9958702507986685,3.6817776291789523
110,-1.279642829809237,-1.1964597626085958,-2.3466486063169425,-0.7434886204935879,-2.2449543399666054,-1.1199230510445335,-1.1644478134429266,-0.4809675443442093,-0.7337049073230996,-1.8952241158097496,-2.7492247089378816,-3.6958992178550507,-1.9349079592784093,-1.8779270100950676
111,-2.749158343560429,-2.063117467520283,-2.120792363068264,-0.35030728712998893,-2.3209215113930073,1.2058287193775499,-1.9518851549405556,-1.8453061279076588,-5.40394343268062,-2.16081809488968,-3.0597720417253718,-2.6439054700598863,-2.788059555767632,-2.680859785151357
112,2.2437137715957527,2.2064254696937438,3.2072681932125673,0.7498876449456897,2.6088448353245814,0.5056535593471172,1.7304690920828907,0.9796721757221568,2.8173560030866565,2.5127469793511206,3.299380631075342,4.26534743638655,2.837818404966318,3.3408647388229387
113,1.3487879709355695,0.7605321367513164,0.48433130436760474,-0.5031806282493968,1.1851955277720143,-1.3844385794666676,0.5361466435219732,0.48928604234782974,3.922293903905241,0.9397803884320985,1.035383469840556,0.8589277314144746,1.1971704308584101,0.9647782758424075
114,-2.6504826159949273,-2.699958632553322,-3.3459909958740925,-0.47960005817060253,-2.6332935841136105,0.03796696343456439,-1.7170938627396692,-0.9444714915097369,-4.279192182886847,-2.7028172874682137,-3.0576991232223674,-4.171110654740649,-3.232218382043566,-4.051693413940881
115,0.1477942374778181,0.7219157829874131,1.1156966286384724,1.2366785031637761,-0.07529830420147338,1.3569741640163044,0.8692164561080509,0.8824914398752297,-1.7469270299174324,0.3787321273975037,0.8891482326963815,0.9256229528326766,0.5348734909749525,1.1125159547530201
116,2.4393033627477436,2.5519637083812183,2.7776460415181314,-0.03395799483687967,2.3152088557809836,-0.43631884920952874,1.1212976907606378,0.3676318017839692,4.707642321606442,2.386162567462541,2.091939034522495,3.3910987408497495,2.9988873107136413,3.7843637875838922
117,-1.4536132506728383,-2.0671334548649494,-2.3341270738609046,-1.740754358940188,-0.8716626092204338,-1.2245172254606236,-1.9644282367991388,-2.016168633316418,-0.554403211119912,-1.5535300362416837,-2.381509442476703,-2.4157495525820756,-2.0962967557278978,-3.065491547899264
118,-1.6764379116451686,-1.7831097177977886,-1.6931882823188802,0.7110669730389279,-1.6870266112596883,0.6996055828740372,-0.0908708345374919,0.6594693864882354,-4.002370633318668,-1.5871736535388974,-0.60338962283856,-2.0209195181184456,-2.1416060735730906,-2.545858508872976
119,2.3070579248438907,2.960646654966759,2.9401113122495994,1.943682705411648,1.5122875438589252,1.063382906772641,2.54261632173012,2.6954856699339462,2.3488602171120596,2.3393709318470135,3.2087460817901987,3.337241388638415,3.1596858933860497,4.391552388563192
120,0.5520693178051801,0.5690633182690878,0.38667623715487004,-1.443583317160702,0.8388289316816884,-0.8894596994368528,-1.1355121134565749,-1.9539802170911864,2.4231581444808006,0.44780033164210287,-1.1251041354911502,0.27979549958148087,0.8158113207516753,0.602744099577875
121,-2.533178790928257,-3.168267631164532,-2.8639464874001948,-1.8215090977167214,-1.7243997652612923,-0.8927574681121888,-2.524274328274907,-2.7785903731601342,-3.152778129612258,-2.547002803718805,-3.2611399840817445,-3.492399903853975,-3.4598998319024203,-4.708345613162249
122,0.6531848001513846,0.7857073994176077,0.8374666395442354,2.1148774252917395,0.0709057219239917,1.0656976247718426,2.295990647416314,3.2612002184953948,-0.5068784143191761,0.7861493654248589,2.776519381905895,1.5078651970386225,0.676041079400315,1.5644211964586037
123,2.092948751736052,2.60926829932168,2.1839480163365357,1.3990268661599747,1.45250158217037,0.6838406907729963,1.952866046185457,2.2363035057639786,2.7933542385605246,2.104376983807916,2.5609030035363016,2.820729343900435,2.8839489229878734,3.8771212770397123
124,-1.629999706315522,-1.9168875863236736,-1.735025541159038,-2.618114979997977,-0.8351821466830869,-1.2469486361012685,-3.1587723723310615,-4.2981048551143415,-1.1127358199421558,-1.8139702762783503,-4.042908052078426,-2.966541263739576,-1.942755965952704,-3.3804258955053808
125,-1.104428873400966,-1.3996799982169132,-1.078139175688381,-0.7445802719954993,-0.7493633081416099,-0.3968308940094389,-0.9717359537085047,-1.1775133038256949,-1.4618036671783705,-1.0993434489641163,-1.2640020545743142,-1.4421134183924222,-1.5395828156718296,-2.0678717704301284
126,2.1178172678916845,2.5024634041109506,2.1519034671112065,2.870661109671656,1.2513102349727168,1.4041532388154776,3.5589011576487963,4.82085120113896,1.914808194254238,2.361325275612285,4.673801508539776,3.7563279424225313,2.6163298320925388,4.341303872593357
127,-0.17490949587162574,-0.16006281638068348,-0.22443927652172027,-0.03834334178597179,-0.2118726535092341,0.018775286068106665,-0.20560189161807044,-0.1589774457626853,-0.35490743447974066,-0.22130488046360933,-0.3517939330903519,-0.3421394372575154,-0.24008131050106965,-0.2670325391311753
