,AF3,F7,F3,FC5,T7,P7,O1,O2,P8,T8,FC6,F4,F8,AF4
0,0.05750343015766763,0.028536240819697176,0.07674159789284571,-0.0233544359642779,-0.08313147586984082,-0.0832470657886116,-0.04223131059057243,-0.024536401716569015,-0.029998857652504693,-0.03968050447697479,0.02205947253908826,0.013281357930886008,0.03613354340816416,0.07275684191999562
1,4.4217274397548785,4.010193832252434,0.22926690936026803,5.725890917770211,2.7008574535097454,2.4290570275200283,0.9265826072954338,3.649725754377275,2.4840768692212354,1.2479690232576703,2.0986201873492725,1.4508218864972064,1.0258575429274404,4.9166507469929615
2,-3.5421031738788473,-1.4750970824220533,0.21578116241791084,-2.9112465470040387,-1.7584325134579049,-1.4633018468977685,-0.27831225329455306,-0.8055764241253237,-0.5337571794661228,0.2661009075942956,-0.2404685821609068,-0.9151166866437928,-1.2322619464548346,-2.1075595520275696
3,-2.5649309268861296,-3.0919431865223816,-0.2539502619289682,-4.11244453790264,-1.869390810743795,-1.8447135445276714,-0.7089616422516922,-2.8827762220371818,-2.1280533020767067,-1.361692631451795,-2.0462251341673734,-1.1166838760749385,-0.6576068932705241,-4.028085470920181
4,5.7842462220978526,2.234241995960656,-0.48325347453498774,4.862689512120148,3.0558368902674578,2.7322926801622036,0.4116875589792999,1.1270281802799031,0.8983868085686785,-0.4767760436741749,0.39631598260606415,1.6313480609113582,2.209474364929187,3.684199511151876
5,-0.35204801361417476,1.703607252368802,0.3255628596249296,1.4709361721877006,0.5247961791965621,0.792056077301549,0.39949455145740187,1.7047798084743433,1.5193341793535506,1.6217372478552905,1.9922971851969373,0.5099983372753306,0.033187665720413186,2.4975380421220716
6,-6.104715648396451,-1.9252340377764974,0.6881912053628643,-5.202592820232978,-3.4430972124155925,-3.471886083033057,-0.25839262472115565,-0.6788728577573798,-0.9113708868353773,0.613634864300753,-0.44793820079001295,-1.9942018601017442,-2.800651918830225,-4.483448678138401
7,3.0194650153934783,-0.5572234173928856,-0.4148232962778145,1.2340039414364565,0.7831586216032204,0.48553068426091295,-0.19473471717087204,-0.6585589887631986,-0.8628900523165538,-2.0617333027734253,-2.038620622512737,0.18660524935503855,0.6327996157751691,-0.7601489220907658
8,4.729274370764334,0.6613821746957775,-0.8195901386680812,3.9061510186206,2.9145013797495007,3.5444856681321344,-0.1309896005500004,-0.4263425136206247,0.539522434813378,-0.5430576524100637,0.42889070754869696,1.92920460718882,2.969493136546753,4.433555088627512
9,-4.3369803376024105,0.28813325998890804,0.5011792673882798,-3.035153399681606,-1.5041300825029873,-1.6610528740102921,0.2578232114961135,0.20922822430584767,0.39276225825176125,2.6329009203688543,2.282802584102194,-0.7362741310797674,-1.1071771556767225,-0.7209650694047588
10,-2.6069635476373008,0.9974649090326243,0.875513453467468,-1.5516648740297883,-1.831822043711844,-2.9859442786634216,0.5719320564636374,1.7612325900145203,0.10394493083342629,0.10616545131191321,-0.4608570494390949,-1.5028490306739357,-2.8344634019146078,-3.726054141381912
11,3.9105075312060387,-1.1587034416991544,-0.571820631430012,3.332672394370773,1.317696726002351,2.4072405646331663,-0.6241122044326942,-0.5278035334361068,-0.2836894355211207,-3.155615530895592,-2.7482285094765686,0.9288587420293027,1.2406024009216774,1.616436174636843
12,0.8841281873224879,-2.295244626178718,-0.8485890264723545,-0.9146357877840092,0.781533873197864,2.024803771298353,-0.8325530447951552,-2.7914575909258543,-0.7870505874474546,0.7790647637664018,0.7172115408269549,0.9253010465674095,2.625472860167144,2.730186463946855
13,-2.1471991807982507,2.9304811023746558,0.6007310907333395,-2.1168600765232446,-0.27734823585742135,-2.508904258684742,1.1663291458688234,1.4247380008353017,0.5727259204989233,3.3487385908375527,3.3287439665231884,-0.6786235111160114,-1.0490350116540283,-1.838625347330468
14,-0.34433946989960207,2.6186238411807565,0.7388563178658991,2.5557625469994827,-0.3348338619421514,-1.0300783132637292,0.7515742406744472,3.1248491969651657,1.2429362773249402,-2.0217148600788315,-1.3363564293985934,-0.4827561346372471,-2.576026501586395,-1.8361657280314683
15,-0.05426403334327541,-4.964279537267343,-0.5383154101027184,-0.047683452320490045,-1.1964271086720768,1.9571407843351984,-1.6445338583636946,-2.4584859430521373,-1.1316544943010585,-2.9392445158013896,-3.790288780454375,0.08913670066110313,0.7256320383740114,1.5459966750366432
16,1.1096622377224494,-1.7681683666861283,-0.5873207655203415,-2.8094289937164723,0.80627117360731,0.3896378867937283,-0.3257928992182854,-2.677761243596899,-1.279124591362156,3.332083923884401,2.3191899282126527,0.4114808326178734,2.791928355303838,1.2964572266615793
17,1.7975301696382557,6.501795361088297,0.3388212768841486,2.2710076831762556,2.479488049996939,-0.9716712995486575,1.8203250491272116,3.154673426192031,1.7115428771771777,1.8047779166972158,3.8522117694518947,0.5648223018321434,-0.5570224639545155,-1.0411670777560698
18,-2.712607573241806,0.036342438786717064,0.49266162545939823,1.6888939680422663,-2.113251653730812,-0.36431803482736613,-0.2832645731842856,1.6840647857013669,0.8618668911818393,-4.29810269524057,-3.470744618562585,-0.7699427737428299,-3.16585469552518,-1.1394021460202335
19,-2.581152667850277,-6.995938077257796,-0.017175479113795866,-3.7134137037954456,-3.0027867426120807,-0.07274382043796539,-1.5757536610503748,-3.221036300302372,-2.045077640077473,-0.07508894054543543,-3.3264034384088217,-0.951750934325412,0.7661543528686399,0.6128002031628405
20,4.4262525705933315,1.9403032457468299,-0.5753845536668811,0.26472409066897,3.802276459767663,0.9849417753121927,0.8298176179397053,-0.5568273032470775,-0.133736890616181,4.541390077331661,4.437923232611381,1.3838292399172603,3.4007535806286233,1.1937396297862817
21,2.417836775193693,6.333957922592833,-0.3113966354812755,3.9222510555836116,2.4987291050518414,0.7903629564048262,0.9720229142168453,2.655844025048124,1.9621361957108094,-1.8681548868135833,2.24724784126262,0.8497029242450294,-1.3557210550215146,-0.3988378135041848
22,-5.6281858912728815,-3.477387003262284,0.894301207048364,-2.2509832709966475,-5.239319184718019,-2.043653829485757,-1.1077056301748847,-0.315828649109659,-0.6469798501554921,-3.8846527937323687,-4.849211767705554,-1.9110103557002192,-3.155836182960685,-1.2070754717608905
23,-1.6965719862221353,-4.8525454395368595,0.4588855445177147,-2.9810920764842868,-1.1238276546144594,-0.9347825372999845,-0.21685193459451593,-1.7104083446991512,-1.4654320671592396,3.5062328856795526,-0.9120591800446636,-0.2771411568884121,2.046764942686351,0.33564532362911254
24,6.020448931990715,4.140097892248776,-1.3693295455288819,3.5694402450437774,5.887253656369151,3.1854829688299775,1.0502504737000105,0.7367301224390893,1.220744530306236,2.4512734528808733,4.5004263639307585,2.008961259804504,2.2566050484002553,0.9972669207159803
25,0.9300481164175499,3.149873446806144,-0.26567586216772726,1.4129951121135846,-0.6059151582895839,0.4864893595136612,-0.43914407406316885,0.741306372502898,0.7286021523429012,-4.370308903030386,-0.2130941213316889,-0.4931330597929032,-2.3722644044365553,-0.21418311825589145
26,-5.660559161966124,-3.901989614340776,1.7782809800534858,-3.9002564131441733,-5.546116044326894,-4.056787392066595,-0.7553898181004287,-0.755050972200349,-1.4440431833734548,-0.6466333457968939,-3.4899182085965945,-1.5223448331116853,-0.8571016134874215,-0.5627593087146253
27,-0.5311167938395347,-1.7983814334106207,-0.27916938480102627,0.10000131220882319,2.046332052005892,0.36006193810561865,0.8204242748216417,-0.035567302300359135,-0.012510448215256854,4.222575132108546,0.6965342092179172,1.0600180526203407,1.904481258086384,-0.18624720575429426
28,4.863306312080579,3.1035362797488357,-1.8540751182254107,3.3833824143161153,4.4397477763081,4.441035738743677,0.42894168298379204,0.6007555971109048,1.351673042011018,-0.9771267896872762,2.217022575055667,0.5855116133619478,-0.5521039807055945,0.09823392067977915
29,0.6837662271744549,1.1013814565090982,0.9824525888530268,-1.0334082279392962,-2.718716503396422,-1.2978778322491624,-0.90076257363075,-0.30726398499674185,-0.46409467648657465,-3.154444317705453,-0.3588341700691787,-1.102478742108699,-0.5107029228185949,0.9518415980618
30,-4.052123804466199,-2.250640177460884,1.4381935625972764,-2.4811102748650846,-3.1005384767880155,-4.322175312279283,-0.28024588972063774,-0.5451211509196398,-1.1272760047400754,1.92086421014022,-1.2216512542382514,0.4266255226873034,1.3253575255810306,0.09497919855287176
31,-1.3058273756185605,-1.001365614531005,-1.509038212413593,1.2204135379212735,2.522479411322792,2.0438300236701687,0.8036802044300765,0.39112834110041006,0.633915581141301,1.5587452215326147,-0.6130624014571523,0.5582600074757982,-1.5031446020234214,-1.9483628411744471
32,3.6038030593046257,1.7638378838496098,-0.5986316507756622,1.7160924660233419,2.1053483229795438,3.8548824714928616,0.42150779313832204,0.7599810804460624,0.9919666157293904,-1.9232958615541473,0.930932120189227,-1.083123536156829,-0.9645681563351869,0.23437802019444096
33,2.0873894629325176,1.1653459393370234,1.5408908322406374,-0.8574381504536893,-1.758323046811601,-2.444109697250446,-0.7352499308027174,-0.44456717203561297,-0.6075647898058631,0.01587112978426704,1.7316199167616098,0.3305446483106735,3.459753300632982,2.843726349847627
34,-3.706566695783544,-1.798716284618783,-0.3665273821399705,-1.426192433551678,-1.7970929901847288,-3.267640545199552,-0.8134258191088025,-1.2372224128195015,-1.071030768804524,1.0564731796537894,-1.4411562729028753,1.1207721169664366,-0.604073018662477,-1.1361491463751145
35,-2.60383336414714,-1.1886130207575376,-0.9474006430026986,0.3427497101579638,0.9512268089646808,2.5045583197149055,0.8814652038786217,0.6923109331273659,0.5973959352147229,-1.0725631252419234,-2.4372254053028133,-1.1374368893377023,-4.583235606587707,-3.23916011598296
36,4.2656211270475595,2.2124845281362693,1.0526844664805366,1.6487577289154052,2.1374284458872275,2.7543220031789266,1.2776966752282424,1.7968211450901832,1.317832385519745,0.30853666481786624,2.4580251991819835,-0.5829475628444237,2.932405439202772,2.389122218359355
37,2.494687380293555,0.8100686863015472,-0.1298764987784396,-0.05270476594280812,-0.5713204109055752,-2.3442840233912845,-1.3128310996350505,-1.2357273945278715,-0.7813754335223723,1.3534258396703613,2.3777305363585097,1.4749085800276491,4.357459578942022,2.856290005522695
38,-4.910980673624364,-2.67809016914038,-1.1372490895798812,-2.1655991135655297,-2.76387301287641,-2.408155600444439,-1.5725637811918383,-2.1752239327560123,-1.542668666523779,-1.6551311293026154,-3.439490673904588,-0.2060944482257094,-5.204621855886374,-3.5576963961459493
39,-1.6557022995043964,-0.03559288071148575,1.3270075267173844,0.17196856895740928,0.8053599490683794,2.1103056589586777,1.9364355508474982,1.9925077504438218,1.1894852028644947,-0.927876125783118,-1.5891612003529554,-1.1977685052960727,-2.789197300379541,-1.6944448313576261
40,5.142757031582192,2.878510337940195,0.5344209115252258,2.6565422452659195,3.2093900547939227,2.2215243116947567,1.5039250337415941,2.1563191222090197,1.529087326524888,2.532537361615797,3.8732851250196667,0.8176678741379545,6.585065401261558,4.16284150110429
41,0.3491989228704393,-0.8839701818383895,-2.216473157286217,-0.6454196007320574,-1.4971992487965042,-1.9054200165015476,-2.520869430983615,-2.723848986211538,-1.6816513484553086,0.1419891589275002,0.4750112138194771,0.4733484363010413,0.43181945739311534,0.07706615955342916
42,-4.579773277548612,-2.6786705930310246,0.5617105665892332,-2.8675867882630475,-3.153870448419075,-2.134916730529105,-1.0255244426091632,-1.6876798305367395,-1.165070348251512,-2.733792320376203,-3.540871879617556,-0.9448885255587232,-6.589787763651124,-3.8972696285251818
43,0.8534413552845632,1.59928959646026,2.4935918028547515,1.2469785260440582,2.2738474835003752,1.7642882864786449,2.7909026388855915,3.1434135140227677,2.027364578498299,0.5502692047520639,0.4080400508799322,0.31652940679771935,1.8515094264215077,1.4491168161708279
44,3.1997659306252597,2.1879578818193384,-1.7627367025170568,2.713596371442398,2.5686314131682164,2.0930895200709663,0.27871715824182697,0.9227669961295761,0.509524137534256,2.3586215931143344,2.622512964428046,0.5510325778176038,5.291982719221941,2.783789952653979
45,-1.3091949507095961,-1.8495786060289,-2.1006512696886346,-1.7071944340995249,-2.76889617434469,-1.6767696578881122,-2.554407766976881,-3.0615714738068687,-2.0341786955071304,-0.7946443189872525,-0.6402289193378998,-0.7789974254979375,-3.264634230267877,-2.329807854328196
46,-1.4331671656319749,-1.6875586109915086,2.653078819802693,-2.286273231454387,-1.6879458291627103,-2.0711127328289036,0.4547514632822461,-0.1574440134039603,0.24116171753640472,-1.7330658354265245,-1.5876463810899561,0.13647490869216553,-3.2619530134289443,-1.1929684316915006
47,0.6295265697746818,1.5885614106192478,1.236267304495613,1.830754034228567,2.8104223681819054,1.6276730638249577,1.8023051655669304,2.4897813963072633,1.6467221195122448,0.4816344328424705,0.14422330835216332,0.6993797676220949,3.4021389172421164,2.2401014476962806
48,0.028078675594535443,1.472368434586127,-2.9575607167902995,1.789697896417569,0.8456406265622334,2.0620139789276726,-0.8709862467112774,-0.3150823107517912,-0.8585704057129958,1.2321388606601869,0.9387922341847966,-0.7674612921928952,1.2896515144067082,-0.2999049598589495
49,1.0657612275890707,-0.9871641892244426,-0.2557064722478077,-1.5612005632717116,-2.4766110644988593,-1.6180394608015092,-0.7302795683499875,-1.640453049289737,-0.9626393193023438,0.23921323616372683,0.8019064852280011,-0.11565114580036048,-2.3685677041399074,-1.2294410411765244
50,0.2806045915583957,-1.7027880337442813,2.63657769113271,-1.4490414783620902,-0.2850215803309645,-2.048315233851401,0.7788339270374465,0.35217536368836516,1.191526433405658,-1.103397192937682,-0.9589395734229539,1.0500734017001376,-0.048307361147065915,1.1572787491010936
51,-3.1155131574162684,0.32537231757657886,-0.4843144373325892,0.9867418778614614,2.008915382163942,1.6548720855647097,-0.3317740093777468,0.8150844521862843,0.1666547966324935,-1.0699704166718231,-1.7361710796167236,-0.743500085371122,0.6663107726013818,-0.29895501795892154
52,0.8482215138849264,2.348560982043171,-1.8760614068126846,1.4297228062688652,0.049569662874248376,1.9889413959352327,-0.1869820535994284,-0.023160674618996607,-1.2161183055491187,1.3830286420870228,1.6005727685661155,-0.8662133157585601,-0.13465145088555275,-1.1061473812435374
53,4.555364031845368,0.15013539988953134,0.7654215226710238,-0.30284557094653475,-1.652881170913506,-1.7247809532455227,1.05054120881425,-0.2460288732841773,0.5674663092220654,1.7245863347282262,2.2545698184869787,1.5954845702463292,1.0516370634569217,1.7650882794357894
54,-3.1236176699030187,-3.2429205417332136,0.9878456553265633,-1.78371640764287,-0.00020890646333547418,-1.835938492498752,-0.6964131923734916,-0.45344608267498215,1.0068061459698905,-1.93404828398842,-2.559140994299177,0.2738396788644875,-0.6790573163332496,0.2412483976539158
55,-4.5396674915598805,-0.31347798074191,-0.575878186868915,-0.2513935167036251,1.5250941889574794,1.7796009363918512,-1.2199888679848963,-0.009167033363615682,-1.1436459220301245,-2.0435723742095866,-2.1809248191214348,-2.2218532418600216,-2.221578975949053,-2.656957548750342
56,5.665733642313833,4.192815136018501,-0.27113712791025857,2.4283634616579035,-0.07243670276198802,1.5683527607140302,1.547331187753125,0.8519999217321318,-0.660968076275649,2.5600182861994623,3.4603880384290853,0.5723990376838801,2.1452046947092893,1.0374051983820707
57,2.755206749571039,0.1504820532516817,0.08676313923334382,0.47129186230531545,-1.5726348327901611,-1.750482190371811,0.8361697672193245,0.0580186026023562,1.543223612422522,2.0099804841973725,1.585195867560518,2.50837461283982,2.5049914637502693,2.725361105898329
58,-7.337708154175531,-5.05945301966946,-0.10371497307228443,-3.1644033858898277,0.31780650875605554,-1.2160550038195732,-2.0516377581750915,-1.0646292003166575,0.2362578410750648,-3.109336809297023,-4.034857500837398,-1.5073468391670275,-3.793939406243985,-2.209534424130352
59,0.3771009288712763,0.31445030634027177,0.444933502679666,-0.2630406545146897,1.6283465847397265,1.5829124138278698,-0.09158444552456978,-0.06681052570998493,-1.7722521586616722,-1.6860444226593743,-0.6764640245967989,-2.416232362362828,-1.8136746992247539,-2.0475695715071365
60,7.227817149127713,5.755512278206058,0.1424978854954787,3.739374381650431,-0.7472866027498873,0.8544109312891723,2.0206313503868554,1.1316996599819538,0.25513352674925394,3.5085394067412956,4.185619599219971,2.391109379342561,5.154115190126644,2.8451972625332704
61,-3.8227145711555623,-1.0760002882516413,-0.7982342465065932,-0.3099488486776416,-1.5144716892989767,-1.2687946972957047,-0.6992581166899972,0.14087007369823393,1.8090305413991525,1.1397359385997206,-0.33085824973314487,1.9411165435885063,0.2808323947111841,0.9532498189492137
62,-5.0609212159580235,-6.178449461424445,0.008724210198267433,-3.9460312591334015,1.2349469714314187,-0.5726013512996586,-1.4579769139627263,-1.1737568549371042,-0.7983638779957026,-3.726952495587874,-3.944329438575599,-3.094057900476943,-5.829007542744704,-2.748555692283893
63,6.332709113448585,2.1278031198913783,0.8789347386623229,1.0426123301111927,1.1354555732940044,0.8547391877838216,1.2104817114754642,-0.27288147148751346,-1.6019811310139458,-0.4224605261773701,1.2863002207599685,-1.1102173684935086,1.7693709655993772,0.13035269147052872
64,1.346664261399165,6.158279469431144,-0.15885856503581727,3.7178139325939408,-1.5792877571375479,0.4357674947258119,0.562945128609623,1.289101055901481,1.3221101944944247,3.728726390810457,3.3866220383884715,3.4775567032030583,5.560019057464937,1.9920633438856583
65,-6.944698467558713,-3.3732339857082505,-0.7397053402606002,-1.6753544223638606,-0.5232519725887637,-0.42338009644090213,-1.2169542828543092,0.3802924851280338,1.1246903051004948,-0.39666127530598483,-2.0877977905942435,0.017845151220476203,-3.854780333420257,-0.8372928352766025
66,2.8029591967387737,-5.494422400377923,0.1754333503418727,-3.1677275612078146,1.5884360687591612,-0.4619600368275295,0.32788899281626127,-1.4935192137671398,-1.694509664328219,-3.470080036135902,-2.587195806406328,-3.416242663482652,-4.308329886434313,-0.8544011340503506
67,5.364425830118338,4.546714686986404,0.5259269772889568,2.019718697426255,-0.17026915368290382,0.06163582560148665,0.6785005789942637,-0.38626290381533457,-0.44340929787276917,1.1902204260545786,2.6340967889843245,1.1459011371548447,5.415700865135057,0.9708620560501203
68,-6.100506726663275,4.086852741797111,-0.04355627730087253,2.5354080134739725,-1.1568969952655046,0.6215889447892221,-0.8481614219307482,1.7339334923538146,1.7854949976780694,2.950489553399811,1.6397570811058182,2.8635211688148385,2.3292953597517796,-0.2938405707041202
69,-2.070400935679778,-5.237219762362468,-0.38207535572075496,-2.054323136126036,0.7212755382681438,0.16601185660862616,0.23025726588814582,0.27654564106617774,-0.2648904274098846,-1.7844716501293285,-2.8156651813572307,-2.122234804997095,-5.973363187085823,-0.5413134338655775
70,7.565990189087152,-2.081665164009991,-0.14655604188277702,-2.0587399528401207,0.31538216498377886,-0.852319849770757,0.7334355716160762,-1.9486805278334305,-1.55646346488516,-2.269624274914285,-0.6990154160554829,-1.9143075788821151,-0.16753895986408296,1.1118444756310697
71,-1.8862445306980862,5.042126389906789,0.3728973452285844,1.9268741676399455,-0.907394393908946,-0.2302248625867783,-1.1656769584779287,-0.09587058187706292,0.7720566122775976,2.036512406164335,2.568387028008614,2.6735676026810316,5.3289155563592505,-0.26047430923361803
72,-6.869516438253543,-0.08272473270509402,0.26898644733940474,1.8407714465376779,0.7584066980449772,1.0773679947532575,0.06566843612817241,2.1193189837855817,1.1110607705550537,1.6264645430639966,-0.021579604219307404,0.8084573721207612,-1.4850396730944984,-1.3858078488114012
73,5.287418798964646,-3.782599439815709,-0.4614240951574724,-1.8504393428403931,0.5914774670246136,0.13853184950368067,1.736870586415664,-0.10153223352420632,-0.905671103102133,-1.927892545615087,-1.9474119336123128,-2.691285333283612,-3.6999780860877,1.1365827244999263
74,4.412565755530092,1.7932602379242775,-0.24250276424103917,-1.7978825254369124,-1.7788708217862808,-1.2210076117348896,-1.3410986034860044,-2.2759343522551636,-0.6653845377672156,-1.2381228909739859,0.3237058201468151,0.14650572970819858,2.047654992082568,1.0818939067566125
75,-7.190336653653549,1.65259105189522,0.5491699960098099,1.953905965338811,0.20800303398198863,0.06672791901963941,-1.666421211334391,0.3024663242377553,0.6371130668913298,1.601408516769362,1.1491177716719567,2.2550959030301323,1.690112023832266,-1.7811538956634918
76,-1.1377559906745067,-2.505698796344283,0.07385326068149066,1.7304259671114413,2.4424192744929276,1.2233534137247986,2.6902294104987994,2.4583820499892273,0.45213565784202175,1.2209097021269892,-0.129580642291209,-0.700438129320127,-1.3138400132138708,-0.3438439109966232
77,7.241336386403607,0.801552227625749,-0.546529916607882,-2.185943694461566,-1.2937509706777506,-0.31256684523604117,0.9205026793802072,-0.5482802402093332,-0.09776539919724134,-1.301884459075266,-0.44282789523130117,-1.602264599394767,-0.06499964384047074,1.977713823349192
78,-1.844518709935423,1.9900632458534078,0.15671076059556227,-1.4755432157075834,-2.5441121021652653,-1.0576672493969939,-3.6713082963198627,-2.666563299911241,-0.615871830852128,-1.5121006581284562,-0.45897611974607233,0.76602673113757,-0.42598660283591694,-0.5639355805560196
79,-5.756260119359882,-2.8784773478975922,0.427342902043195,2.3433904631217315,2.3403047845780134,0.5072255866346813,0.2600632320425871,0.9038660576068539,-0.481066495064003,1.2484339315329573,0.044399964128730623,1.018632972573381,-0.5758775849483312,-1.6644745328216535
80,3.6667356587657562,-0.44452614810023694,-0.3512492830364276,1.040377875958247,2.0705746240849106,0.7463661545802959,3.9866719892798654,2.836084656159921,1.1556068771961552,1.8889307037973386,1.1999728106941001,-0.4458636615749708,2.489597356931768,1.350083457158313
81,3.5502882721853353,4.0005534105872576,-0.23755232420879832,-2.212137061783163,-3.011798339111602,-0.5647984335496764,-1.452667246923899,-1.4042350198035232,0.86451275621951,-1.5143142082020395,-0.013443574218692309,-0.7101784272084793,0.0676106327446183,0.9446167243040454
82,-3.9999596052561075,-1.5833679777624332,0.4527927242199278,-0.6208425675519887,-1.2164869125052957,-0.36462293834475396,-3.607143765142114,-2.8564768165731254,-1.9345883795170884,-2.078844849830144,-1.830646023618663,-0.03216702482301567,-4.0997355178543025,-1.7939909446642688
83,-1.5902926806679147,-3.933673647212633,0.059664301298236036,1.7285200281260065,3.097126693928313,0.43776539361889033,2.2310902743622836,2.0124443934713447,-0.8963487001916345,1.986375742592764,0.24242562662503758,0.7238773122627973,1.25623707902403,-0.03817326074702826
84,3.1270873401594264,3.4227238238680653,-0.4730157661030543,0.486056014427821,0.30654220626149625,0.02216847513144076,2.776979022363628,2.623047062880614,2.73769648853683,1.897780166996123,2.1895198377655674,0.4317734181628253,4.7249687057203165,1.8113652694568043
85,0.6098374919071579,2.8471137823675154,0.04030495980152707,-1.050499623081317,-2.593476884261336,-0.14199913399564107,-2.3459266466532105,-2.614759152988721,0.5384513069850603,-2.4255500806783976,-0.5391544688102564,-0.9546437924221362,-2.7387802451095546,-0.8037589919553425
86,-1.772631856221193,-4.5343059486368595,0.4784440030371436,-0.8002919464949187,0.3413609395027637,0.17435192923608916,-1.8976695539655541,-2.094568526990351,-3.3412823961931624,-1.3392255236767532,-2.265095009547783,-0.6118060292959572,-4.2901116986602155,-1.4647276939794727
87,-0.8430112633886303,-1.2052363225554696,-0.05215632495155112,0.48514402629466924,1.693718597162533,-0.24199039888193505,1.8240893884882579,3.058511407288684,0.1312042001104105,2.590030870586747,0.7388526635643665,1.2234600300158127,3.716041068610369,1.3861607566102936
88,0.7693137787178616,4.677933956261124,-0.5484443653564872,1.4988861163963807,-0.5404309979515287,-0.16276888494841332,1.3464638526832007,1.3252458751800271,3.570571444995914,0.5704565838305033,2.153998895101679,0.566332363321418,3.1584348747047915,0.9205749739341644
89,1.9813508966050675,-0.4329175526135592,0.029006313424242664,-0.31311306194161165,-0.6881931947939144,0.5963438069719859,-0.9447692399790538,-3.2147969962164993,-0.9449523363975088,-2.3516653738204876,-0.770472492667871,-1.374716842177163,-3.8048930054546584,-1.6243125566618122
90,-0.7117615581844242,-3.9403946994960126,0.7290218492407109,-2.3017493185660944,0.2849627852666388,-0.04978182839802872,-1.3126128693857875,-0.45191599259602405,-3.338824401099588,0.15339220769209025,-1.976463435269814,-0.3939889300957445,-1.9173329011799338,-0.37772726986983923
91,-3.3543427811875315,1.603791175226466,-0.06303626735996572,0.6189206142415855,-0.16101277641289446,-0.8104087996902222,0.10611429305040479,3.03329932935644,1.6829279570646825,1.7478140878952653,0.6484885560418229,1.340206775836138,3.024631211393675,1.5494200453243385
92,1.7449810638034773,2.6495990637892435,-1.0032781772792705,2.860516318587382,0.28883486526304625,0.39109263020864976,1.72306068535178,-0.35867622722162773,2.672427268862658,-0.6063372035587442,1.8154890980686325,0.2284050207380161,1.0983369255430735,-0.00021816203437067454
93,4.231798165256297,-2.052055693049003,0.24217591754125342,-1.2335572615541568,0.7067636709703923,0.8217768351154481,0.3561400014172034,-2.5595336048204786,-2.1206136867506076,-0.9516561964850753,-0.42120508765509945,-1.1473257680335254,-1.719834999477576,-1.2737148595929877
94,-3.5575768356439648,-1.2418150622072919,1.289535633954914,-2.9506672083544374,-0.9951762130114694,-0.7547281910404046,-2.288970061384398,0.9744790387319672,-1.7212312953699314,0.6809560154218218,-1.7105697905569959,-0.17301697768321597,-0.9753500689473239,0.1243732187250541
95,-4.105093073374262,1.757427633041632,-0.6050251043142801,1.8258400195574247,-0.9298355968593187,-0.6355510591279558,-0.3168001579071111,1.9060792430703355,2.0901482212657987,0.18622181369677862,0.1294292100823263,0.8838781067009631,0.3594874352481543,0.9381854334138966
96,5.545045552392711,0.1392371899532197,-1.4682778053883836,2.592443050144858,1.685817074019798,1.0423517704919376,2.6515208307469322,-1.3393290302916159,0.7417452248995785,-0.4139396949613572,1.685920778030312,0.26764999503842424,1.5170425573248774,0.013666772655986372
97,2.8430235251721823,-0.905034151340076,1.1111621034325283,-2.0866685444881234,0.8897906117392971,0.3151110910396783,-0.09150511669915518,-1.1970039554549705,-1.5483015679442607,0.3700997265265411,0.19558671935280963,-0.6486758553572528,0.6669354462054551,-0.6662421313434749
98,-7.043071994134711,0.3409284632244406,1.4305026126581812,-2.030260929051379,-2.288061061333142,-1.198468332504165,-2.559442724896031,1.470767606109682,-0.03761450920730314,-0.05301429618471753,-1.7708918906492097,-0.4896403214668399,-2.4750301898498734,-0.36019771034390075
99,-0.6997203021277275,-0.17078014269169642,-1.6412577412422906,1.8954167681024774,-0.6564875267541809,0.04941680856722778,0.5546830550561643,0.5199582384422513,0.6245693621441855,-0.6426085804081139,-0.5081924582141902,0.5123801130990399,-1.1651747189412827,0.5360177211604639
100,7.53623795619425,-0.05124266901331882,-1.131196819733018,1.5880248075986056,2.7855932428838153,1.2233539143588186,1.9928890799309797,-1.4226485069002313,-0.1421968717328043,0.5481413047699989,1.9882578578285501,0.7769426531128859,3.5289894230234253,0.8276265578543575
101,-1.7848488988437186,1.0605285479396793,2.033901434929622,-1.3734648710149286,0.2667841468998961,-0.3800922287890783,-0.74026265066557,0.08781399706516523,0.3874553025455423,0.6633827897850749,0.7335175929476202,-0.49902349111051414,1.1420786933390918,-0.5721866048385092
102,-6.797463287950796,-0.9429762845888082,0.6240853711869264,-1.4899553276215454,-3.167613045895598,-1.1596594893401593,-1.1722102766692537,1.2421207780345387,-0.28297938602819417,-0.9396999075883993,-2.3213341675916865,-1.05828372823799,-4.408910281725255,-1.32220313288143
103,3.9401994557887456,-1.3771765950362436,-2.150899482449006,0.8024081350642008,0.2711481626498504,0.6397816382590131,0.46539034360134696,-0.6184930065402691,-1.117716194350385,-0.5276255525249925,-0.7853667785186272,0.587804930885701,-0.7389803058717813,0.7521855715193586
104,4.953321888583473,2.357046164953747,-0.05491211950102029,1.7494751782321216,3.386628572759048,1.0594008245006257,0.44856473149745363,-0.9506013669300399,1.1551057041866934,1.1692296669728146,2.692252728638968,1.2792144844759425,4.955516411428705,1.7666054717242852
105,-5.146662968974848,0.8732861986380612,1.9441476540640699,-0.46380933812378144,-0.9344012041122834,-0.8361322699530213,0.2144380846495899,1.0605200057555404,1.269795251744597,0.33449358040115384,0.6102604441758235,-0.729652564596579,0.14800715308002452,-1.0216547333917374
106,-2.471468831771344,-3.742672872800052,-0.39307503258896936,-2.1799393151049284,-3.3573269329473594,-0.9483884518257886,-0.13464977406219852,0.5579741914338097,-2.1027849395525355,-1.2399146396331613,-2.976674569421477,-1.416756715260496,-5.12410083160385,-2.1147775753875235
107,5.0225296999790086,0.4539463571409492,-1.4880668099366694,0.49447109776588155,1.635971563063139,0.9973703882083239,-1.0359315789782393,-1.3825942567631633,-0.7734277593390975,-0.1473724322440617,-0.2274030866222158,0.8705486387187291,0.4515329726317355,1.3153886790095268
108,0.051328441257811525,4.616264844386855,0.5805033175516533,2.5076937322299946,3.0034620657689968,0.8099961600354997,0.3613412105535839,-0.09322477913770714,2.67792368035449,1.178909634025724,3.0530047197810815,1.4790048901890807,4.95759838925264,2.3555984021295115
109,-3.573390893252051,-2.322705320944603,0.9541709102396473,-0.8304244427857612,-2.209653760500799,-1.1331969696491528,1.6542256447596453,1.5494055975616845,-0.1415074975863093,-0.008582105889778636,-0.2659617773650306,-0.9722904577725091,-0.9280927873373485,-1.5792750470353445
110,1.5868600704334848,-4.629908031613062,-0.47862403439919204,-2.5170484757442395,-2.328491388612608,-0.6027600872813881,-1.0252938919278691,-0.3791223853584074,-2.5609238065902216,-1.006373267699089,-2.8583541328459896,-1.491595138867628,-4.551081801164722,-2.503055450210782
111,1.231066111113275,4.233985647858133,-0.5357332784479255,1.256204726905351,2.4528936810716324,1.2078809823742567,-1.7972490362398323,-1.557348713178685,1.00931229671307,0.1217698020441476,0.7316926447773744,1.0224537685365118,1.2112275019724232,1.7857334111961574
112,-1.9623813129234164,3.715873147378882,0.18366007982773716,2.152093857644946,1.4649040293209152,0.30528299203624915,1.8413808513297547,0.7782972724858814,1.7410292320180076,0.7340052606606213,2.417539944231233,1.478980742152908,4.018030999777101,2.5760156697641463
113,1.2750306892943297,-5.64188756956901,0.3607638333154195,-1.5218393539502286,-2.216758922091502,-1.150379360710692,1.3779676536311154,1.4586680466478317,-1.3283530369634462,-0.17152468322580963,-1.0494771027585341,-1.0300872186795107,-1.2903055382197388,-1.9344950897752435
114,1.0309115962429245,-2.128258565315095,0.13026905319968496,-1.532979535944629,-0.6613598786917464,0.041316041707068846,-2.465441070886977,-1.0552743691514872,-0.5682563434693132,-0.388001484842917,-1.828606527680642,-1.4507307020837343,-3.461942234737724,-2.5775905068635296
115,-3.1927353252995325,6.162969737024125,-0.4389089636332941,1.465031123456836,1.498361088953304,0.9032604389883004,-0.5241552000648474,-1.345417861844491,0.8156207912736195,0.13166265037656688,1.1628898222188015,1.0109850741016244,1.2015288723324669,2.0363167006269616
116,0.797195944604101,0.34458081970639226,-0.2937400924314379,0.8887730465160582,0.19803074462562448,-0.3292753899413266,2.6302631665252685,1.2338366978290845,-0.37759616217142467,0.0280316172275456,1.2155755083219708,1.399621429948293,2.956247671008402,2.487105187887562
117,4.048835976240272,-5.726590381935143,0.6673660773742086,-1.082962641786023,-0.48022967092148067,-0.48137870217879636,-0.4757463881890386,1.293210478852026,0.4146080914684351,0.0016906184805706367,-1.0891826588366313,-0.9720487318809167,-1.006531636076353,-2.0875991169620334
118,-2.8501243641956657,1.1393392836088567,0.21641446166528497,-0.44408083207718163,-0.263023194505169,0.4327282446985122,-2.2427687921735924,-1.4052712405222045,0.5603682356709877,0.26390564352221607,-0.6770147776970701,-1.311151711361852,-2.535352636530981,-2.2728615540039367
119,-3.817974201385689,4.58535966788612,-0.8874288603655391,0.5250033985615086,-0.5169144786338341,-0.0035471975730765335,1.282231820587834,-1.301244073880144,-1.860247125662377,-0.18522514519206013,0.8932021274026372,0.904030652472704,0.768217749506812,2.05203914308645
120,4.507487746907999,-2.0244221840545182,0.08165047592112748,0.31320636440996336,0.8511188450652535,-0.28543597332707754,1.4117336949069184,1.6677730076214357,0.2281120472418296,-0.4239539811957142,0.2571144389896669,1.1776887179100977,2.1973882291075384,1.921956955155305
121,2.862164947622808,-3.1719014151419844,0.9586602933116362,-0.012285256504227517,1.157206834844047,0.37980077869321976,-1.6265663731711173,1.2786821034753924,2.8499397773635198,0.33549175122486163,-0.6451626026235389,-0.7858830395083225,-0.5296994238113083,-1.864785072567895
122,-5.459947658818019,2.3202946408605873,-0.49024447560247564,-0.4516265741059707,-1.7421173194110111,-0.06234967502816521,-0.40216550931737577,-2.0474338200340245,-1.7301999140279671,0.4470528089411232,0.050515500194503175,-1.0088827666906557,-1.917565458698019,-1.4706759326023675
123,-1.6806123029485227,1.8728426548330321,-0.8145426435419554,-0.2768155710397902,-1.2350594390461576,-0.5012937290379575,1.40185931071369,-1.0994513472644831,-2.872076878991803,-0.37175751217454917,0.3866648375461393,0.5968233229132424,0.30138560973682565,1.4630647581636262
124,5.770157067521877,-2.2897593193310293,0.8634392253751201,0.6895540999630584,2.579841239964928,0.4511630416089994,-0.4627062679235734,2.4610204895788765,3.3212422171761955,-0.3938380853110119,-0.2743918622129706,0.8336370485920547,1.670139745207924,1.0141224770842208
125,0.6280800832770727,-0.8443643401324078,0.4790546592111297,0.2968415447182841,0.7719100891709858,0.33281480274278497,-0.6940031879978951,0.6939215777442179,1.8414024761721783,0.2674939637960329,-0.12118987656474735,-0.3294624507116562,-0.06208785168561196,-0.8300484042869406
126,-5.7156018935298265,2.2549287686218733,-1.0791768633299217,-0.831667399555678,-3.021876398876876,-0.6882495862726641,0.9148607254344288,-2.7560359352182537,-4.3060950215329505,0.3534403559511117,0.43120933199473616,-0.6937417140047567,-1.4528753944173918,-0.6823801967059498
127,0.2244421847899935,-0.022787086436927038,-0.045297378965709616,-0.15074389826937026,-0.011812479425251718,0.020206049298611743,-0.2545695723305342,-0.11040379106559706,-0.15380534741942065,-0.07256897686913076,-0.16870218201412035,-0.0006402567016246434,-0.22090414132135475,0.026882026450738478
