,AF3,F7,F3,FC5,T7,P7,O1,O2,P8,T8,FC6,F4,F8,AF4
0,0.20193757459542308,0.05458908957078762,-0.05741484881600891,0.02709518390934847,0.004389077179990628,-0.0003532701339770722,-0.06859308883827152,-0.01435455027394796,-0.09801078591818371,-0.059512041019772116,-0.039380993366117986,-0.027218584845959334,-0.005590335480719056,0.026740268119804265
1,-3.670231280311924,2.092411659414996,0.6388196138829545,4.359420534494499,2.1974363168272206,-0.40399465671776486,3.734081873596474,2.940925107969216,0.8786094008202633,-1.1818596553274625,0.6168303753397352,-0.9124183742503088,3.5499399100411537,2.8295606359217196
2,0.591926219822613,0.15207171106605663,-0.3275572391732183,-0.6300180520684467,-0.3562349618297737,0.8313306569148811,-0.7798522145928859,-0.49955272348639235,-0.5529977899735159,0.1696789744358288,-0.050321069814752976,0.5531840407666132,-0.7735980941336301,0.16495193709424114
3,3.2894812399424302,-2.573249909748762,-0.5234238660126739,-4.226793873985795,-2.1036359491877796,-0.1955307730955126,-3.404446968452064,-2.598940913860958,-0.5910648815960963,1.0653217336119933,-0.5460236588139371,0.883462634169815,-3.1135082955177475,-2.8540023493687325
4,-1.206982303421733,0.12928980575497936,0.6843712198576666,1.3266556303722192,0.7148145678761486,-1.2277973290360684,1.5527649268815098,0.9113388659346086,1.1391881625944136,-0.11396014550912668,0.19953769380185699,-1.0231373474920955,1.4210114466930424,-0.2431968542513815
5,-2.6300656707359686,3.1360605497930494,0.26078914399759995,3.8318764395745624,1.867425505853473,1.0880532495513693,2.7464457626516365,1.9433626596366476,-0.05027187710504757,-1.0383401189347743,0.27833216362560204,-0.8766795676597687,2.250946204788469,2.74777449019188
6,1.5415788888925925,-1.0763019042054858,-0.9457782097299077,-2.065711137407653,-1.0351309381811946,0.979340101594073,-2.1394318930332448,-1.080234186936763,-1.489349193007713,-0.081051639341316,-0.3335136159630784,1.435760526554432,-1.7478535733135665,0.24324896656811346
7,1.963452896397044,-3.1948426556095,0.11693632040200211,-3.0318512500067936,-1.4597281719517385,-1.8189512539053005,-1.8222789200683793,-1.0651365373987112,0.985215642660343,1.2706727328224614,0.253532247827212,0.9309679334844856,-1.0657036218430913,-2.379583131683578
8,-1.7053763902992731,2.393753593531184,1.0462223480191042,2.619125274492901,1.225515111758154,-0.19799614501862922,2.4323933908802746,0.8657203970612992,1.3954465658608677,0.2103605682397739,0.2621445128855032,-1.8424865320982557,1.549129184917643,-0.3574804611746346
9,-1.4710832538156602,2.358105528427033,-0.5355676252208424,1.8496719772401264,0.9124166435011466,2.019712657189456,0.7644464105929757,0.1737791301022165,-1.9899423555780087,-1.7690200219596546,-0.9676031574060225,-1.0226451947837767,-0.17921793013143095,1.7740696664737978
10,1.9319749679716154,-3.4498414008514717,-0.9500688914797046,-2.707022401779267,-1.1912898592044205,-0.7501837577740225,-2.376746200589459,-0.2247541482086882,-0.741092814046995,-0.017427312199884193,0.20989584696817853,2.292904982607712,-0.7274198170251776,0.8145031346565529
11,1.1442618782875853,-0.6924588666596977,0.889760719963176,-0.5408827236882152,-0.33389261139910315,-1.5838070705688287,0.2498488487574971,0.44596584539691414,2.7059356412129776,2.3136362846117886,1.594847735995743,1.0630633521563415,1.0977749538682648,-1.168688564228631
12,-2.416523218125031,3.614283756424593,0.6797073041327448,2.190676945687257,0.8964918838264212,1.4368858500539248,2.0099964670620403,-0.7035948214505131,-0.36319366218836113,-0.6131953020557465,-1.1217459260796603,-2.7706144358271407,-0.5820913974585052,-1.6975294412062414
13,-0.8214945162255535,-1.2682421892474705,-1.077224057590325,-0.5024762329532012,-0.1272119558456979,0.6997036505128491,-1.0620062087255366,-0.5653059977971985,-2.795743186697805,-2.5567626924637383,-1.779181544183681,-0.9576253248566481,-1.3382233354253306,0.9147498725923431
14,3.1962293505153707,-2.606140819758315,-0.32437897438637847,-1.1967097329255032,-0.4014159798127925,-1.578509107226448,-1.458264878751257,1.6103240925352045,1.552169816889475,1.531556605381432,2.2576226128191292,3.1758791504434734,1.9958676712192902,2.8326389006160264
15,0.3175414926055149,2.7711045955409546,1.0452207752013112,0.9555486737693071,0.35212290320407147,0.26316806761866485,1.5981059773170674,0.15369153283443232,2.146409779793874,2.231919390369985,1.2720903911660821,0.6867293258548529,0.7778311447591216,-1.2772343500851395
16,-4.147361403550427,0.659075072903959,0.0164967768995216,0.08064428701603732,-0.15289239840386562,1.1521171927087057,0.8818936579252629,-2.1482700620690163,-2.340736392137232,-2.3622935344344316,-3.1946954744946576,-3.379182421522238,-3.0209134839198533,-3.832617462870026
17,0.4614691884331214,-3.2087306062289556,-0.8264139739859664,-0.7393672990658757,-0.31330149955672254,-0.9420042854849277,-1.8950551756679614,0.5724287901905943,-0.9864871006966887,-1.3422259714400753,-0.10666708475362664,-0.3448437594254507,0.3742633490998367,2.2597112431338107
18,5.076238412109486,1.578581608811649,0.12159787781446826,0.751969160761635,0.6083403009449262,-0.373370460037365,-0.39876949510156956,2.1156372281779654,2.3662785912532263,2.699134013093591,3.491146389791472,3.313545758286436,3.2854290238262616,4.278748849581559
19,-1.49422839322061,2.403066323033214,0.540616976629575,0.057892261903094266,0.08787735489283267,1.1390677949575903,2.06678001466506,-1.2464309717341662,-0.17916533949594363,0.20159006215025482,-1.3628090198919638,0.09974895013454262,-1.6477485143905857,-3.5649074104927605
20,-5.8144546684840686,-3.3426734038570025,-0.03926105599901038,-1.0524767516729685,-0.8650978376832925,-0.43345237305893597,0.031103826404581234,-1.5743356186637032,-1.600026326977539,-2.341930726105565,-2.9168829810292363,-3.0386947065651615,-2.7275242700797437,-3.9364286856266455
21,2.7022936815429976,-0.669267371255976,-0.3522646985380409,0.7276585388680502,0.18699822786508188,-0.8775374361096431,-2.227514012824842,1.5481891377347379,0.8025672206609004,0.7090748152013073,2.5946402005294593,-0.0918768054941152,2.528397823399585,4.716739148495493
22,6.242852465481176,4.085149988025944,-0.20377150009540476,0.8339791178611914,0.9232119437475059,0.9925023386544427,0.2908931165804688,0.8192910327133544,0.394370693176745,1.4324359885586802,1.5967924802207223,2.726059683521904,1.6272216378047906,2.8845635306566395
23,-4.011435099473078,-1.351391484712064,0.3954190185494727,-1.3014769782023476,-0.3906429985248302,0.3451269532211356,2.4163208108919556,-1.3827404170951187,-0.5716899096454339,-0.9949657088332801,-3.1047125583879014,0.3389034905360833,-2.7011390473869334,-5.277083046482669
24,-6.2461969050798505,-3.674262332450397,0.44811700578476027,-0.3160081267681707,-0.8653655170683738,-1.1788275086830597,-0.668215031166583,-0.20871304789222422,0.6746662107418016,-0.40209553531729353,0.018149363218830594,-2.567746767973338,-0.46184629528361,-1.4926019653316365
25,5.342893128652201,2.9812661049923883,-0.698984209051364,1.5424322182619368,0.4805479922996489,0.22488343855758658,-2.568050920126301,0.9286792651770436,-0.42078379801659466,0.566270815653109,2.6959703089595033,-0.7095000037395375,2.18287042822201,5.044965141350737
26,5.672581860145577,2.3873586462206653,-0.5006264312785954,-0.24239042088368726,0.7920029437074562,1.0270647241938986,1.1486022646318328,-0.04490311790348846,-1.0915763267718925,-0.24563378505324474,-1.3426119266139946,2.663871196010131,-0.32987775039739253,0.2613112533638578
27,-6.533901994154435,-3.7652523358342456,1.1530369140964714,-1.5333159813880128,-0.5013165534032593,-0.6620307183904169,2.551140713139346,-0.523596543149732,1.7154868890513093,0.3035110355168848,-1.5537483991978316,0.9856324611193928,-1.2789542435738892,-4.143267991806687
28,-4.377430536748224,-0.7364895077590016,0.23129025015603238,0.7043353924418533,-0.7500216800524686,-0.6639342082701007,-1.6676713386450066,-0.0032624418261624913,0.6610571546239222,0.19975344259122596,1.9156471445653147,-2.956145326941854,0.5422505506306137,0.39247953272050107
29,7.26739049491397,3.5885064697325713,-1.5438292527289141,1.4408405558324868,0.5354979644706073,0.9034786317722165,-2.255759970083386,0.4540076447195286,-2.713803929514791,-1.1158109396780944,0.16036159049020138,-0.9782886750228887,0.40233818274015043,2.9584048351363568
30,2.3628160076742515,-0.7590684632457937,0.3469988695450029,-1.107785916363964,0.7012554165285652,0.21995945819162807,2.054561498845434,0.06952008790409732,0.39483710461370936,0.4934779424613623,-1.5986966530911437,3.246452550525514,-0.25803768834865637,-0.3075088819429808
31,-7.112407898403117,-2.6355326495896865,1.650871656285503,-1.3603571915071564,-0.6278975598694789,-0.9689169008335861,1.6855277000492142,-0.7745148988087684,2.9761874539577122,1.4074737036862028,0.9251066361577693,0.6320489096237298,0.1338688818543075,-1.967176454494814
32,0.07294620985209205,1.7413072410511818,-1.0644302458978978,1.585775635550401,-0.5533394055472337,0.22449615012131618,-2.1085891765510056,0.1806385728204367,-1.5529328604700563,-1.456156804108394,0.6206438530519848,-3.2898899300370954,-0.2447780357004236,-0.3671818002128204
33,5.712099611366067,1.2537689735514952,-1.3607007414630794,1.2345124424078096,0.7336549573048144,0.9016255073767365,-0.9980743597996482,1.2624750121251695,-2.43703951104142,-0.9915446980795366,-1.3123318261457275,-0.06358177515681278,-0.24003695431217206,1.5321152916454714
34,-2.3086662244005405,-2.0718509313123596,1.663840930018108,-2.220810602238337,0.2363143535814372,-0.6373242090840555,1.7132146752917463,-0.9205554600172693,2.2573446055555726,2.1792834846252664,0.5433971990924672,2.912904824987036,0.6633776132224757,1.2522470781208477
35,-3.040121450088774,0.19035847460326097,0.7342513525912967,-0.8971109082913574,-0.7285319215930212,-0.7247213407287993,0.4612039836908074,-1.5340887300996182,1.4265818813502176,0.0489140371926047,0.9356013126413147,-0.4828531699940827,0.04132011514693074,-1.755566909425513
36,3.57989648159544,1.7989097644110066,-1.9234357336795282,2.9397270319459965,0.22347012819240453,0.996956808434305,-0.9261932328542067,2.039040293117743,-2.200320065418996,-2.287301164143098,-1.3936232440188674,-2.0983107497035416,-0.8172653405356632,-1.9112217812332277
37,-0.4382367417389052,-1.405024833415431,0.014901547980434363,0.20575207295773656,0.4825268584638095,0.4404484247375817,-0.33581069441436523,1.2545914416779334,-0.490982927495918,0.974670730515189,-0.0545426642716704,0.7376467125418488,0.23461277950085738,2.4528581744575235
38,-3.316367272982291,-1.0862417339509691,1.766836901635624,-3.5217993277787425,-0.6843818269670476,-1.2603625516540273,-0.011288021449951835,-3.175217014687692,1.4705500989681959,1.7241990695600944,1.6196990791358201,1.0006607548883764,0.7021119019777572,2.0366972335238036
39,3.842085019787853,2.2076291939908215,-0.6240769219504958,0.8307426397082903,0.04407010974058574,-0.0630360375261506,0.7422928065676321,-0.32345263129513485,0.10725401573893817,-1.6053216710322122,-0.8894485303364833,-0.5163826433592726,-0.39687924810902786,-3.249765321475063
40,1.4617496849801839,0.14826158177581275,-1.298005291650824,3.713542108924386,0.9480173485513314,1.3671957307962264,0.7639862409673003,3.8893324502701128,-0.4949839033171356,-0.7661094357594793,-1.2109766708725809,0.10824533182754054,-0.4412025927901347,-1.567340269448632
41,-6.1969396373214956,-2.523062187279024,0.9106040702271625,-2.0158837928412403,-0.7437408379540439,-0.35031309846282,-1.5851599312252644,-1.066029058733265,-0.4433195131261287,1.5814819075341202,1.4843455350942565,-0.2074948170559023,0.3815097598958099,3.7534408950325857
42,1.422094427008221,0.7939590280450879,0.7412574095332304,-3.3743440295478604,-0.8695847275063023,-1.2779652772249412,-1.0512668502548481,-3.872253422369759,-0.18986613368525104,-0.1381570076611179,0.4208380782675075,-0.9344802948732859,0.1792562428174201,0.6889946402519108
43,6.851305651029317,2.370038813239618,-0.8548528966381148,3.042544413577596,1.3888432939725253,0.7026548596595664,2.58395399290738,2.5179521870404957,1.2860006294651158,-0.972245109916905,-1.5230282089840232,1.2903013495871276,-0.2541966588416204,-3.7152498337990947
44,-4.350571042373691,-1.5421550532015595,-0.3218189941924949,2.5623351882866547,0.4566618135010413,1.015423606318956,0.7770847626415498,3.0816526488602807,0.21278022010804779,0.6062989014230806,0.38586004124159773,1.2594057856284073,0.014677671670224506,0.2709051724976151
45,-5.7652619740079825,-1.8460835663132247,0.593400160529022,-3.634058282175878,-1.7395475752027825,-0.899389472938909,-3.3993249854748147,-3.616427671551651,-2.1663256290104527,0.11858347940405732,1.063245071185498,-2.4620181072521983,0.13763948794312372,3.1133950622164837
46,6.3190332717183875,1.9453568743633374,0.1551258812426453,-1.5135626483962235,0.10868670387450996,-0.6742239296051068,-0.0700875306008249,-1.7431859253925577,0.45341615114505246,-0.5121969357517234,-0.919108967690489,-1.0100477078987424,-0.18264298297030876,-0.9976574429429472
47,3.520527765725001,1.1096155361741222,-0.33135800767154616,3.666446669794993,1.6770868893240645,0.903468294766727,3.7877302923349423,4.097652177824274,2.607319914611824,0.5612365868215831,-0.35288407032839425,3.40759418485282,-0.11323009271713709,-2.1267459668419866
48,-6.704810040773043,-1.9224011179784686,-0.20439167596862623,0.5341891488439641,-0.549091415333839,0.3854621007558932,-0.787317797643149,0.2341101541780681,-1.492967378560585,0.03008501469305256,1.0882793155236177,0.2864998936479154,0.43693957506425596,1.316621998550203
49,-1.0624792043143638,-0.35339997515765836,0.22762364062817775,-3.2089978120296654,-1.2841254211305464,-0.7668702475782121,-3.702302898340588,-3.9301556150767127,-2.3627907725905324,-0.791854731246947,-0.3295318192709033,-3.8631588648197273,0.15664266285102732,1.0250344713209032
50,5.480882209896633,1.478631740270371,0.3236213246720399,0.1297291249745395,0.6366113950365636,-0.25295459742182447,1.50029230930826,1.0762434669874648,2.416016954313654,0.4812712229273328,-1.0048441825304912,0.661279883049771,-0.8705733752770841,-1.237256471497502
51,-0.6808256788902977,-0.2339699526548199,-0.3177922660093535,2.472824333193096,0.81884274273675,0.6155203856842648,3.289697239841552,3.2841853116826605,1.5315185090754206,0.5698340180368211,0.8268524458284771,3.702896422717267,-0.14524033906465397,-0.037506533820026285
52,-3.17612379047502,-0.7083596677412838,-0.35432134727564313,-0.3788580063547207,-0.32416806449879815,0.296326129165937,-1.8962711653477033,-1.949665323738129,-2.8039479221367642,-0.6843038338310191,0.8707788551982524,-1.507281399552799,1.4730933472365235,0.9023523191552769
53,1.1290059432698192,0.5145623382212597,0.5129350396423576,-1.7052827604670915,-0.5891471738012994,-0.5923073241438003,-2.7915822056928112,-2.430108429095342,-0.5005587522960788,-0.14019245431235083,-1.1630592132047028,-2.988813795081072,-0.06698014807279233,-0.7332741294177079
54,0.6422966176560833,-0.22643330342892146,0.2171328761559923,0.269868572347989,-0.21251464574991602,-0.43262305978699506,1.9837348171946378,2.324381842005826,2.5124941261366613,0.4448280873086142,-0.8251407238475437,1.958223879803955,-2.1032095428462445,-0.4790911213763245
55,-0.22057379292295973,-0.44164224983642963,-0.6665698950860329,1.0879193768881734,0.7920177389762376,0.7859852623396705,2.4104144926977553,1.6274559310136525,-0.2475967023098887,-0.15650675083249477,1.4815113529917516,1.9588600478602505,0.5508696054268004,1.3133718492033342
56,1.2579005281165059,1.144036521315101,0.05183651857528501,0.04460904139507791,0.6503703620976453,0.5080516687018177,-1.9105829021709644,-2.288170370589663,-1.7404212700916817,0.1036467592973633,0.8458208117974354,-1.8615453603752394,2.537395530198752,0.05712664061609529
57,-1.5982221121566227,0.07438852765253545,0.6647396397684073,-0.6845121491719947,-1.4043839622143544,-1.1810251957493478,-2.215153607847312,-1.0494458558908888,0.37155694518802584,0.07712964873926667,-1.9063700268009205,-0.9478597190012317,-1.2375351842599618,-1.7828876381237047
58,-1.9408005046405463,-1.905558275185677,-0.33373531211739077,-0.40654727547734537,-0.6747064115210003,-0.3666289070619344,1.8544235711886374,2.012230438908334,0.9339550268580107,-0.6391750574484484,-0.769073517147364,1.2680441098188258,-2.5699163757793437,0.3872560396383738
59,3.540699982976338,0.44728839705304885,-0.48596648502117934,0.45546402374292605,2.184026596418107,1.6536877886835761,2.13575995980429,0.7563562979681778,0.1582821290420532,0.3940315215978618,2.420357143531618,0.2653107118415274,1.9244347918141214,2.1759365094659397
60,1.2986374149690134,2.4655707623294476,0.5014258070150046,0.7251065348217244,0.1345823054637962,-0.07551040311176972,-1.9143274503149303,-1.679734884084814,-0.5705356402437437,0.8223458279605205,0.41388013958715636,-0.418569348758004,2.1116165387135704,-0.9418324441233177
61,-4.758804618926248,-0.963941614679115,0.20139385606341906,-0.3208568500831753,-2.7795983067864105,-2.018360309496919,-2.0404494973887597,-0.7089818572282237,-1.0367174936242336,-1.0389438735860104,-2.8428292334761682,-0.07697116091008314,-2.348834406206866,-2.42188659721269
62,0.25309060124420335,-2.8829958364742105,-0.48742445949410246,-0.9963295189331571,0.8808304549589455,0.7851163519470101,2.068556343775228,1.4303675627547807,0.9226883528310847,-0.4651012775328533,0.27123340856392414,-0.3448358745703205,-1.2388410803634813,1.6576389547201251
63,4.665687998752935,1.3691660487229538,0.07581404572100749,0.23144886521477906,2.892522780724924,2.1043861339046743,1.8393221859484898,0.806831516463458,1.7643163900998198,1.514263076981171,2.927986529665248,0.3391514164614148,2.2920900036596,2.3701921421049095
64,-1.9170763645518567,3.2808936088438987,0.30750816210453463,1.2657010039383705,-2.0799991204228636,-1.618052595266354,-2.2170385834118025,-1.3306728796790221,-1.917031783811425,-0.3830333176111968,-1.1384054519670168,0.7113837659805379,0.17284007235468776,-2.4642764085258384
65,-3.193587059409302,-1.6580937351640472,-0.25380809714323976,-0.20501177144207644,-2.4099908996535473,-1.827898300451339,-1.544775638954886,-0.9360814962013192,-1.8875317335846973,-1.5103177717575997,-2.523125585659326,-0.8147267216095295,-1.6682605330631268,-1.8881559444192924
66,2.8299250268821137,-3.7700156274691135,-0.034737145101221466,-1.56184725484132,3.097201027162207,2.3736540659822163,2.2705539563882633,1.3736229076008812,3.1611104384368653,1.4592177380009324,1.8995789993967835,-0.5266306925704267,0.7980088632750493,3.162195280200062
67,0.8611304741214995,1.9235000809335119,0.2986547659455485,0.306593063513442,1.4473053943110155,1.2249192879144222,1.252391631480916,1.0115750475585288,1.2202692246457882,0.8835681215618135,1.683509942100871,1.167712132889442,0.5620425878871271,0.9711201098619304
68,-2.447670376497759,4.3725092328532815,-0.25004983383894913,1.8461297376376313,-3.6454458436610153,-2.869732960997937,-2.22003917207674,-1.5040390085061022,-4.127103772649442,-2.3950777138090773,-2.2835792376557627,-0.14110120139452392,-1.421058880302781,-3.507044296769121
69,1.4224108065613876,-2.2952865061512004,-0.2288139525366836,-0.5857206337299415,-0.2862583850405998,-0.4326312815428733,-1.0625601577160315,-0.9974999818101141,0.06489889370074205,0.28714039612857956,-0.6640781444965143,-1.1011214645632168,0.797415766946018,0.20929728412359094
70,0.8237487231578208,-4.98753898549654,0.49586889849946003,-2.0135197732084853,3.6225555113368864,3.0016991401565836,2.1384334974718953,1.6561401395761262,4.4000339650864255,2.852835090852738,2.1939566370695145,1.0238394857157664,1.5685276427945405,3.3415302891405254
71,-2.7635283252809852,2.8495228426308192,0.08195821103039146,1.0118148009270014,-0.7531600759234766,-0.3658988214096904,1.003062154280545,0.8999076030110138,-1.5201307832714246,-1.7279839301054163,-0.21421360950336868,0.4823559159850508,-2.117296682634821,-1.3595496985100073
72,1.384553260698392,5.424862072312111,-0.6874917853994298,1.949199412244334,-3.1274003898807163,-2.761910393941951,-2.118418913950179,-1.7821831056227428,-3.8658111282863903,-2.6384932988559666,-1.765040942848798,-1.7607451763615196,-1.2779391541240408,-2.6940472133396045
73,2.717872900246166,-3.534705126702617,0.11713974514781493,-1.4532979523057918,1.4428636911903712,1.00081333084492,-1.0086783092022995,-0.7408235019691644,2.6336366825894584,3.057743442105777,0.7431195122739896,0.5978985670632585,3.1461369573557003,2.198433518012618
74,-3.2225008727535056,-5.499123212794774,0.8249500982615301,-1.6096051807831837,2.388790786710438,2.2213960458897657,2.1948938766837864,1.8572599945159038,2.7497003678572414,1.7623035585544171,1.2763384973945169,2.0446977614475754,0.7250206707453971,1.777437929153489
75,-1.519658889910515,4.161998118396676,-0.36649674180960173,1.7219624515919416,-1.7195167426287525,-1.351193573202608,0.9703750052017719,0.5363059331800751,-3.060081248839526,-3.9018333360885897,-0.9380725034057712,-1.8599480074945396,-3.759734778015284,-2.595037478154842
76,3.9228577017415835,5.140871312782542,-0.8978981216525449,1.0771384192603886,-1.6494733596284195,-1.4969043265982507,-2.3097623261296407,-1.8645534822775705,-1.495958131551552,-0.43794959696530755,-0.9772638623080728,-1.7455633121302994,-0.1381122097107374,-0.880631047947408
77,-0.03738038138885323,-4.477808842826911,0.6724558515180533,-1.6647079996640808,1.6736929742516713,1.3532030674018674,-0.8163541596677024,-0.2959506446863259,2.7600619624001697,4.002476189165897,1.010486712610931,2.9476549013949556,3.989114395173898,2.6268780320245617
78,-3.3141420852228456,-4.461243492492978,0.8749856300998444,-0.5480800795045524,1.0647060497196295,0.7265327089874265,2.344177460763173,1.7821456426694962,0.557333803746027,-0.9750963040323133,0.9332033852214403,0.9579400241284883,-0.3076806591929052,0.21303890180501345
79,1.0255294787347897,4.290653439584294,-1.0245827510615,1.2526095652230207,-1.471311567652447,-0.9972364931492749,0.566430702759099,0.0401994330219726,-1.9925955522637593,-3.3002203018545884,-1.2201468175156382,-3.5700403287984357,-3.9770020049758954,-2.5204418302175253
80,1.9180593864105737,3.7233502905752194,-0.7156980635392655,0.2504519645846783,-0.6623269948454246,-0.058418092200886555,-2.1944825648030504,-1.5897897891826138,-0.198209962883409,2.07352533356295,-0.988733312594456,0.04406876233590924,0.5652006460612857,0.20787412380250495
81,-0.8929678793909552,-3.585258306425979,1.378626513129144,-0.6130574286340363,1.255322199855876,0.33182703765600907,-0.3233978814608325,0.18693932261478594,1.1781938677916677,1.9649385928371779,1.7018367447572258,3.612078976114883,3.8842623714901423,2.505139725954812
82,-0.666849670138224,-3.223464825799813,0.39759733338912495,-0.3321315086664196,0.3756249302344421,-0.3624335468853143,1.8389250577955965,1.2924159092907161,0.3962595473297063,-2.53447178714858,0.8662983803142226,-0.922642413802037,-0.7210179054894102,-0.5596626309141991
83,-0.22488517609575565,2.553925238614793,-1.6606756632633848,-0.020128165965519588,-1.081430414767368,0.5262679491241709,0.2112747118608884,-0.32953635178819496,-0.7043818452992804,-0.35980253261094886,-2.3709089695885095,-3.1702025988601994,-3.7936718053467535,-2.660814614168356
84,0.38673333044304825,3.1420372980182933,0.057618229812658,0.7817026562744244,-0.12026423103501006,0.4246705502116508,-1.3527860422506797,-0.9368919981801352,-0.874029513984266,2.2280630656432256,-0.33533891162773316,1.4124449203795246,0.9288949836807203,1.1024477979905434
85,1.5724377533201968,-1.5182773333202404,1.7933755745120081,0.4165054279804824,0.9180392851229618,-1.3952200669474246,-0.3044269312900235,0.35256903073420015,0.7600179714009955,-1.0630378274201686,2.957066298916333,2.500235550915733,3.6610030291009967,2.843570702620049
86,-1.3304001073960114,-3.4489991198801033,-0.5766751032249372,-1.4291035293810754,-0.1353854465722958,-0.09415400012761972,0.8681771549221439,0.6003937630245814,1.235257608174883,-1.2767635154289163,-0.6471226690929229,-1.4200370523513564,-1.3045174034722204,-2.0050991641579077
87,-2.189587459907541,0.7801301514765585,-1.7315606310546274,-0.4599580197465911,-0.701136584697147,2.0628203788034725,0.5905321118853848,-0.2707805975685395,-1.262913110049426,1.9104225300461855,-3.1385862439786583,-1.9021685092323473,-3.3409033801266124,-2.7378502089846686
88,3.0183042539751015,3.9185411949936326,1.0542074724332644,2.0282258033118983,0.34821577869881626,-0.5549099009321014,-0.5094936990049356,-0.35219986535046005,-1.1437887465059857,0.028697561601842992,1.8953851174422167,1.0450223750623306,1.8362433497043313,3.198416518175605
89,1.4516318596944282,-0.48375656455117255,1.4870883143741735,0.1994502187912945,0.4035558981588507,-2.3486073880908203,-0.9816595146240663,0.1483634856848974,1.9038357091366445,-1.9889065651901279,2.7010060311930557,1.5943530399581523,2.6780133865638085,2.023212755308552
90,-4.479856211997006,-4.242997934846163,-1.3917455990487198,-2.376550217988504,-0.43538226279911013,1.3473960210455032,0.3426992148768704,0.21430264315831155,0.47260911136529354,1.0581944328012682,-3.064107406311619,-0.5164433889586049,-2.361611018691084,-4.3402636591767525
91,0.5603808658507466,0.5621823091504426,-1.1271312171667138,0.18790050861156884,-0.07340270158791189,2.1654654113857017,1.3575889635980314,-0.06635478174552194,-2.2858331646484227,1.3786165270044612,-1.6446903643002708,-1.6354014526665652,-1.618805014829328,-0.5837002337411982
92,4.767565306896944,4.17912451292415,1.535869912431435,2.405885713348025,0.3399959437529586,-2.056865489586829,-0.35889644090778366,-0.14868142535185322,0.6360028168218467,-1.5833854521879314,3.7862341567391447,0.07897775005858684,2.628508351936829,4.933974798124531
93,-3.061046744664208,-0.7862287425096581,0.7455805035917062,-0.4989962682562286,-0.18119614488213168,-1.5491291028688545,-1.6138748684644106,0.07902230599648251,2.1023461443301876,-0.40202791884578293,0.20027876183999918,1.9276733814538838,0.2837897440830831,-1.3495999854508145
94,-3.4698466169231326,-3.6503957808125773,-1.4946459526655456,-2.1952738607941993,-0.08498937107177512,2.474496405882789,0.48993922827622627,0.07917050172509953,-1.8255822139582631,1.3545168052327519,-3.8174791194679427,0.11142182151102109,-2.4157694500219753,-4.566367803487358
95,4.935196808276703,0.8773914296933288,-0.4235617304387509,0.6125606775251005,0.25073820915698436,0.6435831959923711,1.694206573479447,-0.18702564659475931,-1.280216296759374,-0.5047323012853964,1.2465677866588085,-2.291911378819514,1.0449487241611728,3.21925262502533
96,0.9505258662979269,2.7656563666725975,1.3244712648856691,1.9022255949784301,-0.21795260187978757,-2.4658160874055906,-0.641361739103386,0.06836157074402666,2.6769839633151453,-0.4555380640497953,3.1327293335533963,-0.031160620792372425,1.652874378113114,3.155617488341369
97,-5.286961117666889,-0.6219639311060805,0.20088113843201416,-0.5395554175637394,-0.09200517643681012,0.3445555253047868,-1.5997497854467402,0.3409453450060589,0.023403838503225926,0.9639819727345235,-2.2879052473369152,2.564599349334767,-2.0225981671208753,-4.348396359815738
98,1.807421866023675,-1.7642711636487685,-1.0970504826284913,-1.656727812272818,0.4112917655290549,1.9969303254282535,0.726769972162148,-0.33290682722933773,-2.893644351945942,-0.7973281448341929,-1.9428239838952266,-0.2407418860121436,-0.4747373376541193,-1.069556375136092
99,3.8749391407431246,-0.059633895138609436,-0.07207263666375589,0.38703870774248805,-0.23354198714575805,-1.1986706589394798,1.3780424156287847,-0.46768075245415364,1.2674948215952717,-0.7972668442064261,2.6354774918635835,-2.662047905780722,2.3802952420638714,4.251748418350735
100,-3.6629260765762646,0.9270704727227547,0.8665554476694025,1.4864986065454533,-0.3655613851929828,-1.1324345926848853,-0.6922641082370293,0.7077211478542706,2.437062686574984,1.9893968729581533,0.6276787537245611,0.594433507658413,-0.8184597544112159,-0.974556871319943
101,-1.2152000868157005,1.1004960489755704,0.005142661185825472,-0.260670806267854,0.5733180310642447,1.7350967925153764,-1.0997785894546996,0.5006040984780681,-2.1684394641812443,0.07681306550888961,-2.2236733445251753,2.582167397128413,-2.034647730062347,-2.894046630159272
102,3.8347889172320304,-0.4919022512386031,-0.6543327890080274,-1.3247335421260924,0.04722437468006951,0.017725974849072054,0.5256036182042857,-1.1503298276631009,-1.5471319370818588,-2.7696999732325067,0.3922625136534453,-0.9509275861235396,1.874405740495913,2.203012283019205
103,-1.6790633374356894,-2.3188956522265185,0.03151188702727836,0.17455740041570908,-0.7456274791026593,-1.8338657864980934,0.8340369380637643,-0.39822049555847366,2.4197177304363704,0.9269651662665144,1.23713972805531,-2.357856608322533,1.1176484547442744,0.7502167114160395
104,-2.215894819371294,0.5960628783779836,0.4559138121856236,1.0976806030856252,0.45484023402588275,1.1455064267657005,-0.25147184007446405,1.6006436609015509,0.6349173857746564,2.9725160225647693,-0.8038141652027394,1.2760050381168295,-2.4168141970899026,-2.1327116555616623
105,3.759739639015413,3.4731925221234805,-0.05112880992545903,-0.03881671550356715,0.6219531611084002,1.4621384646750943,-0.6300624168417833,0.14827979091364132,-2.0402678949886415,-1.8706088993285728,-0.0491145841981987,2.006561812149851,0.07779365178718954,1.3788395029790288
106,-0.6459597925249458,-1.2517835636207373,-0.26119962567903826,-0.8290095616055313,-0.9601856379915334,-2.1315385312158264,-0.08122460830965618,-1.9959940330486499,-0.09717924987769638,-2.653050496830761,0.5154352554393106,-1.5472262939915435,2.3323674414563533,0.7951259886397993
107,-4.359818088287838,-4.321751792771562,0.04870667780777579,-0.25415474956944517,-0.1895557570226823,-0.6909176124426538,0.5080764554974233,0.23676695142722196,1.315140216708978,2.477220100244955,-0.9129916045221981,-1.518731275226003,-1.2012077460036266,-2.7094049076645224
108,3.841884340379077,2.351166196875246,0.07201063151664348,0.6738670828547918,1.272437009758606,2.7356692581421376,0.41458243965103636,2.279524388670793,0.13947401032964768,2.032378311698182,0.3082729342485056,1.7114677558044882,-1.6919124034968076,1.2778276923547902
109,3.376005237717338,4.67473247227033,-0.015500691125061897,0.6983978183150118,-0.43761361720206554,-0.3045491168049639,-0.4576870520267757,-0.7262588168242069,-0.6637192743249193,-2.6330054569068406,1.3273477333327788,0.8941952736833431,1.950233495385847,2.806830157172726
110,-6.481022273783594,-3.6917569454630264,0.09472075349883079,-0.8342295049831004,-1.263801414188467,-2.8303847393859467,-0.6976427721562662,-2.403696618743281,-0.6886449367576934,-1.3839613582393042,-1.312075614614338,-1.6785808179698432,0.7151949577024856,-3.2953969784575974
111,-1.1864771634896916,-4.430966200123999,-0.045059081657269406,-1.1002171280362845,1.0663278855634293,1.27526647412193,0.4430961958206421,1.276343116888671,0.4516867606046696,2.406684037425376,-1.0978342289937009,-0.19305154093539553,-2.1473240983468593,-1.745647902285001
112,7.962620152457938,5.0130188624745555,-0.21839205142716864,1.3928355959410963,0.9274991349040418,2.416419735775618,0.9021251596605188,2.331376880491867,1.430991251611819,0.9140321125730893,2.094293192030656,1.3680077001454711,0.29741406723812236,4.551225974940858
113,-1.5833211403273941,3.60085560813521,0.11243867905608457,1.1420769476451267,-1.506550164949846,-1.9659803712008075,-0.41633696539158266,-1.8319398645842466,-0.8324281184961173,-1.9913804449959498,0.37976456412486703,-0.4502286574834762,1.7770569541085086,0.03192197518864885
114,-8.055801389894667,-6.039098002837466,0.29064168848176686,-2.1785472808330897,-0.3739588805977837,-1.6407461801428012,-1.033357308005378,-2.0370744148701494,-1.9536363211808851,-0.6861446340864726,-2.3688089328754,-0.7784239184178453,-1.0467375580834775,-4.699298951445972
115,4.287785474860444,-2.3194878922345294,-0.1583293788118805,-0.5756823207362782,1.6482668526688762,2.2042403521773934,0.3379542816277613,2.3249208369634493,1.685354229818406,1.599717049553503,0.5027855436137639,0.8757900692814907,-0.9838056023353662,1.6550336650570645
116,6.832591960770905,6.531592482331803,-0.32333292227289134,2.779689543681813,-0.2243401712197547,0.7574839606569365,1.1286291534853456,1.512331559902886,1.922232552983086,0.6190144889561039,2.069787019709778,0.02312322048450495,1.3163578145217936,3.840285067355663
117,-6.384820152439898,0.8460855181587171,0.1631033852313701,-0.5677293940204929,-1.4969559453953432,-1.972719692746745,-0.19842684123212548,-2.671707362372369,-2.6715374029757077,-1.3615836831557802,-1.2076076739720776,-0.9853164527410964,0.03018715266861475,-2.760036480928459
118,-4.564573364081495,-6.356957223665884,0.34276736746367553,-2.7364796764689054,0.709808628124167,-0.033156620014910335,-1.2385385011858372,-0.7782012639992136,-1.2174344113673092,-0.5539194236059081,-1.3503274410276842,0.7073255590750974,-1.0375757501497624,-2.4017058731315
119,7.465456618199667,0.4685171738951508,-0.12779490148150602,1.9003989454828016,1.1548659997822643,1.4206631438690462,0.028494728675079985,2.7787661099030787,3.3751093795269567,1.2726092094909007,1.5157136535002993,0.8052031709043767,0.7798928458397103,3.043013370166168
120,1.6631465348478023,5.556994096345638,-0.37402526417919496,1.8184952977793072,-1.0011226009789735,-0.36574690341403104,1.3969998548210543,-0.09907430808621609,-0.022655472703134154,0.3551011613519832,0.48378084600310856,-1.2394373381423311,0.31634557958618886,0.9006279393127319
121,-7.263087557023105,-1.2666157132521332,0.07343413485178447,-2.8179139050304953,-0.761869370524581,-0.7942322219864344,0.1117454542938487,-2.5630953610246707,-3.465744704010168,-1.2165044431325205,-1.393230362689989,-0.4751410595147377,-1.1973017374734582,-2.5907737352914575
122,1.3384795100529336,-4.38450188326713,0.42576997244378056,-0.21610001514900432,1.1123011633856863,0.44217043645353954,-1.5960336103242896,1.001042182743846,1.4618606943665735,0.010401868987545235,0.26968206487271934,1.5059517396324478,0.5948998857638189,0.2746659382436152
123,5.700889970087351,1.3144538980493783,-0.02792494149370764,2.802322841214589,0.42685054259105554,0.3122202197798102,-0.16442233830106315,1.9843819804009237,2.816402078553859,1.0454334595586,0.9542892890449738,0.16402349594717763,1.1124971758154254,1.6811527914791948
124,-3.823138510373479,3.256623396746527,-0.4855771611827795,-1.491673162791935,-1.124192153602881,-0.34808472858103745,1.7834707229070998,-1.7702459448598422,-2.6926684301576316,-0.4554437166958567,-0.7553167745141469,-1.5672464266321484,-1.3794794880830938,-0.9600787530280507
125,-2.968973858928046,-0.6272914943336166,0.008884520870140187,-1.7192284258569654,-0.1829534281354037,-0.05479315029266862,0.1101078580644346,-1.074899508348435,-1.5379420413817606,-0.6710924307359416,-0.366563817494277,0.03067065696025861,-0.5955361801628876,-0.6056693235017107
126,5.201764116831457,-2.6104766396458996,0.529117030705362,2.599607647742789,1.1256111894732284,0.2782584812641856,-1.8901174856607288,2.2449551821361693,3.37519064691896,0.8233837510897597,0.9357353651939954,1.5499048445045507,1.7676578257599107,1.172026794841665
127,-0.4357089684773986,-0.4908291323273032,-0.013931283103974337,-0.07254755952775244,-0.012038146645334239,-0.06457052032265509,0.016103320207608476,-0.04811144031298168,-0.06933266103329389,0.11572659023506908,-0.2308231630502067,-0.13034794342067108,-0.12914140770878044,-0.4404227817629758
