,AF3,F7,F3,FC5,T7,P7,O1,O2,P8,T8,FC6,F4,F8,AF4
0,0.03374587921541498,0.008658955830307812,-0.023710662397010532,-0.031545142816423045,-0.024467916222298002,-0.00922780444391069,0.008352090485960759,-0.021531076074680522,-0.03943746182814079,0.05530569327402666,-0.06776612744037619,-0.016386824586188616,-0.021802322753506423,-0.0006507280607211418
1,2.8287885102938346,1.5235271493280447,1.760386710098167,1.731185339976118,-2.168525648990557,0.5585604149897485,2.48238583110407,0.46727810406803616,4.322552541397221,2.478421767585928,3.0818941875925665,1.009575027828306,4.084651608892626,4.7103716330859315
2,-0.8558284990905027,-1.002483084587609,-0.5209406185275199,-1.3310908870113696,1.1814388608279034,-0.05551651732654711,-1.8038928615274974,-0.24970441805875376,-0.9587138016222883,-0.9066905666043596,-0.25157458062016325,-1.025282153312105,-1.9124391256502506,-1.9198323810744957
3,-2.6054737253101337,-1.1199929900622128,-1.7072253231776433,-1.0408251182534332,1.8503065803485994,-0.696182024506069,-1.4656878943831204,-0.38605510957055716,-4.109171696770946,-2.1420882843828437,-2.9240691383075816,-0.4239276187247406,-3.149676889715167,-3.81265986004998
4,1.5559206565134411,1.7190874458211787,1.1113803445600976,2.235426435731958,-2.2819137398879628,0.22896564904872535,2.8875117780159893,0.44830830185312937,1.8752005043171842,1.5135238326365865,0.4589388548290017,1.5983729181011375,3.1688035764740383,3.206962087688865
5,2.250163166917393,0.5439805809507098,1.5575857926607248,-0.06518879304689353,-1.1701152316888694,0.9245245680440785,-0.06963618333349496,0.28430240593084616,3.6859650995833375,1.694399549578889,2.6952494337289252,-0.3527574629885302,1.7473212537737806,2.414297724597653
6,-2.051373081983706,-2.0319115214457466,-1.7344671232589517,-2.3893909845412518,3.2063208028882246,-0.5856555311625424,-2.8943796629701084,-0.5460168798906153,-2.605332703490085,-1.7780057123763848,-0.45884458415305823,-1.5044380499186658,-3.3679584740511697,-3.485000234381444
7,-1.8470930152359408,-0.0639250335779239,-1.2243507070506805,1.1286331003357633,0.1319373791540653,-1.1184229400176384,1.4080127500898139,-0.23164466738555411,-3.098871793247096,-1.3643546966743771,-2.521582039494115,0.8220950889865823,-0.5496891037632201,-1.1781902664366855
8,2.295138497980688,2.0013177875511285,2.2918001026803094,1.7905509649297653,-3.7855925726138784,1.1209021901274525,1.9554858562515816,0.5741911916250104,3.044954298091043,1.7685668425881664,0.23152397410674933,0.920103854477191,2.5909553739316253,2.8222190059037975
9,1.5128764972877282,-0.09095420859228766,0.6841592865888183,-1.6856622499095641,1.172213436913879,1.1495925352495961,-1.9481621380011545,0.2707966856110823,2.4630319033879,1.334227921322524,2.567150716675781,-0.6122436649365461,0.16722069131223277,0.7313655840091154
10,-2.313188831939264,-1.8550434643559464,-2.653225254709339,-0.7391211610440043,3.847257066664742,-1.750556902307376,-0.6069920100930177,-0.6091657666773524,-3.153677206396128,-1.7028519630951022,0.11714945100696414,-0.31236943527495786,-1.3484637389462424,-1.7292667886510336
11,-1.3527027046481404,-0.15141925714420604,-0.009362595689266895,1.4586895381142115,-2.530996262514316,-0.9331047578040917,1.4783788477140396,-0.37647232535142267,-1.931709373962759,-1.6244380006519576,-2.950820210270284,-0.303633968775675,-0.8659426490137409,-1.3592517629636176
12,2.21789960290753,1.8884427364200376,2.739767336430064,-0.2716966570602803,-3.2981333130236656,2.3401240297001005,-0.48792246131762,0.7247534581383085,3.0069232401872505,1.8455850068850257,-0.35675725210103515,0.19426423510435037,0.3618806565228647,0.950656058535629
13,1.3924370717167283,0.6498122143358762,-0.6700966333233818,-0.48596382434268126,3.6427846508646096,0.45501599652294505,-0.24581966516220732,0.4498792602917188,1.6113764278077158,2.0427822664572752,3.6434235623134508,1.567029409365216,2.427856029264584,2.8251596423087317
14,-2.16446653373973,-2.3207752161574504,-2.5740938045889172,0.7557260313062268,2.2033000697862124,-2.7483741692067984,0.8513283761300242,-0.9357055957147788,-2.780810960308522,-2.355548349023127,0.2162517251858991,-0.8492474052269262,-0.24746184924015868,-1.1168529134939318
15,-1.5345352054583041,-1.0877273001994379,1.2472796447870704,-0.875283825032726,-4.211669188866592,0.22581754097302276,-1.1927349521838315,-0.35989339105902424,-1.4770280054163318,-2.2452061418751152,-4.411191777214121,-2.5956698472446864,-4.218140408211784,-4.42444300857237
16,2.2572723605582343,3.165328198513733,2.258978976996218,-0.44467586089043315,-0.8075938692933116,2.8662378045837,-0.3860246222447918,1.1653003159950286,2.65707912435893,3.1568765517951722,0.4680299637455506,2.1678837854019664,1.2346516785400896,2.4106573392743065
17,1.5881810887000969,1.1064027145567819,-1.6985007007759554,2.0868846701550137,4.07330208016103,-0.9943758111145156,2.2448941626040155,0.016109265128555043,1.3592429788997662,1.9048933954484273,4.867829922676903,2.86714115628232,5.4410708447699,5.282128255393715
18,-2.4634299253109058,-4.179725918566192,-1.9001292857974026,-0.5866955760733924,-0.5332774123554335,-2.641339215137248,-0.6215594480229101,-1.2628884789304733,-2.7007077775776023,-3.9207096335326144,-1.6165150959748358,-3.682826017001658,-3.042554606797701,-4.424321691113367
19,-1.3787140402772606,-0.4891811408027737,2.074187542070677,-2.656575878764396,-3.2815005665943113,1.702153821502724,-2.5440203953648584,0.5633311962411119,-1.0341383133339321,-0.9175479174015343,-4.642322551084461,-2.1823209178572087,-5.486385381267248,-4.770391519339101
20,2.6064072212568963,4.9449443798070245,1.5361436265825628,1.946644183793271,1.492612030671229,2.092257513217785,1.6709069376858836,1.0730033804143935,2.79827843287418,4.2015585974985985,2.879091404126754,4.788881245006358,4.983575656201604,6.307485530979655
21,0.8751290287358635,-0.6911690900593663,-2.427740567605724,2.3511085727154146,2.0955215723889693,-2.192719788688551,2.0841023727006758,-1.2310010920666705,0.37213443584758615,-0.4764681753288649,3.5888704028204312,0.7738774458873714,4.214664378018833,2.8355852678595386
22,-2.4677154826914873,-5.0638759616645315,-1.1345590781923864,-3.098538081282164,-1.9121677841458198,-1.318204725581798,-2.297299477923162,-0.5262630776071461,-2.7148936935951147,-3.6845018988540597,-3.7666811581556336,-5.040974967716739,-6.267301780764694,-7.15409135929521
23,-0.24197828657292073,2.06052761256061,2.744396606729186,-1.2922489609677257,-0.8618296374776717,2.3378459685219424,-1.1803629611684043,1.758451040247326,0.5520729395196573,1.7536822255549207,-1.9141077914126994,0.8005891334569637,-2.0360932304674293,-0.051768558070500965
24,1.9431637438536555,4.389703061694131,0.6578232029881907,3.5984217564502363,1.8584986901974199,0.49665016499374465,2.283834747359841,-0.2974199957763826,2.2468995770682842,2.4118097044097206,3.8952867523630608,4.378816158874491,6.371331329894986,6.434341647483942
25,-0.2393758529597144,-3.1082562193374583,-2.936756889048926,-0.11181924496834246,-0.1485425946336737,-2.086756551376883,0.2860865206245154,-1.937989146353837,-1.4713910345716974,-2.3577192504674613,0.12197132422111943,-1.9328895324966522,-0.27722662803135056,-2.639560827948211
26,-1.1454893065344045,-3.1463735517707816,-0.14073411754416523,-3.281097983171362,-1.5582181279899243,0.14927140788126195,-1.7408123405330012,1.1748036148700067,-1.3752784733946721,-0.8374602666005785,-3.2087499744601544,-3.1580726871768108,-5.288979795555533,-4.241395437442218
27,0.34401104986481285,3.46118702916588,2.919412095998861,1.3618586163380495,0.8522960030050769,1.5100976711830238,0.2413268562526466,1.6890050724669536,2.065155636649705,2.0182248937775906,1.221896734757214,2.267942557044139,1.9643240932772255,4.366460783336365
28,0.3683475241564262,1.842315373376807,-0.29519519981403625,2.3050571415063907,1.2490205533579881,-0.4214760170726662,1.0207426541679645,-1.8214483578645997,0.3159630667023095,-0.36067043580864644,2.0353840729316626,1.9642527796960332,3.510955053320659,1.2246350295163035
29,-0.0581456215834862,-3.108878871055453,-2.7043686602861587,-2.0859302740811794,-1.3480040164326337,-0.8049038596774253,-0.3101636634636157,-1.1120847867575747,-2.143532009623566,-0.9490890340959127,-1.784619169171702,-1.8759779225506243,-2.636021585123053,-4.7044975692872075
30,0.0805891212483505,-1.0001784603785906,0.5173764786642637,-1.044387991832316,-1.038478940815988,0.23501714439464227,-0.515420241638924,2.015797894269244,0.5732789750847176,0.6353149194673956,-0.9211457393736451,-1.3013880281169692,-1.7431827551931827,1.7398387316884887
31,-0.39745663829210903,2.4274697222203474,2.4315185050136146,2.170231171517914,1.7974106295442125,0.23742420536216763,0.11658502127152197,0.45776867468777127,1.7627260509846605,-0.21664785715486065,1.6423155902352213,1.1959422311801589,2.4191153406436436,3.80332765571373
32,-0.0729278140698088,0.8538622391955298,-0.4980150538216771,-0.10171115839931069,0.8602943620291059,0.3212390223384183,0.4401941892097999,-1.7067472231994925,-0.9780081550477338,0.10304546744493939,0.32137423289394074,1.3209642994157322,0.5227306353400206,-3.9490472093538616
33,0.7039993987739638,-1.9644343670302282,-2.290914844898187,-1.7481695441450005,-2.2723089541891173,-0.034743941391511705,-0.009618171280567736,-0.018120265843334805,-1.197756280464822,0.7504238868896529,-1.217999014204717,-0.7742634494027574,-1.8040254781321208,-2.2226961152082985
34,-0.25327624149211475,-1.203939074691927,0.3760036549709818,0.873858087187416,-0.5568491858502246,-0.9937885394796436,-0.7192296757550051,1.0507278519278607,0.7940557850040889,-1.387813582636438,-0.3337800857258259,-1.7428035947678229,0.04020099747077437,5.130604844357461
35,-0.658574871645687,2.1014574150129577,2.377381280713866,1.0768067146802742,2.670827937111286,0.2710491413765068,0.2716566124748787,-0.012822766215395343,0.7868406285490821,-0.24532977209013074,1.004594976925998,0.938291554714434,1.2968686560516036,0.6005748528447313
36,0.5803124470593134,1.5354604462656212,-0.3981858084299271,-1.2121357073662653,0.034025263366296854,1.4553072791073647,1.0352882845169356,-0.35380467705309754,-0.17617425920931223,2.4099975090566277,0.6442046181192886,2.019991442457978,-0.24426682321777413,-5.447229301503563
37,0.32342022680574106,-2.8016413499232176,-2.580198589138271,-0.3880607736148452,-2.765428977523217,-0.807063667457554,-0.9352857533540678,-0.35469990166899,-0.7392961616506806,-1.1099738977017874,-1.2368436956170457,-1.5869595696277004,-1.096130965999615,0.6495852477801334
38,-0.6241531512576939,-1.3396602720854236,0.7577686331719877,1.2024415258553325,0.6179848429779301,-1.4468330296932792,-1.0199958154175837,-0.06389287032399131,-0.5610419467462856,-2.449972866257067,-0.7320342559516899,-1.6654136480877724,0.5259670306375529,5.288638703619662
39,-0.004314573346076943,3.6058885409084436,2.601257388465434,-0.19868689163196177,2.3587746780268333,1.3231878984809033,1.7418109292036177,0.8887541675330197,1.0213629155511588,2.572703712369811,1.7183095344789199,2.2236842926322784,0.9935872579667511,-1.4610138890637512
40,0.33902887630251743,0.4484275945924662,-1.4291236123958229,-0.968239482531771,-1.1281780837866606,0.909726196715291,0.4808766821437906,0.0256175471850747,1.1317073514943683,1.2999592032466563,0.21967528029269123,0.5625135873899415,-1.1142148747143952,-4.998369264022016
41,0.061407561478795746,-3.893936578330315,-2.1151875979006918,0.6692552259899677,-1.4470371491351752,-1.4458200808001553,-2.2709466376407565,-1.2274379181223993,-1.3892343496001218,-3.2070089503221952,-1.921676139240364,-2.22586902208407,-0.5552765163930059,2.0257517634775692
42,0.022432342610323727,0.8257730735562184,2.1164834587676737,0.5869005618981991,1.183307707213974,-0.04130055716141752,0.46410294353664566,0.3968510019790835,-1.4446501303210595,0.5613370563328943,0.8457040523471808,0.9169278091426165,1.830803360992645,4.692489674592
43,-0.6662495246414544,3.261500074915088,0.9872716051659238,-1.0448149633881287,0.2771477111277767,0.9200367802300758,2.174096924970951,1.049808119506772,1.5516727183936012,2.3899027746940096,1.3150294248765002,1.2124420563797427,-0.5350592053150814,-2.5844535966476516
44,-0.04015972264909616,-1.8390303568615096,-2.3722076001988457,-0.07679115957028618,-0.6192633917300435,-0.7647978386335497,-1.4258212394299357,-0.890184067829227,1.6463402489780754,-2.159307638810764,-1.956978548449542,-2.0664303441395178,-2.1647772483414673,-4.2496351773467795
45,1.6567433367852171,-1.789034019650576,0.5843310176041998,1.3151941839230232,0.7505311827012744,0.2484930026290587,-1.3815649377745207,-0.25201525389698975,-1.3658079392790703,-0.19511121151447025,0.2734788787394008,0.6903066020599651,2.1858206221044334,3.2294067273627993
46,-0.6249511432145748,1.975099453490374,1.836011383651496,-0.5562387808241668,-0.45850438304414054,1.0815445276277453,1.940977443947488,1.031635699842168,-2.0120813911549424,2.504023835029756,2.3943471088823403,2.202646039282709,1.582574404906987,3.446697559663787
47,-2.5828048592392454,0.03751730740645506,-2.1023165322033823,-1.424687211454257,-1.2807760254515799,-1.7562261632589273,0.16544025566059847,-0.9598496193852305,0.9463944421952495,-2.564316005087008,-2.469946091270295,-2.838655910461793,-3.8460165459307185,-3.823294956958202
48,2.0118675543349482,-1.007365632973161,-0.46537729371103614,1.2639446836118235,1.7071044235671495,-0.6493042018875269,-1.7200282728630687,-0.4978993707257965,2.748844977205629,-1.1219571230231413,-1.6248292301827647,-1.0454534805389988,0.10620721147384445,-2.145309586866948
49,2.9198318961885676,1.23342340007428,2.9826594433824534,1.3121620829491907,1.181816713017657,3.1014226751065603,0.9800386715304225,2.120395966509218,-0.6180131936009478,4.683524313946434,4.467250753412712,4.340851969032071,4.7400602020332565,4.059277315105523
50,-3.7968063272666117,-0.7477510079201137,-1.3797299278344572,-1.9403279273731153,-2.7138825600186816,-0.4796902269080727,0.8099485422767725,-0.7447569870041316,-3.829810765376229,-1.6442420121579389,-0.3675066822418661,-1.0832288591198518,-2.545886423248229,0.42812617967257216
51,-2.3297480397059362,-1.4664925277125966,-2.843155621116314,-0.9663658973916129,-0.5955616045856097,-3.7884843240545067,-1.5770316959337822,-2.6948044763191525,0.7344619988582889,-5.143372214325038,-5.387126098398004,-4.481012812219662,-4.2700098405935485,-3.6177608389476315
52,5.419871164490525,2.5758393583155583,3.061061499645761,2.4568600109256966,3.1961727148291246,1.9303787313416991,0.41571034202969187,2.3698902081239894,4.963935905239307,4.742620339738144,3.006393023414169,3.3592733431215738,4.9265189401006175,1.3752214237107014
53,0.8288498525802334,0.6000371503282552,1.7141049983124936,0.45120059399627804,-0.16309367181349366,3.5485272093780433,1.3941007111380774,2.330637280140861,-1.471203529217982,3.623353633024651,4.703240442859347,3.083483731111691,2.3640334284591713,2.342191975696053
54,-6.327424022845408,-3.725386321060175,-3.9443559288338266,-2.720241406243926,-3.1143968372853776,-3.14495241322916,-1.4311564227046933,-3.793394724914674,-5.721302720156307,-6.88795256430393,-5.3490706687337415,-4.819146585589051,-6.3379318098973965,-2.7793092257220318
55,1.2168640174443037,0.9070010976062916,-0.05175009003777228,0.11650826239237262,0.7850288082130633,-2.47180857298413,-0.5496414404774158,-1.0508562562098835,2.711794375205547,-0.6779807844504823,-2.505015517712468,-0.6253636517947895,0.428103707983141,-0.36033006770767995
56,6.202833680907172,3.7822480613940903,3.698762094034629,2.7118325128587424,2.642691999041607,3.6174696123842494,1.8026069372438378,4.418598130869333,5.740213444934374,7.167401781271562,6.496571497800972,4.8090919689662925,6.203212500741533,3.3163999398779214
57,-3.250789249809175,-2.3226077051240153,-1.4614957965096036,-0.6181926078428865,-1.1097337711219333,0.9840986370337175,-0.5563395952342308,-0.7171248735987149,-4.088294936312362,-2.5188891634983275,-0.5270956179375158,-1.9680426143637166,-3.1543557413565444,-1.897800368415723
58,-5.080061518524388,-2.856696414293497,-2.4583242231543,-2.486034727043806,-2.034652649239131,-3.1170080095599055,-1.378365992423724,-3.9136224833291866,-4.898408568329509,-5.462725736968019,-5.981020084061859,-3.2934693533128914,-4.560581056377085,-2.7323939563123316
59,4.748983658158142,3.0157844236898232,2.2319899687793026,0.9784697257091018,1.1546965846740522,0.3282641104062281,1.436581721303787,2.306228160638938,5.142571189842249,4.724903630823047,3.4092686884230896,3.7443963225160806,4.882331773652868,3.8023851450775124
60,3.30641769274926,1.496598787220957,0.7611933187125053,2.1355376727321755,1.4812911681504521,1.794951189390378,0.3384412730554362,2.3826110050890628,3.363657571834155,2.478236052852051,3.948945976325906,0.8668150967272837,2.04649152290788,1.1342964325218479
61,-5.404940704165978,-2.7545165531092684,-2.0265914143926045,-1.1797230923078579,-1.0362491354267118,-0.9673209257144219,-1.7344215527084568,-3.098422085926103,-5.514139115579168,-5.186363128834402,-5.253148210788773,-4.149978506889169,-5.104179929974529,-4.727835309782782
62,-1.3932240701437573,-0.3934051896212507,0.7020836480387332,-1.7503153520799029,-1.0483798307831764,-0.12501654577140905,0.9051892813122165,-0.3389837074570795,-1.5171349553924218,0.618786389202786,-1.0773179858419555,1.5301588536741815,0.4016103766980172,0.9772379218333344
63,5.2115627626492875,1.7847761938283213,1.0675432934994833,1.2471968560116686,0.8557736891615557,0.7330763019175676,1.3643878950519395,2.7986836640021266,5.064955134468969,3.9277748395537535,5.5920453523710645,3.252004983292424,3.9249549808177204,4.299218321574788
64,-0.17116687956135565,0.04776897491810638,-1.4038390781597112,1.3934955404731577,0.7148300536300786,-1.296725267899449,-1.8960682591132358,-1.511298758238346,-0.1925444351896452,-2.73853877475424,-1.7102355648538523,-3.0400159449596122,-1.9587359095294614,-2.8291400316728508
65,-4.429852334188269,-0.6764373022357999,0.09060320537963842,-1.2231516041678845,-0.6367115864265319,0.2008010257199254,-0.5245755016056293,-1.559776959733574,-3.9042535241181517,-1.661923066281707,-4.512784675459485,-1.662972334794307,-1.9625724355159047,-2.5881579931838266
66,1.0768451213135606,-0.559373855708403,1.204288494320611,-1.0989874694360704,-0.4618118597864521,1.999352761131744,2.318383430767811,2.5711112165935717,1.3929153224637367,3.315354969589438,3.5876594367105703,3.250640219284049,2.2353927614715854,3.635606500874346
67,3.472993130088861,0.038424517768707735,-0.8343675281843962,1.148387142469645,0.35035244330615806,-1.3748215387267233,-0.4071151822356563,-0.09997085417423587,2.3303051675167517,-0.5903516481872626,2.5739536987435705,0.22556019742033956,0.03854330432398297,0.16054227727085144
68,-1.2732086521117167,1.619543559748994,-0.38395477740129436,0.8804309778575071,0.33267214451856786,-1.8205992579581822,-2.10685277433539,-2.5925774746661223,-1.8841208225082957,-2.470638441071199,-4.09835441254048,-2.3282471913963785,-1.3746627029960945,-2.913081353990306
69,-2.7517971628235336,-0.24942434615752446,0.7775569360059006,-1.056852171022928,0.0009325336286890246,2.2472769584976473,1.037161665000969,1.5385664056982618,-0.7283028598054225,1.9582130661100958,-0.5732337158632266,0.37463527200936914,1.1730782201198715,2.077992391153886
70,0.9592051011642483,-2.6787511062333658,-0.520668499180094,-0.7389970149862439,-0.4128104835061099,0.9509930225473102,1.4500265895822158,1.7474818079900558,1.6757447440702402,0.8657071819200749,3.276581030380591,0.8842737612049844,-0.0860435104420887,0.719181506492104
71,2.5314342446234614,1.3158575668254957,0.07641252301526638,0.9776216618972069,-0.31695731820349876,-2.4165654468370663,-1.1130585017445185,-2.2690981799104337,-0.5419164820285259,-2.0481009550652023,-0.7394069758594732,0.11386702156883197,-1.379537977281846,-3.206501125995346
72,-0.49089764830773486,3.1926338989946834,0.9876332528748007,0.665349966763722,0.742499615095106,0.1666935881166092,-0.697316450957306,-0.5079254191784428,-0.9668612965430463,0.6410418594301026,-1.6014440317663956,0.3345880631677534,1.491467795380356,2.307177955223609
73,-2.8455819632337445,-2.894219207459527,-1.365806034040162,-0.9364681912183527,0.4114180116701019,1.767691024870823,0.6161179608022926,2.1436807276962835,1.2440484633631432,1.028573554273383,0.909993252855488,-1.4522152216013555,0.705800224466252,2.660172752874898
74,0.23867929944808972,-2.839176307253169,-0.7490835303997482,-0.6384358583036995,-1.228357988904093,-1.0239543317226405,0.21040398767172772,-0.5902576586134659,0.07635540204467824,-1.3602144149253181,-0.1867191591643853,-0.7748951744068068,-2.342823635304183,-5.150060592716624
75,3.4982905721507906,4.446028262788476,2.5669276304382525,0.9539392561514933,-0.10779944363692757,-0.4948288416531941,0.2410127461855683,-1.3672715339121575,-1.3262001282943578,0.5193592415493176,0.0800567077757105,3.0739829720681544,0.44897407650535237,-0.4842063470939213
76,-0.44659911794697227,1.6303927693413014,-0.11399309898641519,0.6249973526506767,1.6251185582887488,1.2347859862080914,-0.21675445240661134,1.179831153827833,0.6606395829045667,1.0126339348886102,1.3454882560168666,0.27581945365147204,2.452098427046316,6.79659963016016
77,-4.152336725914304,-5.453091214204078,-3.246499267609832,-1.0406562460638786,-0.6347028808861844,-0.9890167203215651,-1.1099072573371065,0.3541726680522536,0.9241231978812471,-1.889490665695264,-1.821629192691022,-4.366828054024925,-1.6420658283542167,-2.6542703067617515
78,1.1483671058699771,0.11097351288319217,1.2549262910655656,-0.5814922348270014,-1.6167632847798352,-0.6589014557564233,0.7235655097211164,-1.1833601313653983,-0.9991652494785083,0.22876711525082177,-1.3831836709946896,0.9325660801233235,-1.9265625853542347,-6.633562362917396
79,4.465991172631523,5.608968009785576,3.2395723479278504,1.1903707092497582,1.643261014784544,2.204484079430829,1.6553971303784778,0.4856316322220532,-0.3039945090101618,2.540409620521291,3.6286627382893646,4.929620716632817,2.582787233748373,5.712419478351057
80,-2.1708175196332307,-1.8907992021378839,-2.2610987802739575,0.45965970114654897,0.965558927599525,-0.5677594951911603,-1.5287382794166395,0.7821968554143448,0.8559471126374332,-1.8825092753384256,0.2225432171657042,-2.402499205315744,1.0183040460191526,4.685816829153476
81,-4.219258965444744,-4.915879942034987,-2.671903693143543,-1.3710395334242258,-2.5557103155851246,-2.7620926840331124,-1.692270472590601,-0.9188082076502704,-0.2319686058449579,-2.2692995711308193,-4.781640129717301,-4.689028432912692,-3.198613249780956,-7.67123249871224
82,3.215758322336257,3.238808924593585,2.8532098444924854,-0.2188078075314312,0.3433066329014008,2.0882150529150922,2.3231580262542395,-0.27227875310602156,-0.32241495529136693,3.399459771670005,1.781682172510277,3.704499873809964,0.060365639614193806,-1.5936793619985947
83,3.37982092855845,3.6540325918064953,1.8370929128811508,1.5182060878157793,2.949538545049779,2.4786288314467435,1.2467751948702401,0.9431568781310766,0.43956984667859605,1.2135867917700358,4.779399930235761,3.8423803706702166,3.5541520322207742,7.913470002419251
84,-3.977417905040875,-3.8780295349381766,-2.9803509103040224,-0.15303970185328516,-2.0362830065710344,-3.4397548834191336,-2.8334724385725374,-0.10229176873602161,-0.3765281907797578,-4.379700071003046,-3.978237650901303,-4.598891995299969,-1.2418511094363147,-1.6518696719232873
85,-2.091796018439257,-2.2440175569907796,-1.0167178363049088,-1.5407739189381395,-2.5276578804325673,-1.4289081791485876,-0.5165303071736945,-0.7189263545925318,-0.19737433932060555,0.28970435461916466,-3.508519826532317,-2.687587269334608,-3.6934534669255354,-6.421345339450227
86,4.243261521729631,3.799234231152653,2.7779797668615394,0.614701315335378,3.609409447398304,4.196838735789524,2.9330312933239346,0.2488855956961908,0.9539843363399045,4.669446504239438,5.6574791310022485,5.066317599951345,2.5680121686638584,4.08816441134362
87,0.6063552308763802,1.0696330569080874,0.3504440127783477,1.3483231179510315,1.2825497472669727,-0.07804408609444657,-0.24489062143707876,0.43679893796521746,-0.4667798877959486,-1.8903381197668927,1.2671089117340884,1.4535481191060986,3.522766574218629,3.727031472238102
88,-3.9427404012833733,-3.2171978068886724,-2.4375477199314806,-1.0601470903125623,-4.504794168923233,-4.104305902636261,-2.6666091366785194,-0.22005165396794923,-1.1391552135350476,-4.3162760163802325,-6.2993141336174014,-5.209827546163072,-4.046576457612289,-5.105763374557054
89,0.8065192116799317,-0.3424012159910098,0.18276303845047595,-0.8964588959490681,0.44284568840078087,1.595724313049836,0.8531243865138397,-0.20613536543217809,1.3835932475439925,3.350143439452181,1.3640035198261622,-0.22744787199016148,-2.8238480042316425,-0.6661862360252202
90,3.1385410708242873,2.4424901793508194,2.078639008367691,1.337722417693117,4.3461137337869165,3.1597955657071046,2.1837232274758605,0.126481518092098,0.748977499386511,3.4423114969899227,5.731833237864588,5.114503277931927,5.505659984692135,4.595954148387874
91,-1.9276465762666863,0.061920589534263624,-0.6856870651539376,0.22880323833661464,-2.0489753161361612,-2.685700381787025,-1.2596848930348752,0.021909259721036637,-2.2802931720196478,-4.551477020161021,-3.743809836211599,-0.9966186790411374,1.4024272674428557,-1.9349317248809328
92,-1.9808948098405088,-1.7386649724917738,-1.6965832924836548,-1.3043034487464862,-3.130379543554543,-1.611168232600355,-1.6272389161132281,-0.03539437908739251,0.2556933519820461,-2.1350249138125292,-4.140930186065469,-4.764908423532376,-6.560855133872734,-2.8964268192346343
93,2.620501400133585,-0.07464201094000301,1.2333413904753519,0.5137750197187452,2.91426492780851,3.0626364385299008,1.5281571396192934,0.18432845529590755,2.8462823379001145,5.413135047788859,5.385025891839872,2.202485687400944,0.7148116204851431,3.503468942583477
94,0.6559680528830353,1.2323942951399416,1.2009632033499533,0.8939586765406125,1.269249578316003,-0.13736676260162783,1.0479652162278907,-0.08055394251570452,-1.7424054844389356,0.431474009524512,1.9441993602905057,4.0718968169428775,6.744621452151327,0.604091068964637
95,-2.829096807357172,0.18709690222689032,-1.8043208339050423,-1.1331940723253546,-2.6754500172676274,-2.679022551753118,-1.742312211531103,-0.4528103503204543,-2.817353039972154,-5.797388044711993,-6.066063097520166,-3.262612007820879,-3.1631981953257107,-3.82283098655543
96,0.6479349363628583,-0.909306615451091,-0.5051418326391622,-0.16412944104806534,0.5685912884118026,1.6737078866891455,-0.39822953523952376,0.3147188335080804,3.4210944080804615,1.598778010032729,0.3895786963189489,-2.983643035042254,-5.748180731668293,1.6382021534287128
97,2.5614985075938583,-0.270103632285896,2.28659495653944,1.4510400113842852,1.4098222872189659,1.7120244291164495,1.9094900341797754,0.727047244798354,2.0585157225565323,5.495108356784109,5.8111150303706705,3.9436932073648077,5.298763272963854,3.00503091202071
98,-1.7515022668358182,0.682199495340906,-0.39423680816802426,-0.7107603671066046,-1.7558260430659085,-2.712640853156687,-0.392013401154926,-0.7378178576896025,-4.902310235175736,-3.739858166113055,-2.475965053863221,1.6003319378531728,3.648359936381581,-3.3012921705871516
99,-1.8806248904842984,0.30281620611142734,-2.543306276531322,-1.3849997576841968,0.39321547409167484,-0.46506225108863725,-1.9266782877321025,-0.8577506237774546,-0.6220790288100264,-4.321871108603649,-4.787599811218533,-4.011624033690418,-6.4371030077837705,-1.3935627276283296
100,2.487160996003392,-0.48337552056374944,1.3922817030113261,1.499924205669412,1.9934310079351882,3.156290639820701,1.3065093530069642,1.3060815139167377,5.7885060378236,5.582694175381168,4.052144538486923,-0.20962246510563184,-0.9805145917226703,4.053908276383113
101,0.9116580148752893,-0.34098362867478105,2.4951705349389397,0.9858078101628481,-2.071426195214387,-0.7568348667486159,1.6403601192661783,0.6867497572460756,-1.2355227843180223,2.2791731263366386,3.2102018085682724,3.376414861712267,6.173029347791198,-0.5450532424417148
102,-2.715660304785458,0.32394017121642515,-2.3147822417331105,-2.0024200546930264,-1.4243238139772465,-3.0668542282000066,-2.1781136616890477,-1.8308310234049519,-5.780108875015426,-6.609074821305536,-4.93910887147299,-0.7919634756015335,-1.4148503219302815,-3.7916793717546478
103,0.14549442701629167,0.43640787220686156,-2.174222801729697,-0.41798644408987323,3.110678834693703,1.731790699608394,-0.9718296494111608,-0.1680184335226585,3.086672699851836,0.32037356740590406,-1.313853212945644,-2.191173501787744,-4.619814158626869,2.3181180148143703
104,2.368994636723166,-0.2840177246527014,2.998618081954546,2.1190681553050013,0.5092544521228738,2.5916621181130313,2.7260937209877114,2.0446715790027845,4.776104772335281,6.391303276688159,5.001771897835239,1.0600890077522567,2.7284663209031357,2.634781957859194
105,-1.0266457315587643,-0.5637901633488535,1.7205976860417769,-0.10335462011602646,-3.3635237854953113,-2.3382726172265436,0.029931112091166542,-0.5494794487330283,-4.419904441960568,-2.8602598273039552,-0.6119660293201048,0.8417210498840582,2.426241616691282,-3.496754206291884
106,-1.507407540220287,0.44044338002527833,-3.3732932329945244,-1.8822493443135078,0.25312273657296,-1.8992344505877081,-2.6937347491266235,-1.7429477736132306,-2.943076676979284,-4.815071282848153,-4.169167054452113,-0.467654818514182,-2.5512413688097473,-0.8977874338460918
107,1.4611180996134723,0.6084734604265248,-1.3200429554412514,0.3906433623880489,3.0468193968295645,2.5287959262198982,0.8730412102422113,1.142240093537745,4.777402081247446,4.589895015154641,2.1931349035218455,0.18052402458803707,-0.5318214080860943,3.801742165818013
108,0.3525346461411013,-0.7810497955748725,3.5005686021258975,1.4376270256529242,-0.5862976151482034,1.1567304088679604,2.0156577837925798,0.9254994993148974,0.7179644529942482,2.2063018509287255,2.5170964779683165,-0.8095428049441327,1.0876490678540895,-0.9776931226560138
109,-1.2722655849172553,-0.43036747753378474,1.1088440218094195,-0.3482446836568656,-2.543148450914383,-2.3068713856512257,-1.336420631461821,-1.2455094333061878,-3.9143685037554086,-4.897634667662486,-3.0142563346144815,-0.4703945112651669,-0.24073966685684495,-3.168189981891448
110,0.7460953772381447,1.169481270143504,-3.544155916862272,-0.9884872284885524,0.5257242959461982,-0.5324292218735365,-0.9104397678486532,0.1500385028925493,1.2846405680162862,0.7175348017167104,-0.3518965674073183,2.333939728471951,0.9109840171987136,2.5265835806178853
111,0.47605216421217394,-0.034331520543094414,-1.0957326619652616,0.0035464545526069356,2.150488169035695,1.7322740313812688,1.0691084928804224,0.6376261241596785,1.9213621182311686,3.5672985457098636,2.752869807882682,-0.12051057377783138,-0.4420789645362034,1.7623632649066416
112,-1.4237602565472796,-1.395526280062841,3.675699297306488,0.7216301141910312,-0.31041811286397736,0.18462341763135326,-0.1740992946848241,-1.049061059142255,-2.4546473113601035,-3.0679530116217215,-1.7881185057703268,-3.562580776391664,-2.475910105436672,-3.3765764631928192
113,0.687597078351065,0.7046161230332084,1.1516501929274103,0.5053623523851658,-1.9393051683206648,-0.9378239624217528,-0.06026643423939755,0.6261157541640783,0.7585079946602237,-0.8992840120235364,-1.3496044854968847,1.4141406449512388,2.279842330613717,0.0633910018106118
114,1.4509963061685058,1.2870398714884432,-3.9649685052745833,-0.7388064466965936,0.17673050792417652,-0.21871222705258422,0.749903898360489,1.342545333016104,2.3981119527074997,4.092284163788186,3.2596293037113826,4.052070439703087,2.851186507865261,3.3406016557200138
115,-1.8315793653401817,-1.3737660854377536,-1.0864836218828537,-0.984592224664922,1.7853654674897759,0.11926220712166176,-1.3825645498997825,-2.2087168847908267,-3.450610837933326,-2.3641106199960173,-0.8850023855526039,-2.9713706184381863,-4.496011001511163,-1.8673549660338276
116,-0.8399134737915908,-0.8115684612499537,4.323818958749933,1.0206205938990156,-0.2018087322682672,0.6353966725782605,-0.513156755992395,-0.79669892115196,-1.0837461967920852,-3.4399890430146316,-3.539070749597337,-3.6206781825720067,-1.8044671825383831,-2.4555145610381857
117,2.583047982101538,1.8109796239174096,0.7770791724942342,1.264432227205702,-1.5234749526809344,0.5207363811237338,2.7577413727396096,3.620687550720617,5.471062989175134,5.282730985779598,3.3096497987938247,4.262320259052996,6.207283349201525,3.236706023444961
118,-0.16446214552400606,0.09759882743465503,-4.551116497666324,-1.4429961007725016,0.2887652374331262,-1.3145651952521784,-0.5204158683946729,-0.5283871250881861,-1.1511368808846199,1.278625812089625,2.4457457524337753,2.3968552597228743,-0.3319161759791939,0.9561755468302797
119,-2.7433378664368298,-1.8801551707071567,-0.2674482718054876,-1.26932811358581,1.0979677948080426,-0.8501639754593279,-3.5875407187990027,-4.412571917719365,-6.3514584210863605,-7.030456045653702,-5.147176977540764,-4.860591531650702,-6.8002518630795015,-3.8895500831167222
120,1.2118697961369045,0.6398878180184958,4.463687616223756,1.8433007811288509,-0.2784167725188499,2.059782346451947,2.0392173002304994,2.31254002181242,3.7394525795092646,1.7822717894472502,-0.24944610125884267,-0.7417521759418393,2.881927853888538,0.8033692280866584
121,2.3507018177917853,1.5967038656087489,-0.233105661191583,1.0398304276030448,-0.607594333634309,0.8557278079458729,3.6077203000098157,4.3327900373423525,5.960941820633244,7.146755108034901,5.759500881628466,4.573040816179775,6.123752862259413,3.7285712607564676
122,-2.01732853838328,-1.2165824510090286,-4.034281737991064,-2.102403719160567,0.0912216553980263,-2.682279490856485,-3.590097864078438,-4.107814556081744,-6.09211201004433,-4.913270801588307,-2.3983123202870242,-0.9025121193950525,-5.156125490978012,-2.4501924958982046
123,-1.610837638674677,-1.088935612839196,0.467771966876813,-0.6918646009083835,0.22781784084983134,-0.6264685053554597,-2.834654935215639,-3.3864785614179667,-4.481133466236574,-5.637375189349881,-4.882395231153995,-3.4593498910248663,-4.432500969691398,-2.8339959421068075
124,2.466857632687867,1.5569588405746584,3.4403288019389757,2.1935448099902026,0.20364493970209555,3.07054740226923,4.763042445544073,5.49203546747611,7.765933914679745,7.326799699208931,4.683246555560927,2.1568416057492428,6.699361969922321,3.6752447083039597
125,0.751535022154104,0.5011780618590681,-0.2988704396871211,0.3391833959713388,-0.07820042301401522,0.2864571430234286,1.5022684555722754,1.7950165204613953,2.2781266890295333,2.9147455019567494,2.721841251152641,1.761419708674704,2.170844577525922,1.412735699409644
126,-2.598995630141679,-1.685652685541653,-2.9786956544432797,-2.167915424366675,-0.433924506516696,-3.2025641011291786,-5.308939573464497,-6.177016207120631,-8.523409664200019,-8.476473136816882,-5.904953024363042,-2.782665271170185,-7.349413326515494,-4.274464823813102
127,0.09083457162362901,0.08397870532274448,-0.1867174719119112,-0.032495573907946836,0.13244797267283734,0.07075175095255609,0.061648166057830224,0.09640540764331548,0.23173584929064345,0.3590208528833987,0.11833423953763841,0.19391936889178404,0.23822303974763626,0.259556124312176
