,AF3,F7,F3,FC5,T7,P7,O1,O2,P8,T8,FC6,F4,F8,AF4
0,0.012538491267234386,0.015683333183882292,-0.025876481488150103,0.003097442217076033,0.05324492871120411,-0.08546447984801027,0.016109905842081797,-0.2743255562526775,0.04341620427171976,0.06004994646937415,0.00891427361884551,-0.0004030131126085629,-0.027718845406030743,0.029370398005787904
1,-4.747786162567892,-2.7802929303630552,-6.913024467206906,-3.236665276761513,-0.9736027756346862,-3.264875468070551,-4.691515846584316,-3.9030772770916267,-8.0894153049897,-8.024359796562338,-7.52748970220182,-3.8019859524242774,-7.196697870940132,-8.995371629684046
2,0.7440360723431749,-0.1645569319777736,1.792700498483862,0.7848515258648294,0.20488356623588527,1.0868021029949941,1.0574279533145192,1.8512139710812905,2.6548028790360925,1.270064292812723,2.4448344697093396,0.6639156376833446,2.1227845677428445,1.8562959307497566
3,4.325681828393346,2.6159513496678377,5.977220179629422,2.858535866891887,0.8542374527215296,2.4149436771127584,4.358590856234751,2.9947601935333266,6.495240537980337,7.346032399544826,6.195937636037005,3.4561569767169193,6.020030030800119,7.993220871452745
4,-1.4444292737058222,0.2485234182142013,-3.179128888067707,-1.466638634374749,-0.4715198507578325,-1.640983047983946,-2.194534253014274,-2.8822336240180513,-4.5922561075050625,-2.5130649598968295,-4.309135428351701,-1.2610391846384068,-3.787623138395426,-3.4581132273321753
5,-3.4410498279195743,-2.185407524435348,-4.295770547885996,-2.115467748904589,-0.5914625600003492,-1.0090483373213421,-3.52674267668696,-1.513001960170219,-3.7358434408665775,-5.914872750869226,-3.826636011732869,-2.7285678977330123,-3.8749493932344,-6.051797768068852
6,1.9352746813963657,-0.3248777987629971,3.8570711051693958,1.8948265678848746,0.6945968555931133,1.4875561582435612,3.2751877182623037,3.044786313182092,5.219225090911617,3.439070165710193,5.128084783242003,1.6580550662257345,4.666189265824239,4.433259842896523
7,2.0978667941426483,1.4037711866550724,2.1981489373084364,1.1023103936276606,0.16517685987188294,-0.5498808784003721,2.0347536987041654,-0.03379427001705402,0.5093148830678691,3.73092782001816,0.9522739794416055,1.6571642059409684,1.076601314210662,3.410881883718661
8,-1.971588379546181,0.5881950166163596,-3.613959628631853,-1.9222894803529933,-0.7709866996768675,-0.5887582424889699,-3.9523630762388757,-2.316458440837156,-4.341490006877487,-3.672789991220937,-4.6859334769867065,-1.6808674532159906,-4.478355698009028,-4.446404633725812
9,-0.4697498532121018,-0.335185045373194,-0.15532623702714277,-0.016233807712447333,0.3656731411884684,1.8495104999124807,0.057272652410881884,1.1345342347618088,2.3695095729689766,-1.044038069346833,1.7755457256234337,-0.39328290685927,1.900851494333243,-0.5406755475225336
10,1.331191356492987,-1.2711070483704956,2.4445786606524753,1.4682871580046017,0.6031898934556518,-0.8847909279313454,3.795275514605531,0.971037521592567,2.1826331099452645,2.8525636248222708,3.0643760483021696,1.1830676543728542,3.1072196888709294,3.3202748559554234
11,-1.0639962827181277,-0.7379097811526254,-1.30638233407317,-0.8541203124573996,-0.841525727935887,-2.57822733566545,-2.346964983910992,-1.4568782395068336,-4.1871393649775035,-1.5786889037758425,-3.7287016042539394,-0.7788490931013825,-4.4678347092412105,-1.898077141659797
12,0.017951911294261443,2.4718462703211,-0.6165530691425021,-0.5998203457549478,-0.18473298235767385,2.6284464494751565,-2.5506749968647435,0.540148614875621,0.6668512550527638,-0.8809873441691369,-0.6393581347612225,-0.14860205137766982,-0.693220612271185,-1.2041202145167027
13,2.022303386629682,1.3856308654784733,1.761688813067497,1.2110730989167882,1.0535043969508713,2.5824247090468373,4.174138878545665,0.9535536530722922,4.536271317231494,3.389610103941605,4.45320426484628,1.5056655691404282,6.044258647388569,3.2422582132199427
14,-1.8104022284059476,-4.0182611912345685,-1.356183332784185,-0.4307839713550247,-0.34509586137981024,-4.295056560247071,0.3636768679924343,-1.7727199997514624,-3.4149193874113943,-1.8924190582625984,-1.9930911024403393,-1.2332949743350201,-2.332979273572226,-1.3659140763267708
15,-2.028143503799518,-1.2212617607007383,-1.05311445274288,-0.8789488896486555,-0.8499769918802732,-1.8705610447640777,-4.88827602257626,0.15229968782761386,-3.4382966504875987,-3.764514240341429,-3.792789197242293,-1.4994889651564347,-6.229071945359835,-3.09320939075626
16,3.5210280793680826,5.464114928486182,2.8550900529388574,1.2399841370041396,0.7254246281620197,5.568751576816586,2.1861639080136124,2.457116096330896,5.306354852138533,4.695382898104082,4.155710137500817,2.580296482358672,5.319785452060524,3.5907731910673943
17,1.0068935659473413,0.1136025141377049,-0.6204149627053772,-0.08378308424138656,0.23900803823178376,0.5861280652987382,4.162535696927019,-1.4936160120440494,1.3297173287703568,2.5218548134626837,1.9472360478687394,0.684439417585343,4.942159047860277,1.5251919090668207
18,-4.549991255674107,-6.240767995378792,-3.367973127553854,-1.457187818191617,-0.6800858457220484,-6.211209632725936,-4.275929390185232,-2.5721801008382927,-5.854100730041499,-6.5919943084162815,-5.2664798184157045,-3.434976131013054,-7.552910555381851,-4.689502951311082
19,0.7369526079228584,1.6976293019947803,2.7524607545123057,1.3660215308903105,0.5801201625129344,1.0283571970808445,-2.183844585901735,2.7323970500240486,1.091796473904492,-0.07617843756576144,0.5626927006840008,0.7281612313812705,-2.477111080361222,0.8882377010871276
20,4.471014291132773,5.899893506620577,2.6756751151848484,0.8968560544261922,0.05582030407954601,6.0899705081883795,5.172820925507634,2.292937850359244,4.976198885814307,6.868441411339696,5.0074914475554895,3.4478472712151977,8.448685251723242,4.215773651842893
21,-2.6164390712741334,-3.6552573072262518,-4.70440670253967,-2.5109658096347176,-1.2872852584986023,-2.6690240621952346,-0.3877740233417615,-3.688080799979911,-3.104163617672568,-2.6774258547016005,-3.02839121075743,-2.2902527797149705,-0.5553053944825013,-3.2674458244561717
22,-3.219560912951187,-4.329297086092216,-0.9267740678259092,0.33408633288934775,1.0853583865636476,-5.19895995441345,-4.546445606681682,-1.8467357837047131,-2.987377620376836,-5.355643680386318,-3.431760400877177,-2.539135792438556,-7.721471189697559,-2.2564151263019223
23,3.9915571378552492,5.092120366489593,5.92975000111881,3.108449133436246,1.583880755813302,4.014732573245812,2.6763243660825857,4.352183991805824,4.185628185416982,4.709399541137609,4.756182337384948,3.485707261693523,3.3745011192418684,4.764302011372435
24,1.1261950948364372,1.8325402428763315,-1.4318224850333976,-1.8608077859578809,-2.476703818997657,3.669904530553094,2.6076365382551088,1.3630846144808728,0.458667251336447,2.5228682619665452,0.9620469671973365,0.9513482552503312,5.480161633527414,-0.5918335740861042
25,-4.421253462606003,-5.498426008248662,-6.1475416722883685,-2.9777770483339707,-1.3305985566209815,-4.782094035087058,-3.9400110468515734,-4.781417429354778,-4.143841713678944,-5.270510165455473,-5.278947346812624,-3.94253029610752,-5.231062872458938,-4.8903462947322796
26,1.2195030835476923,0.9709756992219127,3.8291571407089022,3.194318927598419,3.7573892851298214,-1.7646693255449402,-0.012046394222295205,-0.8118247861744885,1.9860097483214654,0.7067045512708557,1.732478464819935,0.8450652091846946,-2.226768773712125,3.462619977425611
27,3.819707049557884,4.724621829329741,5.397257858643908,2.246147961456246,0.6059976707624053,4.787557994486214,3.8511335566498914,4.932780519569737,3.1173525368844364,4.179729339058729,4.50136279730393,3.5831413406300903,5.61718847778985,3.6830633448057846
28,-3.203797114152408,-3.38073082860554,-5.764849755689769,-3.9403823981407826,-4.621529729333158,-0.1612094364086308,-2.4170477919672404,0.08289971164272397,-3.852519096048173,-3.326445794074967,-3.948722244273116,-2.352565046441684,-1.2559915168173164,-5.563148613569265
29,-2.454088191019493,-3.0288886119334872,-3.9711147005289016,-1.2835612253885216,0.3383665335086097,-4.003963186848985,-2.5862616306813004,-4.550402630816849,-1.4759108278080004,-1.8612964556140044,-2.7204518348024336,-2.6351965406590088,-4.432634143681899,-1.6415115056039205
30,4.409936355730854,4.876297225799395,6.943144937744539,3.961466282332567,4.927627926520929,1.7277695420260852,4.012119543195282,0.8174295756813379,4.88310298036009,4.626612217832929,5.1772806526507305,3.252645238578911,4.119170091185496,6.458657098920366
31,0.8040850780731472,0.9557811964865544,2.2760361677992482,0.5304484069069693,-1.1894066435810582,2.5921965019022606,0.7045656518404804,3.207461542598106,-0.3227915274678135,-0.8634816757680385,0.5091867640692658,1.5000450823075322,2.043330521607399,-0.5193986560780763
32,-4.734464889655841,-5.2899814696648155,-7.309284397509912,-3.418338780605641,-4.725262560459695,-2.626693374061821,-4.488096524639823,-1.561962050997963,-5.076101703678864,-4.421754214448553,-5.258928945350407,-3.511587578730301,-5.715344230591468,-6.178371970653284
33,0.6365057739922022,0.8886572777975887,-0.695936284965282,-0.3039421177404128,1.6863725849786935,-0.8848012209013266,1.1105339791912048,-0.537253658527139,1.8675726042383158,3.113667832501776,1.4938021409725515,-0.5545638490192307,0.8161863226033202,2.164812352200346
34,4.371168615252586,4.826192422427825,7.003904642423072,2.68104714176421,4.209679532161661,2.7217313075636063,3.989310035311728,1.4410930107397162,4.6383377819233,3.0526581300109856,4.409615590832196,3.338869174011503,5.8274075614236684,5.124208572311871
35,-1.5283662551054502,-2.060445058108789,-0.49734907085643176,0.6699978131742877,-1.6921064365126406,-0.6947656558946105,-2.320787340890973,-3.42667818016554,-2.890972147621768,-4.26180460816823,-2.806533222979576,-0.00425666116387602,-3.2923872645585748,-2.953157935879265
36,-3.696891744099237,-3.9389565062961176,-6.281163035047603,-2.1591345605224204,-3.645836693810366,-2.1128066935386993,-2.964583631799696,0.43966026252826107,-3.8965136334041275,-1.198299504909633,-3.1076214742134236,-3.037875877326574,-4.753119351333583,-3.85774962853189
37,1.773491729047412,2.410710226602384,1.1767259668693288,-1.4296627754184004,1.2162406231799032,1.7674488338783951,2.7029800874105696,7.988677314170688,3.3193040108051513,4.108436169746336,3.2520792702722914,0.1969095119558242,4.733545547893531,2.900134452520502
38,3.120063315343096,3.1377760386498057,5.431312441634178,2.1301800052638007,3.2956769249161426,1.1202267637202659,1.9512258139900778,-4.714035467885326,3.189487392601369,-0.39695282516806574,1.8941188353764413,2.846158345131118,3.1841265400184136,2.8753521480197755
39,-1.5134980000939335,-2.093626716001071,-1.3573638836373074,2.2138961408478064,-0.408413959970457,-2.1408980176913346,-2.372392469068105,-11.821341900389857,-3.2708993573345975,-2.8836539214118906,-2.980583165404041,-0.18506401455564275,-4.945352195467245,-2.307472689166851
40,-2.943536484874618,-2.805998290206655,-4.7212678653775795,-2.6366872299621025,-3.355512716675484,-0.1729643099650411,-1.368809952212868,11.246184558313072,-2.7624873344097636,1.1678178448950138,-1.1719399877961862,-2.852659459372012,-1.9106495262223788,-2.4522675382596915
41,1.0590178727503656,1.4715509734919976,1.1811389756820885,-2.637805036197707,-0.46695261017003614,1.8886680835739313,1.6837620399658098,13.392707330608417,3.000215807654338,1.1143188082485094,2.3679505426173537,0.15207322422820457,4.254601931729834,1.6152729750775878
42,3.2720430079864697,3.089321908336351,4.343655167052296,3.484344209736478,3.8964198561134284,-0.36380218516901447,1.3920020100175874,-18.86213635597773,2.6897447884486945,-0.8723619208642986,1.0808399935697908,3.0140051330654343,1.477346833721273,2.583838587977871
43,-0.7751867952195155,-0.9688935632149925,-0.8895147000547696,2.4480969143529085,1.082940571762572,-1.3144322691126773,-1.071691362511875,-11.667820599143905,-2.7965024211794574,0.5699087800246013,-1.8445084195525592,-0.21904395115163833,-3.3373146784654346,-1.23601798717086
44,-3.9816502294369847,-3.872668215203531,-4.365628195510273,-4.329855654134114,-4.813719597026527,0.3431968792139309,-1.9217363027105625,25.57638790518327,-2.8538815325689257,-0.3801962170838887,-1.4864692266406543,-3.2249567551114633,-1.9537933949468191,-3.0165160869015093
45,0.9496130134252034,0.9246941949915661,0.768879912103788,-1.6098223295154137,-1.143048522288238,0.8062221280649078,0.8889929731802998,6.73838985114753,2.864804049111962,-1.625197441054466,1.7276372699832814,0.427323140226975,2.885621140309381,1.4096924453567328
46,4.762615278179988,4.836616357079706,4.690778190359456,4.814384478993036,5.816564196237071,0.10760446497710223,2.6415928787100538,-29.32279354020652,2.99812944866744,2.196307550552602,2.069152141948519,3.379683856218998,2.934149797599987,3.3524009727869752
47,-1.6784425561459102,-1.4802327634382866,-1.0596045244228278,0.3095917275279758,0.503516321621892,-0.648405031266753,-1.2810398018088673,0.01555164348568286,-3.2326827960749633,1.7364106519756912,-2.117816522743436,-0.7618911799235197,-3.2747704423823234,-2.1114934139902064
48,-5.232647772960771,-5.573394247481732,-5.066871422980144,-4.69026199353496,-6.494187856431959,-0.6641349368355637,-3.138638346792726,28.87369935907941,-2.840636175116908,-4.0273105420480535,-2.4641903470961712,-3.394673906562607,-3.766219184711784,-3.2066807874340477
49,2.8142244290283958,2.5285884602419,1.850976747477614,1.1149111867770831,0.7251965073678869,0.8871089748028214,2.1240306882419726,-6.413242355324646,3.7252687027778095,-0.8942070953935989,2.882155307935913,1.1722185072320932,4.394990685829017,3.0458762849819996
50,5.0890164025896825,5.733769686922075,5.163889296999969,3.9009719973338894,6.463087810062525,0.9773199542923745,3.0639149660528218,-24.44808297665531,2.20990117619277,5.332026594275342,2.399307221119363,3.209937500100099,3.8923566565318457,2.377848165879038
51,-4.007416576451663,-3.7458361710906702,-3.01338652034547,-2.288414387852084,-2.165218921244117,-1.3191612954579452,-3.054461979045442,10.41148209199679,-4.028794009797275,-0.6072867199242706,-3.7156344033493065,-1.5734433042897487,-5.7278966920353085,-3.748973867129039
52,-4.240686528002996,-5.161912876535887,-4.708494050370663,-2.5953069244233826,-5.544015632733045,-0.8533508416642893,-2.2886072906869543,17.636396492176104,-1.1432303365860514,-5.740767680022327,-1.7895226944413425,-2.799149561682931,-3.1288918150465075,-0.9648993085187494
53,4.836433537127046,4.705527239867242,4.2174707017208375,2.9171213398639537,3.2832355108566844,1.6095468772772088,3.6016455321329053,-11.000095414064369,3.825049669443072,2.261164811868847,4.252085220631476,1.8468419602112027,6.620785544365876,3.7801622845804843
54,2.859693014865827,3.9654882598068846,3.618389767881508,1.076181234640715,3.8801877810954615,0.3480939024277737,0.9894650400881144,-10.660459187459898,-0.1012831016366619,5.176303644253642,0.769460207319822,2.195416764502871,1.7466784480597455,-0.6347774095853256
55,-4.977038659945344,-5.04475780851986,-5.050302671213682,-2.878179437475066,-3.597086678200538,-1.4745702086134738,-3.3907876939129866,8.567304666453452,-2.943167885634267,-3.515364101384523,-4.1930346351324435,-1.8665846970814854,-6.613559316425427,-2.929444728106617
56,-1.3231228392296206,-2.4814625944772644,-2.0669837287637227,0.2987674664258602,-1.9230529235967861,0.2705101793292939,0.39549300968654055,5.381409234559916,1.1337088688413925,-3.882580472433622,0.3421824246439118,-1.5086274029741318,-0.32196318421377823,1.8680799526711853
57,4.338158697925264,4.616578843883944,5.184337166556228,2.252307894246661,2.8860540177735983,0.8345725659290514,2.3319794355828245,-4.563378814403002,1.46058300680909,3.9695164621955406,3.422572781937505,1.5538099036828101,5.653106931730772,1.3402612908815452
58,0.06758824110433476,1.1401362585520025,0.43848895595652526,-1.2329713755091818,0.27624665744078586,-0.6683952205025057,-1.345447042342934,-2.5943012321483567,-1.5899435269796793,2.334782143837725,-1.140306694726269,0.9060448896791851,-0.5545343181742283,-2.257252426016936
59,-3.1037165808676943,-3.5558989314773886,-4.522134625097338,-1.2882371994958515,-1.3029857487700929,0.14124437424832803,-0.6939900247731161,0.701905231937297,0.29722094195852233,-3.5240322191377027,-2.0745722468535743,-0.9272446962654164,-4.096334758320724,0.5231142731033179
60,0.5814009410694044,-0.2827149536396348,0.8120153752343189,1.5831240110619913,0.5379489433557576,0.6203972065931032,1.4966166551709572,1.936043527794561,1.2911622544409875,-1.0543038963978204,1.2734966464314061,-0.5537587414006531,0.5552937529896519,1.6116914018108388
61,1.6625152104506271,2.2198616670284754,3.2501066838584283,0.3117327629959678,-0.6675154310480816,-1.1162258211758591,-0.9920199711646871,1.8291084492787373,-1.8646841370037956,2.4110543524728354,0.5210843317878493,0.11401465811118636,2.517917161972492,-2.0567385653814574
62,-0.5328715628945868,0.01890948603122728,-1.3336634523803226,-1.3944555739105449,-0.28683133165321667,-0.12389185264205642,-0.8228601240769547,-2.353962571892933,-0.3340777698088404,0.40318105111818303,-0.5877044483829058,0.5477226269538122,0.2555387734007311,-0.11588964590304923
63,-0.45803929997746323,-1.0268098322989003,-1.7787622079544847,0.3852019446506171,2.3876933856212497,1.7465359877763598,2.1633289322540983,-2.7471976512167027,2.8089909997011544,-1.0875205163020027,0.7311797227307365,0.6899446839173894,-1.4381054634361041,2.7593325643454185
64,-0.04234850295566478,-0.19600078288026984,1.0175809394043296,0.868908941572183,-0.8787961200582889,-0.6020839102687686,-0.3425018367075306,2.790560086449632,-0.9293665988862765,-0.4495874804626346,-0.779931979775755,-0.8715266140594533,-1.487841223408182,-1.746491790062936
65,-0.1770711942802861,0.27384580924446006,0.5965247359637624,-0.6321232025195713,-3.3054432558220124,-1.8365079262873047,-2.47645945545333,2.5359668948942464,-2.894303152090594,0.03937152063876336,-1.214199909924199,-1.2876641677033005,1.1136708191856854,-2.4170956538521726
66,0.7860503564003338,0.4926364973381924,-0.04593809108537587,-0.2845756443031269,2.4818888987796406,1.2228229085423448,1.4590826520309113,-2.692405996552559,2.014658184299487,0.9623875592585316,2.404815074626373,1.3982488473767056,2.623725875133291,3.3846193857747244
67,0.13532846598440176,-0.024634602853475813,-0.09402402402778205,0.4160096381828665,3.1549513915990763,1.4154719072157085,1.9490430635062195,-1.9713039518047268,2.168338311684853,0.41104143060507287,0.6832510802911188,1.543374985820783,-1.4792539086190413,1.15153892196208
68,-1.2916669211361804,-0.5828220331015719,-1.1621058578803503,-0.09768932863443684,-3.9010296364109336,-1.438135871827536,-2.0248870117757813,2.1269726352499343,-2.475899301906992,-1.5265294589490543,-3.690664503941796,-1.925842419817858,-3.2290272904008352,-4.305023383180072
69,0.441270681365316,0.11670524916642,0.419170994419612,0.13798183092105362,-2.0400886996476117,-0.7095365337895425,-0.9260947422112722,1.632056326565626,-0.9405105144324997,-0.21322595009476075,0.7600570881395444,-1.4206647305645361,2.2293764457865777,0.666036775643889
70,1.249144640793191,0.28161258881741363,2.088676993929961,0.10648326680863512,4.600061434915419,1.1022698328937353,1.7859109022037891,-1.5446927876068268,2.053958897055648,1.7157985369284459,4.0654103306956015,2.225199150281328,3.0807399788649126,4.236555485018911
71,-1.2242765000784406,-0.26826410032209375,-1.4093620002667862,-0.8221587650793049,0.37227641510965204,0.03633757758263517,-0.09637830864904376,-1.6472894253290669,-0.32765599583808475,-0.4153695232835268,-2.6595981154018475,0.9995200869397315,-2.9606195101533097,-2.5599393650122986
72,-0.5447650016228663,0.3946682006164352,-2.2994078945410146,0.30651038181791207,-4.3106054525763975,-0.265914927635538,-0.8114928817543484,1.3979512078687604,-0.7502363724511858,-1.2494900159851077,-3.191535992311385,-2.092801008208289,-2.1890915380480873,-3.1504309574193656
73,1.8141966115285422,0.21481895427078024,2.627169434736486,1.4118828650019493,1.3025970907740312,0.31811743152333066,0.6851066317994351,1.7484099514819045,1.1654777279994069,1.0800108647880522,4.322832329290398,-0.4785339768600754,3.2922851850150314,4.072036605948638
74,-0.7068845861119645,-1.262768478413242,1.6158779216912302,-1.069798742611932,3.0966403593062655,-0.8611579859683365,-0.5778614120608827,-1.8489677300855183,-1.182175989450581,0.08983960175628658,1.1190288559019088,1.4147089854238781,0.7600023612803359,1.2190607881395
75,-1.8654187118175534,0.1931148167030276,-3.502111365560865,-1.7211341261908983,-2.5070014903700097,-0.18732263024630014,-0.6144812367410847,-1.522044569088793,-1.2188224115783237,-1.3427252690731966,-5.035271916979216,0.15086305129113722,-2.9398054359839163,-4.827868381165582
76,2.1943036475437045,2.0598358644499157,-0.21576140865820004,2.0194067820864636,-1.2877075211396403,1.9920989147091024,1.9639747774859222,2.6938733069490555,3.3049162193566235,1.529934162227508,1.6753038874253308,-0.2398577259248873,0.8490877209850899,1.2257022794462022
77,1.190965429088797,-0.957323423934551,3.547736874497043,1.6411528232716375,2.9777025196938203,-0.4443362658184138,-0.1012300711044609,0.6876415941972789,0.3380554805446285,0.8696530133769405,4.312775660061489,-0.3287236466418086,1.7708529291837958,4.577519107513786
78,-3.4887805977971125,-2.5324581575713387,-1.3964345170475225,-2.9378975574859227,-0.6721510739288828,-2.84751751548342,-2.977444371620503,-3.4907807157950272,-5.0923330694687845,-3.150091422679174,-4.392522791307011,-1.1717148258361352,-2.175448804370577,-3.718568017646201
79,0.16798439362160217,1.9468069585954115,-2.581252198514759,-1.164391507916087,-2.706220323810961,1.4556906413034658,1.2607930290815186,0.7400979967723842,1.3704417592750846,0.4303889132233275,-2.113764463951999,1.2110032040713652,0.12513875808701536,-3.2568712090746557
80,4.16036657431756,2.503113342591763,2.568126696883808,3.6007752088726703,2.383172018015902,3.218646064235134,3.3866552021985554,3.787161342791444,6.054021432452166,4.21111590818677,6.153896355943763,2.3826958334410855,2.7418886202241564,5.712504960406578
81,-1.9226707095158215,-2.9332768317697315,0.8438984771328725,0.3943068316095094,1.8810911868353044,-2.625773170380359,-2.558696226384254,-2.453627588627098,-3.5367520160858748,-2.3179621805473594,-1.0763852797432074,-2.741586574040916,-2.3793993252143726,1.0656906497083258
82,-3.9162556554525714,-1.9184523755563667,-2.776259143507436,-3.8312658852515113,-3.593727818719531,-3.008022848134637,-3.132078189394321,-3.325461390130669,-5.878544023498889,-4.2550305484496445,-6.320450995418726,-2.926104831874478,-2.2214545273197723,-6.7048082912672475
83,3.589915909647501,3.641509118367942,1.0615352204852901,0.46767215405416035,-0.7788460532513632,3.6809458288005814,3.665105868044293,3.987216548924159,5.593182536930118,4.2493335208625975,4.35716066781238,4.550308883617992,4.377394196240073,1.505770049224965
84,2.728628549850934,0.8842780664966812,1.8817073205321218,3.5582588026050948,4.226363659450045,2.2540919162848176,2.328909582581078,2.1450108735980753,4.565495436184118,3.139450114765038,4.771043201236675,2.5243045344685173,0.6287390339116685,6.424216915168147
85,-4.631812188961555,-3.8264232097992976,-2.4198434529134922,-1.1704681860379382,-0.3424225886387393,-4.3537803110635735,-4.304401878275739,-4.908109424775363,-6.934967739492345,-5.5548459471179035,-6.72005886868938,-6.05203542445518,-5.44447627946331,-3.778459691187152
86,-0.8948490095506865,0.3312657921495324,-0.2209518483008059,-2.856992278515067,-4.3400002928077255,-1.1363327986710112,-1.2429854437806451,-0.5556946612350039,-2.477112829231003,-1.1532783024762465,-1.9999318130647559,-1.2642268251710265,1.583736388309452,-4.985217304232509
87,4.65670158931661,3.37439463286513,2.7347544076288504,1.4966334011134994,1.3104148648172276,4.455556370341608,4.3371371264964695,4.983423213011022,7.143804080596779,5.722021780755275,7.446801310899617,6.692155010650711,5.143670561128045,5.118380456125911
88,-1.0258551310846709,-1.3583971966327597,-1.5366245361364135,1.9429357688691322,4.0602521902218545,-0.05397554000681503,0.22386171103245853,-0.9914725831985761,0.24675809203322344,-1.0600637786993108,-1.0479375676277933,-0.3927941430219486,-3.6365187714990648,2.8941444434639814
89,-3.604013291012064,-2.388645220690349,-1.971511918550335,-1.3541074194746816,-2.0541883053993133,-3.9478084049990665,-3.8230081477525055,-4.262591191083301,-6.178002544433308,-4.64767918580872,-6.41840256331042,-6.221998584370025,-3.534218466604185,-5.202948495899998
90,2.408543084234361,1.8586018826670272,2.7111407788846025,-1.1019267149408452,-3.5111272732209176,0.9882984444939741,0.41059792181112414,2.080213643137743,1.4519964694773646,2.768070966197739,3.3600458215672444,1.805863484969637,4.741605061683395,-0.8622115636499454
91,1.81220030389469,1.1960248773731066,0.5703223587213097,0.8296814948525585,2.575002801190998,2.980740866181596,3.0208364484251167,3.0501280554666574,4.418320617420405,2.7105184100413284,4.171067536545313,4.844575560580713,1.2168349167454284,4.170711195598095
92,-2.824888251100322,-1.6848679020468027,-2.9500697350690337,0.5741634281574418,2.7742833094803685,-1.4092704428968674,-0.505069629925197,-2.484286102160495,-2.183345964622207,-3.479586351151901,-4.2883009655675695,-2.4684482449295295,-4.482377966556269,-0.5001596085531372
93,0.09339863300250754,-0.23718968576124,0.7888833039827691,-0.16420202025838176,-2.894225391764426,-1.8667564599336046,-2.2977220810383985,-1.7828842168957229,-2.520440363038126,-0.6052350242490143,-1.6525121661108775,-3.129903385288884,0.9035170199247072,-2.5556475240180125
94,2.2472222414588887,0.982351056309477,2.3971463958168266,-0.44538193391640496,-1.8889323547626375,1.234803986783583,0.1485594468827814,2.245641606129354,1.9362195165163032,3.1627770809240556,3.8180277353761474,2.2715954885997007,3.040093443936826,0.9500418593440568
95,-1.4659757773609847,-0.13076344152612923,-1.5488705387250838,-0.35210489269912393,3.0084040284210833,0.9819269046465928,1.9693899527493057,0.859344238911027,1.1307916656941777,-0.9825428934559326,-0.21142680478524145,1.7286283159086688,-2.0351108755489387,1.0282760753911804
96,-1.0766349292964008,-0.1524612887829201,-1.5956554324259813,0.6067684327459398,0.8858120864064403,-0.6083751167659751,0.3494904599703177,-1.646076978793246,-1.1172229985729891,-2.229289038825075,-2.5372316948689515,-1.5619607226136956,-1.1211624799720763,-0.6945223042769887
97,1.9361928069832337,-0.17723183347274502,1.5678073733105526,0.5167558419503938,-2.8774740619445294,-0.6250316898761182,-2.1430153123659315,-0.48694456636634764,-0.6040082267980192,1.686188008593496,0.9276669219549949,-1.0331749843528604,1.8737811223639846,-0.07832145632337359
98,-0.041788575752833665,-0.3278987412943123,1.1756811922922326,-0.8128049175191896,0.1708474236105418,-0.1387673461561575,-0.5966845228428159,1.0809547797610715,0.345558631238263,1.2953612939587804,1.3217908867008354,0.9493601505830206,-0.3899524819476776,0.2454577896312613
99,-1.5887373515001972,0.9079758299537061,-1.181274325147843,-0.31155216816015596,2.4524722108961163,0.8915504827213299,2.647414737207757,0.6104027282877907,0.8652731134648383,-1.5877791115013196,-0.622894911500529,0.9743289329284907,-0.725146180350136,-0.19336008741894267
100,0.5382288886997006,0.14975538948453604,-1.4949552305287839,0.8103210142965518,-1.1646121769193625,0.610657692352986,0.3137161110319897,-0.8841515838019577,-0.151956497855602,-0.8559767490051263,-0.8965028011821281,-0.9594674116785101,0.8647264274884099,-0.1297552137736587
101,0.911846002866574,-1.583110202480315,0.9988300709125348,-0.09535725417855435,-1.7239416395672105,-1.622043584094813,-3.1007527246937543,-0.9557336249016556,-1.4854440793788366,1.1077760887547061,-0.07853459379236381,-1.0739144859140783,-0.6902896641869799,0.07046217540647111
102,-0.21053302966528195,0.6561194360759175,2.4288493730709533,-0.4696981503670243,1.946537094347141,-0.5105277298276802,0.5074077996972589,1.181348485254891,0.7357772617282835,1.0520506996018926,1.4917223639337696,1.7208061536450072,-0.2133269381729873,0.6139235521988302
103,-0.5324616738696255,1.7456119045048684,-1.5450387447608183,0.4424977955284508,0.7596740584657508,2.4572356683962586,3.0972961885800356,1.1744656854484978,1.9238073855682725,-0.7307167641451844,0.41389641504121205,0.7352786178707845,1.6315797435153576,-0.021040551371363375
104,-0.6689896491929453,-1.7248413824683049,-3.4238426168847216,-0.15102028992670122,-2.3826454026957817,-0.22440813789159483,-1.5724232107044827,-1.8436398040924085,-1.9016728316911764,-1.650359440988158,-2.7620670212263807,-2.866747708583857,-1.1297539783334063,-1.5843382981928336
105,0.8689831701079099,-1.2076315035737875,2.9382125299995296,-0.5116228503891823,0.29031624325469957,-2.986061630038912,-2.4265692899227864,-1.0201554680022091,-1.8056174879719435,0.7295809881784233,0.10987259002469327,0.38360348264603483,-1.7055252653135016,0.41984777495993136
106,1.4980587282496411,2.5471294602129033,3.787033877235602,0.8387331531825198,2.4040147972187627,1.3825008300506287,2.411815876528272,2.5668405894849964,3.1970362669917414,2.2298710777143587,3.9969320033581117,3.720425662756014,2.4875263919548884,2.631848633942966
107,-1.8850137595158347,0.15846877820611513,-4.7785789274225285,0.2372115811563132,-1.2229354460469446,2.9274124723097805,1.210122676067236,0.46723970190024006,1.089267203597664,-1.0406713031134258,-1.4652640679858866,-2.1259160950445337,1.012365897183869,-1.339881447353986
108,-1.672041291589097,-2.740452106310096,-3.0603007359819836,-1.3331326367503233,-2.039223465813112,-2.5599042666896694,-2.6124737161849256,-3.034569298134097,-4.162513245106249,-2.4524725208195077,-4.504464283418287,-3.6706128533810274,-3.311277799912076,-3.281497383320924
109,3.0790216609553327,0.9296222541669984,6.305968595490025,0.2618593481723063,1.8327121488917364,-2.2630676565331633,0.12441066035693835,0.2881916021984531,-0.047879962785779814,1.3433988108709687,3.1278727115385556,3.8678014881075042,-0.01575829372341315,2.5095787789242485
110,0.9270069765462319,2.250970795228764,1.2871559244695456,1.4552214967160062,1.4215876471060234,3.3380530731838634,2.038875552761151,3.0772540704100573,4.55487406508679,2.258816962250632,3.9691028731061424,2.532315308923422,3.429410549770382,3.244926308599655
111,-3.722879734843816,-1.5429471008566624,-6.748360007770873,-0.7390879049605218,-1.9704926624286625,1.2532871273125719,-1.0291985405406563,-0.9396187625352491,-0.90263729785858,-1.2783725988251402,-4.34817438440712,-4.818828992925608,-0.7544556017376237,-3.4438112888576367
112,0.4802614491426006,-1.3793741505907453,0.960149290115792,-1.1976472675432874,-0.7690073357163966,-3.4786034777687806,-0.9280824932843185,-2.7456744945451685,-4.432636360087909,-1.888238027732749,-2.607989522953737,-0.6896447665902485,-3.058917878958212,-2.576152470065357
113,3.234248846470974,1.380737869879039,5.690619006917741,0.9381830716864823,1.5980304436130222,-0.3172050370132718,1.0943054730179025,1.227397097712621,1.4203536580851992,0.6672663951826728,4.524731412191004,4.430894586807628,0.9794460295193712,3.6799452091917386
114,-1.8528724997735637,0.6269987040468098,-2.8046382081304193,0.7364024207102159,0.33326967211528946,3.039713382941165,-0.19450116750743812,2.269933578401292,4.082371424162737,1.7315292572317142,1.0622736865708822,-1.0597149900065355,2.6151722517401477,1.6631747883803236
115,-1.4997312992020826,-0.49221835358682176,-3.290494119764939,-0.720323067701177,-0.8208701061499352,-0.17221000256449506,-0.2524257517206923,-1.059817778799484,-1.3853912169811546,0.38482223248625325,-3.495430330411824,-2.6971918343414747,-0.664880138239014,-3.0114590947997772
116,2.3645902639178726,-0.45331762043591955,3.4343727689656185,-0.35503446543426814,-0.32209006236600435,-2.347123573407772,0.742231895658813,-1.9358666289029312,-3.8476676188308496,-2.1150474378578887,-0.08965249762969593,1.8755205369802959,-2.4610328480228665,-1.0581555035012786
117,-1.012281031391543,-0.7586394497387597,0.24765755327478345,0.14253586843302748,-0.12315195672631679,0.07759051835384452,-1.1681014520710282,0.5448705765748216,0.9215408805769275,-1.542468274133889,1.6168289883291238,0.18915761339096654,0.06691469376333109,1.6138170554448126
118,-1.4581111368973965,1.0686973139205116,-2.453783077372682,0.31029783804767613,0.8162076675502822,1.8246580058121185,-0.3330553023737984,1.9456377558276925,3.957614196784524,3.1352077487092025,0.20920362964350075,-1.2706628913401616,2.7387284956891125,1.215892300896973
119,3.412205450337853,1.8645255387617832,2.456301667993303,0.5553442318503917,0.9312943607634198,0.4328438305722359,2.568082134839946,0.071498813539704,-0.3044737011640337,2.399585769170543,0.3940138079068006,2.1792986382142194,0.4861066641833519,0.0033938549728788226
120,-0.8572251015557728,-2.3514499659066606,0.06847694462204477,-0.7005835029034474,-1.7205910217344516,-1.768538001606522,-1.026500340485399,-2.3271935899937324,-4.432837944436512,-4.616062555942786,-1.4596383183888162,-0.658683182131654,-3.3484670841380977,-2.256972955910838
121,-4.758578730886551,-2.3908194378285343,-3.9362688436535413,-1.0578188812912843,-1.3417456415068765,-0.9813559079320104,-3.326650777467094,-0.5242226040919072,-0.18350329250116237,-2.6537990528269604,-1.7772951905918124,-3.539366582637722,-0.7609224324189539,-1.2123809132920147
122,3.954491490641179,3.909324052739523,2.971070096693605,1.4061217140978979,2.782554993844495,2.1907798660325226,2.9232371000899,2.9289310630783825,5.099283335602795,6.1897586473304615,3.375829494689708,3.2661742480492792,4.045320359720019,3.8760063172914845
123,4.471233137449951,2.142123877011201,3.747808687451466,1.1273740482399175,1.2334833899668027,1.1956275014426132,3.0672007638508747,0.6489077065323184,0.38072652637758997,2.216175807449325,2.0646274867640386,3.426743578247042,0.6996540061757076,1.560590262564848
124,-6.819172757512456,-5.243483157017366,-5.644885176632815,-2.13928590595654,-3.6779246054472465,-2.8255126361518816,-4.697662553483881,-3.497211520845954,-5.6901310475120805,-7.444533942940263,-5.192961887076344,-5.624167454424487,-4.577406791132422,-5.458532464480138
125,-2.597920105901176,-1.2203389124086506,-2.0604818168823047,-0.7254040531390897,-0.6731365370634702,-0.9191549877560127,-1.8224221678865526,-0.4488587072702184,-0.3008577036350528,-1.2230773068378886,-1.279306397100254,-1.9597428093183096,-0.40111403372129156,-0.9955932041150639
126,8.462537885549303,5.940421979263957,7.050285701115237,2.5846828640036716,4.1302595904010335,3.2974202770748824,5.71628426036297,3.7982980422408956,5.9808557820971435,8.069073679780288,6.187033294699899,6.902296966679531,4.793278896920407,6.3651311388596294
127,-0.19236826704976337,-0.036388715542553816,-0.4112476216117663,0.03285502370151718,-0.11331594705106139,0.2890898516694596,0.02101530838887734,0.07876107042834812,0.09558942913028018,-0.03546502529159614,-0.09124523137885206,-0.230172434225644,0.037469970368832504,-0.10625273328054365
