,AF3,F7,F3,FC5,T7,P7,O1,O2,P8,T8,FC6,F4,F8,AF4
0,-0.0838049451039892,-0.20765296636623398,-0.06695699847377459,-0.1592333751286828,-0.12908950452769818,-0.049150108293981316,-0.029782072928446705,-0.009496162139517338,0.026440338606267776,-0.1363231346266492,-0.01686591823356777,-0.0463992777092622,-0.030810586674370515,-0.12561108536631654
1,-2.5502167275882215,0.6047912488309911,0.28655903933414756,1.6160752315579767,1.9878595636235923,2.103551780275861,0.5996349744611402,2.137106986401276,3.1763875319915957,2.0479027255513906,1.2132334333558816,-0.4191430594550135,1.2121203318039895,-2.910068638021891
2,2.308078113458994,0.2264255819968404,0.022080813819549603,-0.5891669462830356,0.2512899310883434,-0.8023247305966191,0.017663088434962927,0.05239148568343489,-1.4562663824549074,-0.32842423589645264,-0.32039537835347687,0.2136428210643693,-1.6078857765699321,-0.6394097281021293
3,1.7269622270820204,-0.5025437329264907,-0.05401416529634809,-1.052176204258491,-1.9235024303524715,-1.6732146065930458,-0.4360685966557866,-2.205283108970347,-2.289766230192989,-1.4598621777278267,-0.697399606528066,0.5687017678112766,-0.5967312290053267,3.430960412505279
4,-4.094529963257498,-0.24114244521918674,-0.1502930198055604,1.0596498678515291,-0.40695711748272034,1.3794215753998695,-0.22423504542079753,-0.13315971599830334,2.2746643659919092,0.42646473669136314,0.22042762927543397,-0.5107099143743146,2.970522762210757,0.9865394206877441
5,-0.3208398159254138,0.19465936603439735,-0.29571807570244857,0.040369936488963996,1.7954223290928606,0.993624376894621,0.3079526339997719,2.3910327613094076,0.9576369327813259,0.5198127505906506,0.021388308058933256,-0.767266773008838,-0.5266913618222799,-4.219062934521408
6,5.156154540342036,0.3662525319067611,0.5464613423391527,-1.0088707736726419,0.634058769401258,-1.525088571880899,0.7063168916355219,0.21356353425022756,-2.178260882925641,0.052377509794569795,0.4890010732092765,0.9988252875775899,-3.842459457828305,-0.7082033765117464
7,-1.2865991644898658,0.2951073172507769,0.576282340020289,1.1244869439686977,-1.6605562537445036,-0.34619526839452963,-0.4703802220280094,-2.7261744067767357,0.20825576694992376,0.3611241770265152,0.34286859686798704,0.8553170771522767,1.9002823461715628,4.822014238118815
8,-5.422647742347747,-0.74398338425326,-1.1791637594682465,0.34627106456284923,-0.9213916067578491,1.2800683701566336,-1.2903992941989189,-0.18135611432009002,1.298467801521036,-1.0298477468945988,-1.6196045287529657,-1.6234016815393675,4.1480068332937226,-0.06019201192825338
9,2.702630644308275,-0.8290410455387643,-0.6234753990357939,-2.0826144489592555,1.5769913129912503,-0.026017922039794666,1.0551630266496783,3.145383263162507,-0.7075663665073664,-0.8268387147141685,-0.04930808932794481,-0.7024474941724298,-3.244077362990804,-4.911867262183572
10,5.036086833194414,1.4622018707373243,1.9105038190047243,0.8233016663154191,1.2039724338178746,-0.8520749944292725,1.661889351774344,-0.073699887760003,-0.11445636686679762,2.189557366443612,2.7123920667238717,2.2351563594818606,-3.951719956128045,0.9564402782694754
11,-3.648718097203149,1.1606450240184198,0.360881474126944,2.516280779465143,-1.5671015664825758,0.03026702049168429,-1.9546726015217049,-3.4722065960271604,0.3884430276016368,0.7356575192644337,-0.9265401766302006,0.2722532305850366,4.336156569768808,4.4423277538026715
12,-4.270476065069354,-2.4529391704459917,-2.5562714044722523,-2.211263071439551,-1.3849567688266309,0.5071609311406051,-1.5505768636486246,0.5566394140001552,-0.8021591075041273,-3.136323705468081,-3.2714079416458803,-2.6549543304229504,3.4130815843220863,-1.6200313397812476
13,4.03041425228479,-1.0248735952723735,0.18113213736412748,-2.2571594100937515,1.5938765186228043,0.24371564128553375,2.85053326688233,3.496944823523454,0.5049286953014743,-0.1999512803690575,2.265052300998775,0.36116137555136957,-5.0575636717289205,-3.6167828511996385
14,3.413133475337338,3.440151270666636,2.9499098984707484,3.417920743916775,1.3758251790812774,-0.44291446826048825,0.8977366809097137,-1.1180390439703585,1.0687620999694334,3.5699976419782247,3.0110199122738397,2.745309390371219,-2.720868819700721,1.871792104502353
15,-3.927697558815143,0.2910496994423345,-0.8864043425209563,1.3597104085932064,-1.5615301276616884,-0.5792322342344973,-3.3703811313583514,-3.1041903572325587,-1.4842921343641686,-0.49187488449919664,-3.458143936851784,-1.0426999018838508,5.3942281651270445,2.724384597589107
16,-2.6608125230974964,-3.9987562600371547,-2.984884731008856,-4.053875204253898,-1.140177011265415,0.7051710790158744,0.09490053713051604,1.5082796221582344,-0.655205629659625,-3.3900442407525873,-1.986260862943996,-2.4574676276621985,2.036805300582296,-1.743447123626701
17,3.5175558182121347,0.8991188133353858,1.5899784185807921,-0.1091815850757129,1.3427368396932042,0.7404097621333969,3.279335194883936,2.3629707832157543,2.0745698310995175,1.0094511852104953,4.049986047429988,1.5884648253758726,-5.40973851889764,-1.980485538991637
18,2.074469403746186,3.732637565332973,2.6331456969102036,3.8772455354885236,0.7247123181506095,-1.1809716311427307,-1.0596924957114964,-1.511821556902717,-0.1405639343450306,2.702482205266955,0.5494606407481608,1.844529952358548,-1.464461148619779,1.3788310548252185
19,-2.971094033269143,-2.1054326220062705,-2.113112357128715,-1.0515847613447402,-0.826122811602156,-0.5776692915868957,-2.597323535988464,-1.5101037555010466,-2.038682442068531,-1.0992875846019905,-3.83234307951356,-1.8378808118810943,5.2110295539087526,1.4757310262176786
20,-1.6072703902763747,-2.500719671362592,-1.9510315407356063,-2.8992461004011867,-0.26313459777666237,1.6609058266520464,1.642219970296944,1.0763244997058732,0.8726168852988843,-1.7564458904550784,0.8257140619140473,-1.0479209666259965,1.0398604066837875,-0.915959037025431
21,2.3776588673095165,2.729647657773768,2.2952846911800475,1.6651145331560735,-0.030374724121470856,0.08574977009139384,1.5831140952029807,0.828550342179825,1.4636880448537413,0.6496571330440913,2.903085182269908,1.6956244459718954,-4.9202782913641645,-1.23267118158211
22,1.183705723501796,0.5664463475635159,1.0792834529661013,1.4113049183445374,-0.05424651925312862,-1.9349685227339457,-1.663178977958,-0.3490745137032178,-1.1770528199755503,0.8588665756066872,-1.7487005138140472,0.2664180729826456,-0.7305053989781007,0.4491998562224739
23,-1.7324593432104896,-2.2849008350862614,-2.0311203840620315,-1.4293633634476055,1.1600560098863568,0.6036073030247597,-0.6050014416861765,-0.4962179125070049,-0.6821856445023033,0.29585668292556233,-1.5794670491328444,-1.1610219352841884,4.6496625380749546,1.279539580410299
24,-0.781440341540514,1.4384114282399036,-0.23012336474965467,0.09162584272643481,0.040321402471468044,1.8780545675135127,1.1812927432616334,-0.4055260346076546,0.9337022162203233,-0.29993205429891223,2.0418615013718995,0.28867818682325,0.4368785891716296,-0.08110555478325163
25,0.9886396160892187,0.6659813166796493,1.3128649217611839,0.33101307549385595,-2.380564323085305,-1.2830520767875198,-0.023239859724991613,0.5020234196865326,0.08667263539800116,-1.5538345201232693,0.2330547875462279,0.3399842367303492,-4.467054392492305,-1.64779523548555
26,0.46693311056931686,-2.7539539868543312,-0.3517363206976309,-1.077863792025033,0.41758612284971586,-1.4921354317325695,-0.43972293462396783,0.9530007167893485,-0.28868076396713094,0.2939681184523585,-1.746413616404517,-0.448537341846058,-0.007331813912291183,-0.017246854662031665
27,-0.13774184305034193,1.7343429199658926,-0.2633187318573573,1.3191512014134745,3.4288891542456423,1.754110532202653,0.15644970042376602,-0.6794335728781724,0.05876855255338155,2.8315781553865933,0.8568671092659229,0.5694982739463451,4.351148378302899,2.2814579997177264
28,-0.36327338366286716,2.8348467855859214,0.4577189741308761,1.179847391882096,-1.3005323957342783,0.8936015778776684,-0.2573333743275295,-1.2045777711580357,-0.4549731486884591,-0.9275967304767402,1.0276110176573916,0.14001875149821627,-0.7139154995978537,-0.3660239823884156
29,-0.7349096445304634,-4.1507214875253915,-0.8653022371062434,-2.9782195909818414,-4.033221663090439,-1.8982055475985318,0.15983242022365457,0.8279478159481005,0.2845611287668329,-3.777415289719494,-1.559479458826693,-1.3226863913098759,-4.159101199165893,-2.9429017273574227
30,0.5695215482973809,-1.61972723614213,0.002008858064899058,-0.34802114163497394,2.4384066773559487,-0.2574925247246921,0.6657603712568336,1.2317313473661937,1.00381280976273,2.1170060279979404,-0.055761286090780404,0.5812849981275712,1.799972866498069,1.3456782195248524
31,1.4593786224966792,5.76937271675367,1.7450515227734082,4.067621266870007,4.002462095771899,1.706753056168451,-0.7443595449378427,-0.8372181377781945,-0.9592177462704897,4.060733626713319,1.849758498822844,1.6963165322675233,3.647162269686123,3.2291985727810806
32,-1.081698391542684,-0.4230656550557023,-0.9345086855795455,-1.1142777879060284,-3.541511277609525,-0.2526254706407312,-0.6699578110508654,-1.1812388533239764,-1.2015810725901308,-3.5946826090988595,-1.0553813728345325,-1.533433194427065,-3.145535438337759,-2.7757690135029565
33,-1.8551354870548111,-6.090793458046155,-2.076204861333178,-4.1997201319551865,-3.304487191357479,-1.2634559853153695,1.364670266836415,0.7337405695729343,1.728339184095185,-3.475357396719054,-1.7241649959329484,-1.560756065234643,-2.571127177880589,-2.7440186157184114
34,1.7681760092892713,2.5065499989365683,2.056411569970217,2.6617143321032555,4.281528564910816,0.5368399642143894,0.2922259723413698,1.158301518551718,1.0579164866266857,4.95216359023745,2.22153534234718,2.451507427765084,4.42581827346188,4.197963956290362
35,1.8280007731313581,5.142537829413455,1.7115628973210164,3.336649332393896,2.102057796468015,0.6952963576543425,-1.8100494886507257,-0.6288036902330099,-2.397447669390017,2.034125946141497,1.1562718431023609,0.9327501696121016,0.8441576364942356,1.3483449066721747
36,-2.4226699453454357,-3.885627201709644,-2.9677818867966326,-3.725428044620295,-4.402181066132108,-0.5737091456932025,0.3331218051685756,-1.1605310253188736,-0.6871570788844368,-5.748392846282311,-3.3151455861148174,-3.066767049058512,-5.171405018153134,-4.988584224187237
37,-1.4286473658604424,-3.4347708214225796,-0.7481497474920987,-1.8058707234878772,-0.7234703448784635,-0.12205082655785274,1.9405223607229178,0.6150597127304954,2.8717583144654304,-0.00854894237520364,-0.13525246934161186,0.01382735984477277,1.3282261125460093,0.6705931259277768
38,2.86983824143274,4.180684042851849,3.2996962101318683,3.9467419414299365,3.822988662777415,0.401203864839503,-0.9985885692462056,1.1029070607165006,0.22000573560958273,5.659372247428921,4.130930705230401,3.2031234889579103,4.964392676547811,4.661563948726228
39,0.8294309424871579,1.6921130794626653,-0.4703766917448309,0.15978338411460014,-0.4345250569953037,-0.37142725470874083,-1.719194798834868,-0.6901511138243136,-3.1363436720988673,-2.1212213311523618,-1.245590565745136,-0.9953358196584824,-3.435955230887229,-2.6499658356290454
40,-3.0595741057960693,-3.5048741745099523,-2.883195716552005,-3.3205423312756315,-2.6917776273212963,-0.08560962748499082,1.4723119976296812,-0.9063211847104203,0.2472878569546164,-4.613510609923995,-4.443565713257744,-2.8557442072352557,-3.6760705310690267,-3.1631496645979706
41,-0.22593638156008028,-0.5106330952222032,1.4686111299549431,1.0596540597380426,1.0450784874174037,0.7365217813256927,1.2301614069507119,0.760217690566772,3.202618867896562,3.8061921823941414,2.7343239826142183,1.7210090271417557,4.825895340663647,3.834090513306759
42,3.0852596102052297,2.3476420760497314,1.855791633243834,2.181714257867199,1.3525995089162235,-0.29916360433085637,-1.5626490505097677,0.5790599758125318,-0.6467173377010371,2.849354566328384,4.132223093938477,2.208142579781981,1.6111091948150695,0.9709249818650774
43,-0.2775572496944497,0.11548049805410607,-1.840920262326229,-1.5439949924450787,-0.9787310393305897,-0.9517464758934187,-0.667212624647175,-0.7151061592302747,-3.0775131944055727,-4.6154352348173795,-3.9654800166808375,-2.0162885170957656,-4.986261374987313,-3.7518253407320197
44,-3.106779584652289,-1.2954855192781816,-0.6325706354516584,-1.0419583138100148,-0.22781724514361634,0.6764622714938415,1.189158975120748,-0.23084386672588203,0.9065031669134735,-0.8570879196109805,-3.2852769046074,-1.5618026593621832,0.5502782762733295,1.0888711711125447
45,0.7208964033900888,-0.32684378585406165,1.4486808275627243,1.3274502276719196,0.3615148543833865,1.021800776609699,0.2768755756129967,0.5163000130874401,2.7769464426772066,4.397440986080287,4.596486319364497,1.9060993931853987,3.812132428464957,2.476886408769148
46,3.2252744212508335,0.7451022837825675,-0.2686997524261706,0.35570327868402474,-0.3452974452047191,-0.9697895394149705,-0.4276556482612169,0.011577169192044712,-0.9398018332698086,-0.7868494399817688,2.2053995694251793,1.197801888949966,-2.014208086198722,-2.226010122545112
47,-1.236826151395982,0.7260684155737358,-0.503493806221148,-0.7355996719294077,0.4720708363204576,-0.9871715944751711,-0.264175939468038,-0.23403847777134038,-2.3586253609482855,-3.343383580611597,-4.459124556380789,-1.6034200357992514,-1.6980600860544963,-0.6143932232706489
48,-3.3963186216821404,-0.7507226168356433,0.4736244476128636,-0.3262678552839307,0.25398362802339103,1.120566363293381,-0.5052123981285371,-0.02014928077125652,0.6735958104540093,1.63268658465775,-1.301136853274862,-1.2373796347430088,2.217616348658171,2.0693607645118197
49,1.9242348095819333,-0.9150837372159562,-0.5252736545227826,0.20406070688088432,-1.120906287873876,0.9270805202226052,0.7020142654160098,0.010989088173058607,1.9320512978514568,1.9144768886431083,3.6386085160586106,1.395159042322675,-0.6098903686126163,-0.990139259688899
50,3.448334134110664,1.06377458930476,0.06067566096124794,0.8415608234256339,0.34161972242517735,-1.1201716779990396,1.3330584285469287,0.24420902568232172,-0.09628867530205089,-1.5292453360202927,0.9215842298403581,1.5817474216120202,-1.0760423573968398,-0.8409741780391301
51,-2.7316523067718697,0.7285236265732745,1.1440916390820073,-0.05868270658015079,1.2960036067143503,-0.935449161371653,-1.4939635188114664,0.01902113276955394,-1.6261414039144464,-0.6532321720080737,-2.438834592140028,-1.4803237003833711,2.335344733418238,1.6667402615477476
52,-3.20322883980643,-1.3205871291925806,-1.0248435357720214,-1.5643859494848147,-1.081027871973848,1.0329613741235688,-1.830498410462014,-0.5643254356828332,-0.716034161005458,0.6743355702931888,-1.2184035535501465,-1.9735713244639772,-0.995754243755022,-0.7705847302468483
53,3.4373320485635412,-0.2978590956886891,-1.0886710019968673,0.36555484280565476,-0.9544816163286929,1.0692887621403326,2.413389537119674,0.19473397948606147,1.5323161212534775,-0.04445279695674726,1.2556701066447005,1.8525979491627336,-3.0005785040242814,-1.2421923339584273
54,2.623840174203501,1.2664214058611312,1.9238027299141103,2.126913099844267,1.5708432719092547,-0.9810820334674405,1.9071584524888898,0.8126749461861279,1.6181231897435882,0.48838010491839257,2.096844645055735,2.151685910993563,3.295098532594304,1.9661830483431717
55,-3.7527453802041904,-0.04905266883085169,0.4561378579986621,-0.9237659645187941,0.3216217635360247,-1.2974808507019957,-3.1979185271933854,-0.590781114127001,-1.6605840739783453,0.09058744079715644,-0.4214544600066529,-2.3014946168777146,2.596823147839031,0.10268441518068712
56,-1.8880557412281185,-0.8994784779248628,-2.3424016260737153,-2.327266512818295,-1.5727317631971178,1.0828523365250113,-1.625231568835102,-0.8498755690125649,-2.448795419271617,-1.4850344413356058,-3.2695251352620787,-2.010370561746184,-5.155247898818655,-2.2322340733252606
57,3.495410141800109,-0.011968478370417273,0.36043900394514566,1.4018399914365565,0.21711311772003133,1.4908720481371922,3.6492856396428426,1.0186427785488303,1.935273627940345,0.28455139624486786,0.08906925738428309,2.5386099078466335,-1.52269564597353,1.025792078133819
58,1.3300496690502275,0.46926683882315273,2.16257208631684,2.223924591307072,1.1214560012616788,-1.3722546560861686,1.1507425712325656,0.6242627814874998,3.0873310271934056,2.035490786699328,4.381996779043302,1.6657910756988077,6.212283961256605,1.5751158408737826
59,-2.7268354069626755,0.6087644836891977,-0.8990235389567214,-1.542732927387284,-0.3090921899117612,-1.4764976722506966,-3.6920744245587263,-1.2977897879501326,-2.2290850086761687,-0.6848063834740242,-0.2003451474629633,-2.3775147478506686,0.34496598088363056,-1.4578895928188949
60,-1.2696814939201468,-0.3388663928824227,-1.6107768353370413,-2.076028831382384,-0.5099680525400547,1.750937831268326,-0.6726606540101792,-0.1932903200029417,-3.4855152907563296,-2.166870941084565,-5.15307247762132,-1.3851180548967996,-6.4919005126809335,-0.48271761060729845
61,1.7640104840114248,-1.5840750839145232,0.8877068936020283,1.321495003961788,-0.179918523321464,1.137073263514818,3.373380037268985,1.2873416853106363,2.412922905241681,0.7839421957433956,0.5456832309056474,1.8581086492766061,0.4779522672519288,0.8922104119818615
62,1.8226667423911282,0.7850996496803734,1.1118522557765895,2.162853416491566,0.14159084215648873,-2.0143012129476396,0.3325583631871713,-0.29795012714879626,3.667801590372495,2.1515844689784887,5.470030296058879,1.4181466301613086,6.300529172176436,-0.3561578520883092
63,-1.0424928634720814,2.5534587107265097,-0.3888535771997773,-0.9619414273944933,1.0844361545654655,-0.4994886560761434,-2.817277473806918,-0.941498551046816,-2.3974612331837477,-0.5107640514215296,-0.883262465445854,-1.236855543721132,-0.7689579745118861,0.45488433194950256
64,-2.803881560314167,-1.83849166365182,-1.036301336455913,-2.588200789701275,-0.3196942130809959,1.9505413827446925,-0.19193587380276425,0.6735387364581189,-3.7092655545340203,-2.3050952122282373,-5.399133352945068,-1.8333601716225136,-6.007799372493755,0.4222410762966709
65,0.8965274463547532,-3.08011267426582,-0.2503639391017872,0.7986462425202859,-2.01042418672365,-0.2478522700120968,2.165032383927983,0.3290734319268231,2.154909632344812,0.0733671061652197,1.0599107668974923,0.8460385938560923,0.6356900038731546,-1.9861617648930614
66,3.7904399982670776,3.2445486832166477,1.4875131206143937,3.189232036043992,1.0843704603539874,-1.461762760625734,0.23966600473771782,-0.7980888979144791,3.7053373737971964,2.766596126817164,5.110391297034727,2.4590225457884927,5.84905983304889,0.36912906233375187
67,-1.3758572588245603,2.8779634722577065,0.6066239091391499,-1.0640004752382606,2.526005848231132,0.8311122338253518,-1.5295763692311144,0.39395760503842825,-1.7217845547742647,0.19125895003360738,-1.0735635739729186,-0.9052634939536349,-0.336257996346793,3.05137456274411
68,-4.322793938592045,-4.566069185041174,-2.2487987720437665,-3.609757326730721,-2.185085134414722,0.6341744100579092,-0.4234812484751007,0.6316028033041253,-3.7423152262290627,-3.399930237662852,-4.7579506927000725,-2.965560036577347,-5.843620877738414,-1.645932765956999
69,2.205791621043111,-1.9402053020873042,-0.42375609253854285,1.7278785496360085,-2.3707301774084684,-1.0246065215767213,0.977770034782345,-1.0494551019202367,1.1874954348962932,-0.045899685395799764,1.0445346774869073,1.3956462151353297,0.10313048489442714,-3.2859875718980427
70,4.140232018352581,5.3717122624715,2.914275338708967,3.498750432534474,3.2032397736083733,0.29077699284587594,0.6837533130063451,-0.24035305684860006,3.872157801365404,3.876254425732928,4.382701978673675,3.0401291487102933,5.846806779011626,2.8055373115662015
71,-2.920556037874199,0.5325772086377601,-0.24876668889156772,-2.4870267428810573,1.5718448006834447,0.7659144477632349,-0.537254115769051,1.5089238519647998,-0.6715733901956211,-0.48602455766103925,-1.1106147522152783,-2.0667266586978577,-0.023886936633489272,2.775410847671233
72,-3.3213709643940463,-5.411542809034991,-3.1206501852526762,-2.7186540281830087,-3.7530895353018483,-1.033300098902141,-0.9734699463860927,-0.24184864760472172,-4.094047164109008,-3.8823069212346564,-3.8950861706488493,-2.5517662955993767,-5.681196351915952,-3.3545619547716417
73,3.1025591943760675,0.9331958153074456,1.095193325003891,2.9116032229092377,-0.41254153169467433,-0.18339831998216405,0.2143027489510723,-1.7357249421251495,0.2908046160561899,1.1272386194837376,1.3060283991270483,2.56663681850333,0.02984299028336595,-1.9588029825747733
74,2.24940944351293,4.695404327919948,2.74276743886298,1.4435064859269267,3.6494590709877954,1.4135358722134925,1.2599709368753078,0.6794737231821496,4.348161051790083,3.3193421620497525,3.1539565590794947,1.6162340247909162,5.26107245186023,3.1627927278544337
75,-2.599022318132997,-2.0681675500062404,-1.7178138956109095,-2.6648425466386736,-0.7160046853874849,-0.48110125849495117,-0.007755336791693205,1.778680048347746,-0.12007567261401692,-1.5104278915461635,-1.5001258350148234,-2.6171119510531935,0.021672885095419238,1.3403935926014596
76,-1.4188130380043942,-3.453959979838276,-1.9444451351110124,-0.09398339186666423,-2.960991936062008,-1.4297732026756982,-1.5153641855446809,-0.9911815156113385,-4.5296195005991216,-2.370025697087295,-2.100808213781627,-0.5328027216238026,-4.641794254379854,-2.485654103183075
77,1.5986175322025993,2.630892499540834,1.8512044012841908,1.6740149978245003,1.487429017238437,1.007064428314645,-0.08966524917837349,-1.7276408041832605,0.1571304347743526,1.3904012057742674,1.4442728006850734,2.136211691999599,-0.23447621787551276,-1.1928166499525907
78,1.1874855421054262,2.0278298689804277,1.0669076576864114,-0.8503795730635633,1.9423155228497846,1.2318574777135562,1.7081010751107926,1.168421632213061,4.526870934869275,1.3998502380180826,0.8679183600872764,-0.3613005562841965,3.976479308955247,1.7561317364751483
79,-0.5276638748519219,-2.5658053255042246,-1.480766564442021,-0.16467041550654082,-1.7492355071653254,-1.3045148523824264,0.10146785624170299,1.6623938531860398,-0.30791964722144166,-0.7740962581932205,-0.913604095598315,-1.2502680762666736,0.6035007794352852,1.4373727085000607
80,-1.606571249157079,-0.7531571294668012,-0.43363007271119397,1.0583471341359878,-0.9038318258259102,-1.0106499725545846,-1.8059137863172274,-1.2552997692861771,-4.276422742487905,-0.7615784080864316,0.2179658807813361,0.8335535805830031,-3.4184251449983534,-1.2934625746501256
81,-0.17604470222922897,1.969984583780088,0.8053572974709555,-1.4500922702245733,1.532956045956446,1.4315305181831965,-0.07916851631469488,-1.6243763969998224,0.4086173365153097,-0.10111413909560832,-0.1335713248662324,0.2045018649115712,-1.0280084720416276,-1.764282841131377
82,2.415594137648059,-0.11236893373404076,0.1949691528951918,-0.4686240388587957,0.09526039981130537,0.8774207298743235,1.792435388867707,1.3115518084509499,3.810541385722267,0.6216526837129359,-0.7595124149693162,-0.8241338741813483,3.038835546095727,1.1236730753037891
83,0.2881689293294017,-1.0319175668278375,-0.08376030616781083,2.756269053474661,-0.990653914069433,-1.5142896713576879,0.10258859183650929,1.619602983549007,-0.2865862145796045,0.9147662084735237,1.4797660122628107,0.764479355734229,1.3901961323537604,1.8928662080432042
84,-3.2001210103229294,0.41880054377224696,-0.3024950970015375,-0.7243156191328562,0.35057866070532706,-0.8125131456584794,-1.6904129773091396,-1.3854667529287195,-3.2686834971730976,-0.9037450426643296,0.482013297182939,0.4187344424635247,-2.814697903218841,-1.02174293765336
85,0.09947862095438963,-0.02265183118919303,-0.5239832938499362,-3.4993619166120764,0.3120285037211337,1.6294187375276368,-0.2592388170280304,-1.638029794676659,-0.1607896586451964,-1.441314901373707,-2.7155584984215926,-1.5206425182536378,-1.6354570103490662,-1.7822170560725485
86,3.621594957380682,-0.12700524034063182,0.6129275610309466,2.1941180705373893,-0.41339778659717435,0.7146731929920399,1.5771129779651867,1.5089455496066686,2.8564524879921978,1.3703992030700716,0.6163078516785933,0.23990860048663828,2.6875347568627115,0.7271862951403624
87,-0.6505917766229645,0.9676880745838272,1.0129584153634372,3.641976966704135,0.33430352479246017,-1.7342731650745635,0.6038997529952094,1.6665626379263456,0.9079621968332188,1.655513252180897,3.4213500210858587,2.04286679783514,1.7918451729490272,1.6499984332365834
88,-3.5914563601343596,-0.6975045874732406,-1.0334941944555882,-3.6351133401395375,0.1505974175745101,-0.5113644785807316,-1.5757047048011152,-1.7056592347609583,-2.7641441559145807,-1.7851177824720295,-2.250543818116643,-1.0402401878891245,-2.6386719351426864,-0.1686744315196422
89,0.9852499660044322,-1.6039123197482104,-1.45670047049364,-3.307768267047484,-0.8232579261119054,1.696485543026581,-1.113810986477439,-1.6846938715963609,-1.797769117268836,-1.7099553135975154,-3.3579051686111514,-2.3688670431233287,-1.91631421107429,-1.8007815823654822
90,3.2954869291286046,1.8953226994607724,1.594362408304315,4.8584032146837846,0.3361127402222433,0.24583837709992779,1.8137453806425687,1.9928011871160067,3.082893461027842,2.054923494322365,3.979370484778165,1.9373117855999247,2.7147833665629255,-0.4594759621152374
91,-0.8938692686650239,1.7852939391141265,1.8648432376508683,2.6663306270202107,1.073729894934448,-1.4018068105278365,1.6657773553170705,1.652204736915568,2.598666400640404,1.804465460399473,2.5543242788723792,2.515081546046082,2.0152370486897713,2.39595289962788
92,-3.0612280842523707,-3.232866749361237,-2.3895994678627597,-5.792232558389807,-0.9189181546724754,-0.07282432752469278,-2.3572607724059798,-2.3654346443300676,-3.7608231727484704,-2.267198408777452,-5.394113020333975,-2.9191625784701607,-2.979524945954421,0.8101169249470618
93,0.4443942904406502,-1.4471002901281693,-2.093289899822151,-1.8399172692580619,-1.0479694405036986,0.8610470822600148,-2.059641011337809,-1.5096519175897232,-3.094478656953942,-2.0302835598247166,-1.255515371350996,-2.4300884556537232,-2.0078536811745367,-3.3226868321436234
94,3.1506481949990333,4.436680822919368,3.4284013043944985,6.412324800359889,1.4532667411809865,0.1613060048137895,3.1494209263579487,2.7724560875053994,4.619472296142803,2.5980285191964447,6.253258142205882,3.9318091242459223,3.4283610051595055,-0.5961916559943081
95,0.07193035771907595,0.629093458305982,1.890547045892773,0.8864876498611898,0.7600593907031485,-0.23586406907719107,2.0928978508225065,1.2043964607297881,3.1619829356690983,2.289795633696441,-0.21399073090371412,2.017827869591139,1.7673365601883642,4.2353605333664275
96,-3.5990245696452368,-5.24314449776102,-4.5117963509078765,-6.669971841130561,-1.7928658418075165,-0.5708523812236281,-3.992184010547536,-3.1075014515883295,-5.417045653771362,-3.1498308878017567,-6.504212660615266,-4.819530807456231,-3.9343576613834053,-0.23659222973265945
97,-0.3173078936755627,0.5174306382025965,-1.066062823970863,0.1454721856009303,-0.2878283086132872,-0.240487758647386,-1.6604552821347751,-0.733537872626724,-2.803974749217558,-2.350384899707837,1.5720043009925986,-1.222681547346563,-1.214422829979822,-4.725197054725404
98,4.188488007159689,5.456700787025165,5.242460057267689,6.4790547821719455,1.8189295264535665,1.188164998982855,4.595570743877901,3.233902928298398,5.923696226061154,3.8264352587946706,6.22132711623765,5.333545519215452,4.270930560164247,1.4691095351454355
99,0.10188915912846974,-1.7489594523137366,-0.326373118505227,-1.1466964669052464,-0.2267771137064048,0.3990823626133161,0.830363033803754,0.1769484183291885,2.135421129752378,2.0073645293296907,-2.6267017384893436,0.1243622674966237,0.40019754573094307,4.509106662617756
100,-4.564235398521774,-5.0025405369914955,-5.189596767912132,-5.774195976713453,-1.4793317461990505,-1.7709997132144422,-4.68491861823258,-3.0417913166913166,-5.978748000454937,-4.337946398714855,-5.5346939991005675,-5.223295812955304,-4.204136253883427,-2.6990024614256716
101,0.5111403588241948,2.778509154103701,1.9195023068604735,1.9277597271261582,0.6020421769920103,-0.2412522018371833,0.1503658032330299,0.3071805231987733,-1.3433185179838112,-1.2552092260402894,3.264163641918552,1.0253978040896368,0.47710156081078375,-3.54544981876662
102,4.42253014203942,3.9565922065827426,4.125097828713262,4.595454949618299,0.82171913206391,2.0772132687622733,4.120912241462575,2.5116994169615587,5.521651386252984,4.3483704396937926,4.598855839803781,4.369967509665748,3.6028725930768757,3.495876209207204
103,-1.240080313855992,-3.346261881195811,-3.1429591860802915,-2.278385518932058,-0.6677104336246019,-0.05393511021124046,-0.9333223393871484,-0.5335334607761647,0.6407531462117092,0.35057845135165494,-3.429173067727548,-1.865114803574009,-1.1334195646703598,2.0459223879033264
104,-3.6661140652772044,-2.538627290755087,-2.1923300400733003,-3.130664242499977,-0.00023823905525829372,-2.0029997702345206,-2.9742464280615937,-1.7484353170186078,-4.604487629472393,-3.6835276623854014,-3.5915130573511704,-2.8859055195872543,-2.507761858909846,-3.5495159438276156
105,1.7298737012885355,3.294213196062852,3.4698712069398714,2.0733996936632906,0.3298498829619097,0.22943814610347774,1.1997746673325627,0.3698309937043124,-0.21952177127661693,0.28808818606234676,3.1327583450152074,2.0673884523149924,1.305742449788749,-0.4033938572085393
106,2.4489156978299933,1.0631275544246759,-0.09994636693016841,1.6727364056751128,-0.7584697607421631,1.6474513043436276,1.516427962910987,0.9595543068363629,3.3897170796856404,2.4693005577290896,2.700855541183362,1.1132566646542656,1.1271020816646622,2.768841474245766
107,-1.7232508086315075,-2.6205497877612585,-2.6722474236633538,-1.3552107053315832,0.3770635440497957,-0.10211807753817392,-0.7872339870118782,0.19214607918214036,0.19659162452699508,-0.2964421093904178,-2.4713238575629806,-1.4932837256222786,-0.8521043536226743,-0.9290065061291418
108,-1.097985528174653,0.14403985043782494,2.069587314226747,-0.507881152623919,1.2278430362284345,-1.2619645254449274,-0.12866658888438887,-0.3803373844326258,-2.1220148105039476,-1.1064984024775055,-2.0810737219588344,0.49125980702328903,0.2316551291036991,-1.3159889683694084
109,1.1691379700716875,1.4907256002378069,0.9475201400228337,0.3343624957935513,-1.280271273866829,-0.32052233848835004,-0.24395740910151442,-1.0139122331556034,-0.5619849968673214,-0.43040653786893646,1.6186324818774878,0.27266935913653845,-0.19657930139175656,1.576353691536735
110,-0.03415048461791005,-0.8402941096443056,-3.1468296407239413,-0.20048889955594748,-1.268804444316331,1.1084087937393814,-0.8316464692593717,0.17736837325235458,1.0610366496582062,0.08823707704244049,1.799253724751348,-1.533193771309033,-1.2590489181631541,-0.43112559350908014
111,-0.22385583894077632,-0.1937791025334867,1.15395135077165,0.6971441396704521,2.11737782052352,0.8290747612474213,1.630516693667144,1.8539936304647657,1.1576075053470103,1.6677290285332882,-0.7743436701309759,1.2366846068653492,1.6455541588938645,-1.3655788182340198
112,0.7056552885193126,0.939768143958359,3.110231086956711,0.4634163443235038,0.8930058946674692,-1.3034202959398595,1.1511604405985576,-0.37799513080363134,-0.385114960106449,0.2359347167704728,-1.8157365052921486,1.830640988574419,1.7303545712905,1.9873518180787324
113,-0.8373859173475798,-0.9473397614258185,-2.9653012700959596,-1.488656492412828,-2.6325987804044693,-1.1195712685845784,-3.0011934159287903,-2.4618030627076193,-1.7200671745681926,-2.9684124160452456,0.0943604320784085,-2.5924945068010956,-3.192692234544828,0.3935208361763327
114,-0.8494790255949682,-0.5353544518788382,-2.1563200869126717,-0.4277763746095457,-0.266060561906322,1.7378550226466278,-0.8209485152678442,0.8624124488806365,0.10929516921783691,0.18654715150559734,2.016685929804687,-1.465198361071917,-1.5577610901914887,-2.9166176786262605
115,1.7392826873579572,1.681557546822204,3.9835522298889527,1.9186361610715268,2.6810184634020207,0.9654207378001888,4.00597125064039,2.6773259694847114,1.9897382894930773,3.880445347729054,0.3532149736078538,3.4412990331923607,4.507773067847927,0.9964086037691842
116,0.554127776117563,-0.14386354914042868,0.775241764533782,0.27934831707925906,-0.35975723642527324,-2.122341345376937,0.01731482009227253,-1.4230338794557973,-0.07305448974240855,-1.1203662550275895,-2.2767750745389597,0.7158149801781671,0.8013999587822278,2.981743885196903
117,-2.2949938730196995,-1.9101857050762612,-4.054966859153524,-2.0044279540891092,-2.2894447844319057,-0.35976191521477946,-4.427137803044193,-2.487639331563876,-1.8389972456302028,-4.145143366585346,-0.5827461613876406,-3.6382336123310832,-5.3116046269065365,-2.33149933714934
118,0.006275937478054253,0.8268370102519691,0.49460565508358717,-0.15122853110110754,0.7569024276418355,2.141244199385175,0.9840845949075159,1.8605210165215562,0.02308916802058849,2.191583043107209,2.5098346124413857,0.08262288508914185,0.35706779798983485,-2.2230447041010835
119,2.4356515598655375,1.7062377397617492,3.381637696916261,1.8442083722766935,1.6391692389800558,-0.45511246918885817,4.2288117494425395,2.01395356765642,1.3436802361898312,3.7707086315401384,0.6499384244517211,3.2631262615585537,5.436240881277204,3.175978227983207
120,-0.6458412111918205,-1.3083515795195102,-1.3021919169213205,0.08749481603570143,-0.824192679310905,-1.6348834545338637,-1.920311301257759,-2.0677953372730373,0.24307793030069272,-3.0761890598437738,-2.6810105092464416,-0.6820365131469607,-1.6689211961692754,0.9296438998619566
121,-2.1897725041077636,-1.2603011888292948,-2.362851178664726,-1.5401519768690741,-0.9753760085910299,1.0960625742118064,-3.528660496471051,-1.4394830240068557,-0.7438655234124241,-2.962802534496645,-0.6095865778847183,-2.537537982829118,-4.850685903418934,-3.2733407152936125
122,1.2131254789571162,1.5205148127994894,1.5936320429286766,-0.06808735104666473,0.6255875672796098,0.7086320511234513,2.626875690967833,2.061760818251782,-0.755485466544566,3.6206366978957494,2.786807979067199,0.9981796225831819,2.8832102394605843,0.4781475256923963
123,1.6420615269441805,0.7762153947127732,1.369395243622943,1.1520354193076128,0.48820258986117127,-1.233801776656607,2.512579832286112,0.917795228355265,0.3065302338701161,1.9786366370757833,0.49736225742564466,1.6946679133716556,3.6457826479012616,2.6069962177709627
124,-1.6044133701069008,-1.530307850008012,-1.5553273962953447,0.06160695927511678,-0.3444568904581736,0.297620908929244,-3.0576498109878774,-1.9510564256835818,1.351986029196627,-3.8457501933974947,-2.829193998334854,-1.0926958367766764,-3.796725920070149,-1.5940209036104205
125,-0.8990560356024797,-0.37113773015032986,-0.5758812524547328,-0.6990129525788963,-0.2275465814625184,0.7705640611347058,-1.3434996866385467,-0.5084109563667202,-0.17013457435641188,-0.9999194287462302,-0.3354549337480787,-0.8735377574088803,-1.9918770891086826,-1.370086409947189
126,1.7576601573782344,1.4636929133882415,1.4416424442569187,-0.06398896482618649,0.17721957859016357,-0.9707469873836091,3.237215190365016,1.8610026763119987,-1.7793132303020673,3.8605888852463908,2.8042875232581044,1.0814943325961126,4.271374295011725,2.1356518279618344
127,0.0735970097110865,0.038812440739706515,-0.06598997025684392,0.1921832899241937,0.09669249829919975,0.09912642383603738,0.11862698785562732,0.16978487242014093,0.26978037089906,0.08744532984781923,0.14533059750721464,0.09221579389994562,0.09963471932646857,-0.11865759209475135
