,AF3,F7,F3,FC5,T7,P7,O1,O2,P8,T8,FC6,F4,F8,AF4
0,0.0815447913105911,0.17288904959171897,0.14077782440932324,0.1306291946973212,0.02474747389579464,0.05722776999860287,0.08222275093165655,0.07264643443812736,0.10255130836556221,0.07950374086147927,0.16744543089840577,0.10709336669662758,0.11045148896484612,0.2586176609325739
1,-0.16374630586531028,4.074393982344388,0.9897611865078346,1.5349977740476861,3.3951889366076067,0.35885749579181697,1.0444720348009247,1.519319751388743,-2.010590698088655,-0.9145626925527043,-4.749349627220608,1.3723620244101546,2.859038132056158,0.9212719163242116
2,-0.2689178628368526,-1.0268927542345936,-0.8592134797837098,-0.6505669203144773,-0.9343600540623922,-0.9834997257170317,0.01110704357049444,0.29795151086478716,-0.6048600868623183,-1.8557296843471216,0.6733961006281826,-0.6546744319024383,-2.4121281301038793,-2.177836224541806
3,0.19817290237790589,-4.010045477949474,-0.6438628528919832,-1.4116223932967062,-3.0185608122956986,0.1794070657137149,-1.2698117226888241,-2.1407906690019156,2.1990921256343277,1.8309080898881278,4.330956423541064,-1.1119772216450237,-1.6405789742806938,0.008427795110000061
4,0.4033554635987622,1.9570807049792598,1.34563623862726,1.0031281061749804,1.5989822992869578,1.575266902082762,0.03287552158727551,-0.18803727297695982,0.9488162390900372,2.8962202804304575,-1.458920632711363,0.9639360171278799,3.8930135888571655,3.4268318954167936
5,-0.203049072197102,3.8271800590197533,0.146679894324696,1.2985449105915818,2.424534013107296,-1.008844601196551,1.6294599173364572,3.0348324195229073,-2.4694421008702307,-3.1379037949301787,-3.4135793161585544,0.7891828395239104,-0.23364843873616958,-1.401976373291297
6,-0.47198961834385583,-2.9802552869119894,-1.5106137485533924,-1.1188292317671178,-1.8760430102536692,-1.6511574133798115,-0.273192081452078,-0.6456971636695945,-1.0499803093709206,-2.8558606071218615,2.026123397967232,-0.9367523876716173,-4.107283663786886,-3.6685966285438116
7,0.15322290639534497,-3.3684878693330926,0.3121375594774401,-1.3625521953476198,-1.8628732176760672,1.7905181703109,-1.9661379753352688,-3.6653132551066507,2.7065533222887503,4.109125233719421,2.024340061671578,-0.6500422307448817,1.988244986818292,2.6466849929501874
8,0.4765287334675909,3.954655975583014,1.3923448794576858,1.0506386492873185,1.7841472563380374,1.2448725435811976,0.6503953956841831,2.062372631293254,0.8813122475961613,1.9203263784530442,-2.165327840248819,0.6529392264588948,3.1200446454759474,2.969950801339767
9,-0.028918709270358594,2.550287246027513,-0.5873344314674724,1.7241722549831504,1.5656924768933966,-2.2162842731316164,2.163840678411608,3.571210221509981,-2.79397212147097,-4.190036040627009,-0.32592299445117984,0.8820506219091442,-2.9199738173237866,-3.208997120833467
10,-0.4341746989761259,-4.628382777110788,-1.12338999292021,-0.9425389650998766,-1.4937682855318515,-0.5804303240011944,-1.0195716564880042,-3.5822389731134194,-0.46719588835347925,-0.6675439156516824,1.706216441784557,-0.3341505958241103,-1.4555845491914072,-1.7387868400845732
11,-0.17749646596057003,-1.4553265080535571,0.6452395122471289,-2.3932106315365465,-1.6440769254087158,2.1365019789740844,-2.215094753944733,-2.6023094451850497,2.631711471909823,3.2702256329135544,-1.3724551189939158,-1.5087354728040696,2.69660131722027,2.8532021686514875
12,0.3756000597941218,4.762476904590859,0.8467316098641741,0.9539662346475221,1.2502284922964413,-0.03528327168025123,1.236838853276455,4.597985489262481,-0.12359905706817348,-0.2654154935346028,-0.6286914026031226,0.2328551794460117,-0.1551909623575734,0.5159923215006191
13,0.45322401264097983,0.3344401385406934,-0.567900867336773,3.261748889360008,2.0362798989130626,-1.6115087141185047,2.2221151232583267,1.0121864285094073,-2.1478370592380123,-1.6949083586574398,2.693544395829535,2.364630151619571,-1.480634001971916,-1.710566765668522
14,-0.3345711288105719,-4.257247327824323,-0.6265529310287984,-1.1829014350126752,-1.26126036479965,0.35054942686379964,-1.2485068859107358,-4.654097143253227,0.7814964383722197,0.5049168594197282,-0.8698868130514855,-0.5017080584974711,1.1085656238938741,0.27116326144338
15,-0.7619280208818583,0.4813894777196655,0.4866419529620653,-4.152700935415222,-2.5325702996065727,0.867271979342682,-2.3275499931052197,0.6386483112166983,1.3135620636656167,0.04099743761906214,-3.333595810098251,-3.1649014140261365,-0.17637565489445758,0.17837308813840239
16,0.3292956922456297,3.215828222437843,0.40807065774810386,1.626015800195148,1.5994305034124972,-0.2740996366948422,1.1248286250344324,3.6619543241984887,-1.3649432999780022,-0.08027413734904877,2.400961416120633,1.1087642965107591,-1.1857003780982622,-0.4779408346889473
17,1.0558220048647247,-0.7099078342983737,-0.4797990655643696,4.893205667631052,2.867479154632831,-0.17963138442863844,2.6175212698738295,-1.726185231444395,-0.16208702414780124,1.1871679452303776,3.201043064925525,3.6367259314621565,1.6145912118925043,1.2914359468536305
18,-0.34775018862045565,-1.919382350535127,-0.05761156800704896,-2.1889892499234693,-2.1648382480888007,-0.09872732948929146,-1.01329803999938,-1.9476133824690673,1.7244122839878253,-0.6622167390021897,-3.508523173297727,-1.8417646570431927,0.6129306039396901,0.26072652315737554
19,-1.3038746702175943,0.22541657954056385,0.49667974339654797,-5.375660983632095,-2.839008701488962,-0.2572055761239811,-3.062268037499848,1.8386071481825539,-1.2003289295348185,-1.7709774048067959,-2.4811902780972623,-3.649312080195898,-2.3822121074300635,-2.40691774542359
20,0.3551029645998171,0.7346536233817742,-0.5325483140686552,2.733155090071423,2.727057888871192,0.5488517105814594,1.041672105406821,0.10937295072569359,-1.7400399006239742,1.28301628482531,3.8454554068656774,2.4021269406953105,0.09994073965456317,0.05417545239615805
21,1.5187669678829305,0.8953062492492877,-0.3619140896053432,5.583818471798104,2.400669064668775,0.4157790917002475,3.5367473603287496,-0.9539262356716376,2.6031135614691645,1.8128818631557773,1.584330543340584,3.2794833795965537,2.429112828654378,3.1494562460384485
22,-0.32863283247024166,0.00041240792409312586,1.3343781244583721,-3.13221365666059,-3.0287235119516795,-0.8538055195950908,-1.2386212898036577,1.2459904108410482,1.3599980959523836,-1.4715558002930114,-3.3260022304608294,-2.5460929779668464,-0.45472977977701684,-0.17929022978658016
23,-1.7551951684328164,-2.393805653285293,-0.12910169251389977,-5.58163286702235,-1.6828107544750721,-0.4334723726696133,-3.9069540260044335,-0.5627948101347018,-3.8425123916398274,-1.6179981146209956,-0.985749412627612,-2.778903620321554,-2.0819385468203495,-3.7314652761487284
24,0.29930226038698293,-0.07233542384084138,-2.142099530584074,3.3162695494670826,2.902803690094687,0.9052604003161294,1.5290542840976173,-1.7622259683890606,-0.6251854969307534,1.163441989555743,2.1774409962931465,2.2056725237784196,0.23362800973443484,0.04025908438094192
25,2.0663201257727373,3.896613109906852,1.0699604669685026,5.475532152755745,0.9321260509608205,0.5253287601956499,4.1180917684916345,2.137309555718918,4.72868801759136,1.5124559705914677,1.0212073883347772,2.454875205091764,1.8212704390012318,4.42307103836561
26,-0.3618715011212002,-0.5493307991458805,2.639244032993792,-3.2901304659319996,-2.3469493890001147,-0.7629314547959974,-1.806012563215337,1.4670310426508024,-0.3287368567662067,-0.5246581302671476,-0.8517215796833746,-1.5276754919766287,0.40400706442963974,0.18232478532985932
27,-2.439333357602411,-5.004432506916223,-2.341201128836744,-5.365914163346533,-0.39906336648878205,-0.8579242153183237,-4.21775555042913,-3.2503505429535635,-5.138575341303822,-1.691950075696649,-1.7352502671889143,-2.520120656659725,-1.99058114093512,-5.345317022397033
28,0.6280185598751497,1.6922021029835936,-2.5530376107180084,3.1216133229205685,1.5188181418594526,0.6162198645298826,2.02198734716537,-0.7224329569997048,1.29648664074615,-0.1618690252786396,-0.17414586450494007,0.8061457792437398,-1.045099556581314,-0.17290405592899027
29,2.759393356954552,5.392018190266734,3.6192313564360514,5.3061940370953735,0.23044918871491277,1.4529364639926259,4.29674697842142,3.660441384153599,5.061206037929361,2.158048861671774,2.8664491718716376,2.987206956980126,2.604175912732852,6.354129228533293
30,-1.1378431410633316,-3.0030596015192463,1.8150747604578985,-2.9049878052189535,-0.6578907636403349,-0.6755359727788711,-2.226616676003645,0.024021531862562027,-2.056537081880338,0.6412461736051628,0.6129891410237812,-0.33808468155145416,1.2872146892572935,-0.3018265211197329
31,-2.8457667874023325,-4.910633363857954,-4.510398376413398,-5.287016135887832,-0.42074569311724913,-2.1731664713915344,-4.39527338086156,-3.481488276872858,-4.617222947561336,-2.754601634711016,-3.986971339527163,-3.6655226218712804,-3.36105910355755,-7.095097543586748
32,1.7871401149676858,4.024159528374635,-0.6302172747347522,2.7161067988140712,-0.021375195966325,1.0555054804032609,2.5198101228252905,0.2471354195178104,2.444320556285508,-0.7950405846335448,-0.4806199169344843,0.2770882945214732,-0.9832282050733362,1.2094875927384936
33,2.55927437083372,3.6689926921248186,4.7474431033400855,5.25347050906111,0.8407022668341753,2.7960470498119747,4.450719544918205,3.0858128612550493,4.034638143192225,3.275568304822293,4.723934431679524,4.265790305947989,3.8475963981884953,7.20910687265839
34,-2.335720654097319,-4.330341046612936,-0.6012950833123815,-2.582562154030843,0.40770429338596853,-1.71620074330032,-2.9570070660235444,0.003054209721050045,-2.4212534652771187,0.6659032372849485,0.04168696513974477,-0.5656273153351669,0.321859050359237,-2.2247292420508913
35,-1.921958656154344,-2.0467263887373144,-4.337656308954381,-5.144892151383679,-1.3181978955625204,-3.128524092626864,-4.330697137733975,-2.891077404694224,-3.5774400423237185,-3.5853509288743846,-4.9349598865567295,-4.555395538862576,-3.8001593632997315,-6.569995618278017
36,2.519336979132351,3.6992636002288726,1.479145493693808,2.4852510098942373,-0.5068117737371135,2.4921747197188484,3.481914994835421,-0.5641587289171145,2.1065386399163755,-0.3916805868729207,0.3765456330446891,0.984415204523815,0.297302100578292,2.8913742150336694
37,1.161692325893096,0.5978247774889153,3.56888840185937,4.932180590719158,1.7203027570124227,3.0953441593378708,3.9278123586506366,3.144595131466977,3.4483239826029384,3.6856852622769427,4.735409948894583,4.4757726362678945,3.2686847047397003,5.404022556452772
38,-2.2146246276595125,-2.242908403288695,-1.810005688021891,-2.388117790688138,0.39570390859419324,-3.18564838515524,-3.9408762501757844,1.054946234759837,-1.7490746309769125,0.09033536666238887,-0.5836384547238088,-1.2887095009926148,-0.51195531240573,-2.8880922961772155
39,-0.6266771949193896,0.1512948713541947,-2.8586358113373476,-4.629536745552439,-1.9922304534038526,-2.7536710152412724,-3.24504568638956,-3.8118571975358737,-3.7043525994530944,-3.6904691487087566,-4.36994910716385,-4.1547074293826665,-2.588649928532108,-4.204582989216332
40,1.5531877316068103,0.4150768419887977,1.704300596040289,2.2743847423557026,-0.15533554069809355,3.664529740502665,4.170823250616336,-1.12845309957665,1.6436937673206289,0.23290602471032718,0.6143328819454772,1.3496802948189204,0.2186990104775089,2.2397559023070013
41,0.597077106549086,0.06661091996438571,2.5274442153416015,4.275711831389121,2.1405818149030007,2.234633785838823,2.4085344583909962,4.614133126728403,4.2211469978053575,3.723455400737422,4.021117988721346,3.8104025206830943,2.1853656789438096,3.4786419381671236
42,-0.8939806161993559,1.1440487683029217,-1.501581491309652,-2.1646659368319865,-0.17396271026076288,-3.9092063610096606,-4.099683353096174,0.6396481526921943,-2.0217128598817964,-0.6953265460282919,-0.6593885470966413,-1.2182789321375256,0.35690531689905575,-1.3420691344962266
43,-1.1005872888715666,-1.117500048364685,-2.628203553040827,-3.90009630716047,-2.1832589180395945,-1.6545146544270686,-1.5972431100661975,-5.180123903637027,-4.720747705719481,-3.8030239012033977,-3.6819070357395973,-3.608954971921027,-2.3267302410351447,-3.4658233644693586
44,0.6456393725789682,-1.8747579939419783,1.5669838959192828,2.106197798674028,0.5905136101536214,3.987923900814302,3.79133209923535,0.3025455058047257,2.9548859317179197,1.4522002685626905,0.8967519992432467,1.0787758976907302,-0.7746815278205355,0.7755979304248314
45,1.854381237073556,2.5047642829070944,2.930650682293036,3.4967286558159074,2.1055240795952908,1.0503561835160848,0.9346592792171649,5.223044296740944,4.855448839344739,3.7900421546790475,3.1679158511763412,3.560740926041822,2.9591011280406,3.9898828168818303
46,-1.031309566324484,1.5477267256505591,-2.0796511547267764,-2.141087893797866,-1.0911723512867302,-3.98314388596576,-3.404819623309466,-1.4087009348249326,-4.304221364567965,-2.5658738642281618,-1.3384429673370266,-1.1250039881012461,0.6132703049425552,-1.0075527519442065
47,-2.3868695205108548,-3.585741641351697,-3.0646069359163337,-3.021938575196745,-1.8530782262054128,-0.37473333498050587,-0.4104283095520721,-4.653031076006789,-4.325069626261881,-3.438955140985696,-2.2503127302291874,-3.5125731664290396,-3.7080775657240252,-4.5253761184349734
48,1.936165792447431,-0.3638776073198526,2.934482444355861,2.2724044811418707,1.6248329002467812,3.91554828545506,3.089935987172021,2.351635939622661,5.731844615605239,3.9074096215755536,1.7865078531720366,1.4329645282853496,0.2952360206973196,2.1397942141572237
49,2.2811000757474416,3.859449718959905,2.730910962986918,2.417051572985477,1.367044571301373,-0.4511886337395069,-0.11790549607777526,3.5815697353498166,2.9971876622237508,2.530753670644945,0.8202404680050015,3.2349503113049773,4.042317827248536,4.442117932265697
50,-2.9351288950395915,-1.1501720252962355,-3.80343403671175,-2.4466660244655314,-2.073721267396294,-3.70908876432721,-2.878453925163324,-2.895297991026304,-6.782116066319994,-5.153995544734738,-1.915913949228635,-1.8992681307411936,-1.7405148275016284,-3.828691098900607
51,-1.4034492370922096,-3.176346978263733,-1.8581284174677168,-1.6452858200673077,-0.6394291055294702,1.457411949723252,0.8363926027072599,-2.239429670742934,-0.9935808943804038,-1.0178570557979145,1.0115494740090338,-2.5537924164837342,-3.526912114150472,-3.3017559601149458
52,3.492289421332783,2.391306941922148,4.30679619178724,2.5634732871515644,2.2793606177442105,3.216744447710617,2.6369102163694422,2.9507916130222682,7.022966537172157,5.894040738164911,1.4291625993777886,2.2755944433751862,3.180399819298022,5.40689172959558
53,-0.011605355797048349,1.7686230164019845,0.6291493461962183,0.7252061784391656,-0.24456018504750004,-2.5605862643019224,-1.8410178845308907,0.871979550261926,-1.2967992775958763,-0.8971873907150534,-2.927673546481527,1.4577434856751326,2.0556533597726525,1.0692605982723546
54,-3.2240915467604685,-2.9382219279911244,-4.191864394795052,-2.5114927747344957,-2.1047102897456242,-2.297087228113333,-2.1196691051599936,-2.5552494818686777,-6.213419072064773,-5.795883609710452,-0.19808671427038976,-2.2801018302465548,-3.9497377588513927,-6.1415946035966975
55,1.4660971892802175,-0.10429937739112666,0.6161681793905681,0.25733822521740024,1.1046278665986053,3.55033421360402,3.03278864090693,0.3287732330681367,3.306658641474426,2.794594610934135,4.513290713633543,-0.12818715124017277,0.045183586224061864,1.8428434466740269
56,2.086123111453817,2.6917255308429135,3.4311466765722143,2.217341394264155,1.5042599489379334,0.9091113589300052,1.1086637125677576,1.8146799425197853,4.435460670725145,4.764123670442534,-1.671964368710955,1.7310495515350568,3.5523945128023833,5.51653084316755
57,-2.43379175295868,-1.3390499773862738,-1.5346181891942594,-1.1694335004766787,-1.7119315373399104,-4.140781738071274,-4.112225615829757,-1.2374162007959701,-4.474249444898302,-4.175145426365643,-5.402308847910765,-1.1224819114594347,-2.103823001357914,-4.702614981645957
58,-0.39075715661201366,-1.8494321624447954,-2.210517871932081,-1.6846328687994376,-0.5682962236323331,0.8170562412202469,0.4288382486654867,-0.8588926616261068,-2.119785619669377,-3.011258005485301,3.8739125331593325,-0.6391819844282645,-1.9094180055672993,-3.432046989412869
59,2.6025402289396773,2.2591305667895125,1.910247192717422,1.879016676128688,1.8696898876871104,4.0757938140923375,4.697109130482115,1.7779664548233383,4.464330270686938,4.649913576702875,5.395477255062472,1.97605163682148,3.362750898284405,6.703614246663403
60,-1.3453304734423361,0.7603211841108375,0.8352807001209719,1.0011141148514977,-0.48332020785949814,-2.5721412319298613,-2.2579551154727153,-0.17177850129022468,-0.07447491665768942,1.0058949686361098,-6.000654602303506,-0.7847221863809903,-0.5604725431505084,0.2570113825779931
61,-2.004131085630036,-2.595511860910832,-1.7121265567824804,-2.3095549063911727,-1.4968455536123857,-3.251522032875942,-4.515391905347633,-1.9131139681389606,-3.3295745202601097,-4.104452694056433,-4.509356043809628,-2.2396928292606773,-3.3059369657163162,-7.238549048439002
62,2.640712034509536,0.24531107102998914,0.389871976897074,-0.3056959796242561,1.3632803064868095,3.942480010699649,3.9333557203336333,1.123121184688965,1.4992643910053276,0.6913293279341923,7.6674462067007685,2.211332333159698,3.0843866212312303,3.2829805763996514
63,0.9746777407953677,2.4775275269386907,1.0723940772118596,2.473260851824199,0.6783798277414682,1.8028314143957918,3.570655508645515,1.6566119754257067,1.5227574103831631,2.7641806997459706,2.9511954479724727,1.9228270902342155,1.9005881409453063,6.106463216859105
64,-3.2556323371567832,-0.9667223932475282,-1.2546951101278139,-0.2713315346514715,-1.8169286607408301,-4.554023518626659,-4.983985321711408,-1.8358941221970952,-1.7796740865625738,-1.6430710919702696,-8.608333580318625,-3.3256622414453845,-4.850320831427991,-6.342522690506893
65,0.025506822962080067,-2.111283895875677,-0.21120095039447964,-2.4631533783893373,0.34536566944779346,-0.10206111046921942,-2.1802672347812213,-1.0948749595352238,0.2677571388655757,-1.1220848900307143,-1.0441047633696767,-1.224937563223981,0.37033486596902676,-3.577885399685123
66,3.2679393791142393,1.3524167817262205,1.6816237925025597,0.6651354002634806,1.7224215541598928,4.232384762282312,5.134963928769423,2.18156817748552,0.973652934081308,1.7101001546015997,8.720805373618656,3.9492480526270994,5.348873681034427,8.232041331114864
67,-0.6367427175323432,1.6769756545053003,-0.6501959650106827,2.405221032317937,-1.2552936570640703,-1.3509354620064717,0.8520700671151672,0.3880370569482304,-1.3969211447799694,-0.25213367462635083,-0.8612717337224086,0.4422585463470472,-2.708464761437405,0.29277119465345197
68,-2.9898060277214253,-1.4504327617657415,-1.7073735024258136,-0.8996752266412427,-1.1460575187752222,-3.102279315012776,-4.446618060840654,-2.1115744950790405,0.4564273243832313,-1.1015712749087783,-8.05864795443448,-4.095277535663767,-4.57738248515315,-8.626043060366099
69,0.7567984952997424,-1.281327457685316,1.3514663902711808,-2.393865396941007,1.770649841466808,2.11525152330469,-0.05674202850346269,0.26886134214055796,1.5278324581759937,0.9421752412506479,2.458426055378699,0.1601078277986466,4.3387562355797025,2.9647516427914993
70,2.77639724541625,1.3387432749304495,1.4301199593801235,1.06329941865934,0.3221789716832568,1.5652137075798553,3.291861886875992,1.6867089896349794,-1.8541756666480829,0.26910731747123035,6.7920662729610575,3.934373977201086,3.0111706190407297,7.625992837287584
71,-0.5561003590611089,0.9679486154142161,-1.8121174782705358,2.444766014629582,-1.757415572388592,-1.9910957277872705,0.013786436415833266,-0.7145397185080302,-0.7538843762624567,-0.8460325279831462,-3.526824907288275,-0.4491308788397854,-4.823520257188314,-5.51729441402521
72,-2.8293740787593875,-1.0801855855560316,-0.9547030607289134,-1.2479623088800091,0.4392054663049822,-0.15025020340272907,-2.181526826846834,-1.0583081845843652,2.6600373914179474,0.3086188669896343,-5.159893789804536,-3.6934011788196592,-1.3650486639209123,-5.668711559089983
73,0.35176323583975266,-0.7558408715866672,2.012175993508679,-2.492816186311907,1.2776434020243885,1.10683459794133,-0.6024068565291456,0.8825574083779028,-0.4793336997400832,0.18642209628801454,3.9487072054621577,0.4521421418154381,4.207027036414904,6.969666030802079
74,3.0967332367573395,0.7187821813306913,0.3622108269746123,1.485363516185115,-0.8772539211598154,-0.699429514499669,1.5293820610748392,0.4028605025656624,-2.63836635871843,-0.3421994305299786,3.4299695569896276,3.5414854914468763,0.2693847405807379,3.3419846994291746
75,-0.4123706295953471,0.6679179871204047,-1.956582225275862,2.439893420063318,-0.5558206830998178,0.13813644169504458,1.4396093653698903,-0.8146064994336746,1.605403380674085,0.6324452653611498,-3.714929188100491,-0.3046462024776619,-2.9368028110873268,-7.257376308323717
76,-3.317215103076992,-0.30264565004518074,0.2880373198250685,-1.7184983324435226,0.8808085986686242,0.8034583709689018,-1.4769052426706935,0.15362516607528764,1.9343067108126621,-0.1627139395578966,-1.8660439601823822,-3.520547980340706,-0.016449679354409205,-1.1981729836260386
77,0.7989334135048504,-0.7278165721139088,1.6490480311626567,-2.2277363108584387,-0.12108649069273494,-1.2510965895639024,-2.078908322379583,0.6149424377761037,-2.19666231871071,-1.2388224370852636,2.9283484331346457,0.15047171134160714,1.6184109345474607,6.585063802661548
78,3.1794773495977418,-0.09873543905731373,-0.9364955234502244,1.8292196171533257,-0.5215616651269125,-0.300573778544691,1.8598456999092934,-0.574445241073906,-0.9513859421660383,0.955895941810899,0.6866973364842464,3.551548939799899,0.4847199409730396,-0.36923801884432855
79,-1.3254366306019387,0.9323602448377124,-1.0909901151821044,1.8923935040963582,0.5227578724328378,1.8596236966913942,2.224981554229584,-0.37647829565036944,2.122476367990712,1.4580933387525614,-1.795651866641281,-0.05022483680345796,-0.7333026110668628,-5.313292368386494
80,-2.5048710018500513,0.40763808706191057,1.5052663775033015,-1.7088048570805425,0.011267931584135967,-0.4388747789259706,-2.3212280421660405,0.8924809134156502,0.13708119263493485,-1.7007558644772678,-0.008846796844030901,-3.506377305570352,-1.253726773948274,1.1742006411262116
81,1.654801534401323,-1.2294669364229742,0.30221244516211004,-1.564179504932052,-0.5629919432839589,-1.861634979052321,-1.8611350177840043,0.12904008651312204,-1.5480126403852004,-1.3494497020212177,0.5847248237197602,-0.05280332521548796,0.45164857902564864,3.8463494083101013
82,1.353417020240006,-0.578868893631712,-1.9034602971532812,1.329874125035128,0.39235187048676423,0.9977086799719279,2.5044569806050294,-1.152972125842984,0.20172195441394355,2.13464210492797,-0.2040294726516937,3.3006426947433645,1.8318013840693677,-1.2358693248091148
83,-1.46998116484989,1.5307435543425476,0.6574959281793084,1.4102058403190183,0.3251183996833167,1.4482356867091926,1.2389847127684097,0.15948862100653416,0.8128099921490095,1.1267208741739871,0.46493608250194124,0.29448007647500835,-0.6099710314093992,-2.539858475048875
84,-0.0022221631025543492,0.6370457147438445,2.0566470235186354,-0.7756363614434849,-0.4906567256418511,-1.1060065860572323,-2.230937554246229,1.3644284418705048,0.023811107491631053,-2.147075060385429,0.14367819216568356,-2.9540496602170676,-1.8779309128069643,0.7472118289112586
85,0.6221586250440583,-1.7623108235650626,-1.6898236572260479,-1.553593305284023,-0.022847329774079498,-0.997811083266728,-0.748151973525673,-0.5407494895416,-0.2831936714510956,-1.0446867377535232,-1.252503345002539,-0.806854266124244,0.8356553092189645,1.6244104941819661
86,-1.177194102948862,-0.6730731870562057,-1.938764644842244,0.2100947121331619,0.2229334470756193,0.7598596227257577,1.5856631295586356,-1.4892966805213277,-0.7073249449624159,1.770321947125839,-0.07280452660808635,2.5879504720788633,1.3221671606447536,-0.013399002339303422
87,0.8166624049233524,1.923045720358362,2.688657802409662,2.016709379821816,-0.0851479250625171,0.8943088710162446,0.7322550221214689,1.0412100472429087,0.25139918851000986,1.3256612958808307,1.8799740108408687,1.6407952861184592,-0.7360356161175738,-1.1506000041674915
88,1.863064672817093,0.7872959769601067,1.5777189225820745,0.18954512654452166,0.30493668149881886,-0.21956047460572684,-0.8821200293042191,1.468557931541152,1.6083281998593064,-1.1417436564899264,0.17220284688704587,-2.368931060767959,-0.35541293322839385,-0.647262033991545
89,-2.601244577224291,-2.1031151702972335,-3.57829837017049,-2.715821790184798,-0.20162717550474152,-1.3478005161977709,-1.330323459223636,-1.6446145461139046,-0.887942175915706,-2.133044301366154,-2.6035582643548523,-2.7342944346128397,0.05938302798155219,0.9834520946482195
90,-1.8750692685629877,-1.0083140512525905,-1.0250198924867806,-0.29771572851321776,-0.8513049081110902,-0.1065434929805734,0.527755514379787,-1.2500624278621117,-2.4016423770365183,0.49094926838275266,-0.4027769537764936,2.4358991366149967,-0.675128642765876,1.0206860909468547
91,4.406872851040812,2.4349188017156926,4.32436802894997,3.499154720566663,0.9369152185485456,2.2885165256453197,2.405249336009239,2.2989653453420327,2.208136670008496,3.540823392118254,3.666257952918386,3.9336822902761854,1.2266320365005032,-0.8727099505761121
92,1.1932750348554437,1.2441909885703821,0.3138500830114292,0.07308430250260141,1.1237926525106048,-0.15512525447498954,-0.8458467317090804,0.7999830460720646,2.7216733948677287,-0.1387353871059529,0.48765394486834546,-2.8485119189870978,1.4007376743939954,-1.0783921157323073
93,-5.908517881814863,-2.995213541682083,-4.902296938976054,-4.198033395848069,-1.9857132431967437,-3.3764717728339018,-3.586363766498587,-2.9255991973133155,-4.028806416474172,-5.4618811393462865,-5.095702422146952,-5.045901376584627,-2.9413371668668336,0.5845983461804835
94,0.0624253816469609,-1.3117761151425704,0.5517087389910958,0.44278611209736457,-0.8962948003763963,1.1633997269764818,1.9236100652906662,-0.10482490880789291,-2.244212984794244,0.44277920840382323,-0.06179886865327868,3.572758344086076,-1.5462963957307823,0.9670575133326289
95,6.8266460881487445,3.7193418917039183,5.2493909811285855,4.665738421066463,3.0529220985797387,4.128935926387464,4.412391819954953,3.418729417763546,5.946005321364198,7.571785142205652,6.603347682619503,5.892655193796968,4.75438589754977,-0.02879485753299818
96,-1.6504803868470035,1.0416614227704917,-1.554164063924604,-1.1429038069404573,0.117860232497343,-2.757010179921994,-3.548950052742313,-0.8154277696506532,0.8221045276116504,-1.6511864838035555,-1.075977046838936,-4.496208236120843,1.0061590664843265,-0.8995908590612417
97,-6.966560342720872,-4.392553932637241,-5.252599006042496,-4.800297370390575,-3.785679470923295,-4.125258645569621,-4.522454407029702,-3.649196704101628,-7.397941612111254,-9.321432501619668,-7.681520671473154,-6.3490169754666725,-6.2787390999804815,-0.699365112907295
98,3.21982154532842,-0.40159104330787354,2.593609980838876,1.8731041986527315,1.0356642315679043,4.477237971586714,5.268822052387226,1.8789615588020538,1.3780366695853359,3.7166235540546277,2.7639467138875715,5.456638574239298,0.12178173420654398,1.0104666971610001
99,6.280907847789871,4.7407221503114,4.805333628010642,4.562924836382333,3.9200068874443796,3.2114810490838566,3.8183782370874892,3.4948070352024128,7.8448787980795105,10.102256768238705,7.872943238214054,6.364355026924714,7.178200140063952,1.393731899897852
100,-4.354583774867134,-0.44096135823435495,-3.4556858940242017,-2.452569951143929,-2.2040945081172048,-5.729223332316612,-6.555297124247554,-2.9221507094513286,-3.8378505844092614,-6.198038993985144,-4.479673959464118,-6.273126551265813,-1.549465320785741,-1.2712641821127784
101,-4.940325607796132,-4.578808063069454,-3.9105998269616395,-3.9994641828116313,-3.412162411186377,-1.6113919002026407,-2.525272244564176,-2.8990830534910517,-7.013152430457834,-9.519947951631757,-7.060630779481485,-5.97028344607809,-7.27449903982643,-1.881180141696259
102,4.687067682854888,1.1671966747156564,3.867915707741281,2.709857709093601,2.979329376309154,6.030847738131864,7.016732780464617,3.7196629102686765,5.820647233398368,8.356736487145143,5.575796390241935,6.777901694821163,2.870649619697624,1.525920050182857
103,3.349218308471944,3.9329599888652185,2.7572798809886887,3.253875542904851,2.487127846045864,-0.12495743653593976,1.1148443199813962,1.9291778725180058,5.077344089485653,7.6311583307017745,5.5889479922184675,5.278033000510214,6.623980287727357,2.134070430489526
104,-4.058202133040322,-1.4522747179716708,-3.6358448182224588,-2.5404905633684436,-3.0868024746822416,-5.242950174024143,-6.564259493717019,-4.053932774543655,-6.6533878342142545,-9.439494953678095,-5.6264322905027795,-6.851013001034602,-3.6897647985235222,-1.620492053730895
105,-2.046528217518448,-3.060538685497865,-1.695918047646392,-2.5494636446457766,-1.564228239509457,1.3356217170976097,-0.11563435049875984,-0.7915718598159455,-2.6570043931929854,-4.990555980101352,-4.118541615857789,-4.462471460306294,-5.523373126796228,-2.270366754310114
106,2.639635858234692,1.1337515765562305,2.7830865451519626,1.9685948156105293,2.52816542854386,3.663128093899495,5.4556475666408755,3.8076559522977345,6.0317714259202395,9.014606933118719,4.674786784436755,6.455502435269643,3.7730586809606708,1.531485065981475
107,1.498238298663221,2.3475949474408453,1.0985459275491578,2.1216213530840666,1.0771915325940837,-1.5379733762152072,-0.11064408900009533,-0.21718524667473368,0.5943213659592975,2.457659762497248,3.285724992257397,3.7283644768681596,4.4195168252632655,2.4412330901839443
108,-0.9194835616434031,-0.3112741797432611,-1.596673815460667,-1.173437019114233,-1.605207669807609,-1.9189502721194915,-4.189252092432611,-3.031830886783003,-4.186107814359258,-7.1818703886357165,-3.222831170817316,-5.662313084814548,-3.157322551531758,-1.3948007278064702
109,-1.874699357754492,-2.1319138405819467,-1.1682499287837291,-2.1164265437708663,-1.2665979308046014,0.6564300563651491,-0.4743485771959906,0.8113293564287591,0.3953864709438142,-0.8531552261694418,-3.366880906539753,-3.2593458459665325,-3.741438673393725,-2.689533135241429
110,-0.48059435978350873,-0.6796684303557569,0.5254373008668481,0.4446120483685274,0.7954097723141125,0.6968844073065222,3.289729431462111,1.9499486863891644,1.8073538329354053,4.546905053096383,1.9637419986901574,4.649448661746815,2.153328455544781,1.4081126096180576
111,2.9434538916271094,2.541618351935033,1.8117942864424614,2.504278629744543,2.0512244226633234,0.9348765791817842,1.5714941090228312,-0.8251931298386785,-0.028435985075878467,0.6357158121269596,4.148346020760185,3.160178878250199,3.721921205810875,2.8869951715723383
112,1.0829758401356615,1.4094620691570359,0.029628566438660516,-0.06574427344226054,-0.5277237066952798,-0.4360321198830119,-3.0819226416868037,-0.8901077194473695,0.23949812764816125,-1.9815990351667299,-1.41906866400742,-3.6649866272386293,-1.2257315112035296,-1.6724086987181208
113,-4.159588775578569,-3.4313797147635827,-2.6643567855341526,-3.068194500777237,-3.0565354946539616,-2.584894438985389,-2.6833365378956917,0.28128737397450365,-1.4403429393093077,-1.7454777709914326,-5.071264676654567,-3.4126463299989025,-4.295436890439937,-2.8040731885311
114,-0.7785803667400013,-1.5393328653775054,0.0826286007085935,0.17806905509259496,0.9713761975123962,1.1427783557271451,3.560120640701772,0.17214058409076322,-1.2715092586965187,0.2963747236125189,1.6952785389583394,2.9580131998213828,0.7979049039987531,2.086485523047709
115,4.9238773095590584,4.445748353364502,3.2676936944010726,3.4937698788745717,3.7982247462888985,3.6686315422043703,3.3424560054386605,0.6135335084014181,3.3545618907854746,3.660274331867265,5.550734693544924,3.86743095873766,5.129074545015876,2.2722808681405056
116,-0.1344469266914277,0.9568043594135178,-0.6918792539254045,-0.704466472422571,-1.9565463125116456,-2.4216190240800364,-4.416666615070175,0.002805493657624759,1.0378807503232952,0.03083348862771223,-2.4878952519687227,-2.6986347910047463,-1.0770132446673102,-2.376334989895661
117,-4.873413863942946,-5.171929757832076,-3.3054003898101025,-3.524032411032214,-3.926777755911374,-3.8626177753732915,-3.3178807415810603,-1.5412948604036656,-4.953447758764014,-5.6091977382069,-5.273555961837576,-4.284065691196132,-5.773946154857219,-1.3303872667123768
118,1.1278875283355332,0.19940835502903187,1.4138648782055203,1.3907674617408097,3.0779734283048157,3.7001706108411447,5.214472177589364,0.3835972342376888,0.2428441911713994,1.020417577934429,3.303120697685669,2.91850572372453,1.98684702128012,2.250820393525834
119,4.040778145066413,5.3008428799376155,2.756843676581116,3.090006239598212,3.394366164367469,3.2511978791353577,2.6965659064618466,2.183472735878207,5.671458298558125,6.840449209638623,4.312748250203327,4.4102952620636175,5.857603589681965,0.25159769383398173
120,-1.7367482314374456,-1.6225537691119958,-1.8749645877731047,-1.9496842770594693,-3.923939046238211,-4.520536725090123,-5.612532612198353,-1.170116178785999,-2.043732767852241,-3.0468270944794873,-3.7452445095272884,-3.4992391995307046,-3.233968142380739,-1.5884511452367465
121,-2.7911940703310387,-4.720075084236703,-1.8775178326680186,-2.331704868951098,-2.4459724662374582,-2.219252341176434,-1.8016343300596607,-2.3250650726221203,-5.303420354711823,-6.850942812322161,-3.0225177831354606,-4.07087040607519,-5.218289490966644,0.5749682902583241
122,1.7960836980868027,2.9706445275743043,1.9164077399823458,2.2197896003392117,4.292635916994419,4.737672261086458,5.524697205842466,2.0795501054228582,3.7767273426708683,5.375121769128221,3.703162321211349,4.216462543521863,4.456254185704873,0.5374895629429222
123,1.5814313448738786,3.5101341960850156,1.0221306508776042,1.4927414775564198,1.4448174893503525,1.2075781621152413,0.9976279354736342,1.9164601491671964,3.991564666423358,5.521463178726457,1.804985912640158,3.2279852631012025,3.9242795340717236,-0.8416395862283497
124,-1.483534959830048,-3.9753877722491358,-1.6537541706147294,-2.234770970009713,-4.264437354011584,-4.526437506663188,-5.129468643702953,-2.8149781590829117,-4.995531461652103,-7.278799830721803,-3.351798766710571,-4.820834116735074,-5.363604217043498,0.5335393144351493
125,-0.6935502048896829,-1.8732721673185249,-0.42662997679354736,-0.7604027803527696,-0.6481126988849504,-0.47836156564518434,-0.49448221083030536,-1.0771330385479965,-2.090241329470168,-3.1333026315393853,-0.8948744654435448,-1.988661876707835,-2.195708487251156,0.48441671402054703
126,1.1528780350198418,4.484647614386406,1.3620894673645623,2.1577356510467594,4.093231570055124,4.21399915918663,4.7335950919219085,3.1539617250496215,5.48068368040701,8.197575114063142,2.9981389560396114,5.1200742585675405,5.802918778364644,-1.2072578711753807
127,0.10779498437682537,0.053568641951972404,0.08854228086136778,0.16382279796715826,0.0786594507984751,0.019407125651221595,0.2586210918598635,0.04594064082244023,0.00860431610964995,0.26618443512251394,0.273718171365656,0.5608133385468995,0.29821943877697327,0.27817971912855166
