,AF3,F7,F3,FC5,T7,P7,O1,O2,P8,T8,FC6,F4,F8,AF4
0,0.1354228942682675,0.02007486645144227,0.005070676007293591,0.06383178285742906,0.03212070062573511,0.006347371499815685,-0.02589022797960677,0.0005534608122521583,0.005471321429470612,-0.04964661240207503,0.053375683712399015,0.024884711209602412,0.07788225963222,0.047115971435092774
1,-3.529867189701402,-2.7904442765729174,0.29488164734498623,-5.127632171007999,-2.220920760714383,-1.0582066000132853,-1.6683918231363628,-3.7337651385854342,-0.6895012065351105,-2.719942200465823,-3.8607204049362482,-4.881122600237522,-1.1646108261690935,-4.9821139656762226
2,1.8318561256814492,1.6664171768846692,0.41439969858287085,2.0404109597187423,2.118167004129289,0.7012556296423744,1.1369506926612394,2.143582633290874,0.1252783884220365,1.4230387049995763,1.4192336116136481,1.9489344879151702,0.6501025157474054,2.4868858182050184
3,2.944628916956553,2.4483755563237133,-0.5261902749072085,4.34659143660858,1.4583117385127566,0.8836221632253515,1.5734080272733755,2.9506736204088715,0.9723477633300464,2.290486096129997,3.3848266350661653,4.0519895143656255,1.0398378886126554,4.01880935748693
4,-3.5432244208722703,-3.2047043939949074,-0.7037722754792821,-3.755996601186669,-3.85069200394738,-1.3228237568158925,-2.2552052836427947,-3.8480132860434435,-0.4988595092550515,-2.6429280977165486,-2.7545234787269575,-3.5216645197720906,-1.3942850736662307,-4.53972865642183
5,-1.7942664952467027,-1.8005990937216236,0.9272772707640515,-2.9665046158942405,-0.13177184413800652,-0.537924962209386,-1.2795429471826818,-1.602168825340425,-1.2935831312873949,-1.4713189852507857,-2.43194238094504,-2.591002793513973,-0.7188435750027362,-2.3240739881522714
6,4.693461799801161,4.464051769176853,0.7622437769893277,4.7913692178704075,4.858087432956628,1.7658688854631333,3.2976624789767346,4.80513281412782,1.1608129322818221,3.5539361485535954,3.759603204537806,4.382338524289119,2.0848129669313136,5.7549784602973135
7,0.29891812103775034,0.9270147863554783,-1.3834272241634527,1.3534249340549431,-1.3857641562839318,0.08398674368135656,0.7319428273007941,0.07951909707468768,1.381608025576516,0.37782243543407573,1.1111045365659034,0.8597856560878024,0.1670947643947169,0.31981975426572895
8,-5.06615136844846,-5.348727802689003,-0.545973023977678,-5.071545548847821,-5.047540954440526,-1.9607488861020759,-4.1071402367112135,-4.9368695342602456,-1.9208722995897956,-4.018146992662568,-4.239588753529778,-4.403537175663803,-2.5869905766351144,-6.014521920644845
9,1.1734198457069092,0.06535691770735369,1.752492792662115,0.10200652480829564,2.688348316853692,0.3800427255501536,0.03683785285021916,1.2092539028566913,-1.1007397258992988,0.7993473803230058,0.33744692149547,0.7129998247777236,0.561100865265549,1.5354032052416695
10,4.657932026124704,5.814378783845698,0.08884784135973295,4.7510654873826335,4.559150716071583,1.8831392456435783,4.511280882063269,4.392604911457297,2.4563866745416916,3.961195549650579,4.0936205126092124,3.6836265714615344,2.767944268041535,5.448865765813155
11,-2.2150153025207695,-1.0632549316031696,-1.9050608633748065,-1.1247660756834614,-3.4708551823193488,-0.7349808685068828,-0.8699483518316296,-1.9615160763153596,0.5729748006513706,-1.811951879024573,-1.5730375372329408,-1.7518834251465656,-1.3043403422097555,-2.88071254641129
12,-3.748010321216431,-5.872584889209251,0.4979079329197987,-4.138342377815993,-3.704397905926607,-1.576270461234358,-4.421768591218017,-3.4773977629501878,-2.5204175643505984,-3.423224342397022,-3.412807588712798,-2.5250445048469525,-2.5875671102514732,-4.368263423666232
13,2.5680775356742953,1.970344462821881,1.7700741060021081,1.6462807103949406,3.6249131305189626,0.873272430142673,1.5280276828391004,2.051686737127681,-0.13472701745965882,2.414612907930272,2.2771389099828427,2.0504292870445795,1.851491390272738,3.5391626806185252
14,2.8278568912587967,5.579306398260293,-1.0565153966970393,3.5617162032810596,2.846754963390891,1.1580646605473417,3.9126099046115717,2.547913784588145,2.1218400045654784,2.576792951362494,2.4959448342313593,1.3421833035968116,2.1488802399276254,3.148878669341143
15,-2.293774142432402,-2.7229135696739797,-1.3644134324593173,-1.8086981778767275,-3.2614900794004886,-0.7460403489542484,-1.8017520838418404,-1.5425757224989785,0.1468007075499595,-2.4465514140362186,-2.3081659844398725,-1.6375946284389082,-2.0441583970956447,-3.534074161072481
16,-2.3847950669384717,-5.01210890142559,1.435896492538162,-3.2328374816456935,-2.268746650532134,-0.7954386812260006,-3.2153172825401923,-1.912871550869714,-1.5596579661867598,-1.6909092695817505,-1.74522452527256,-0.524530907022829,-1.6697432190067145,-2.120240926635678
17,1.7981663747269245,3.291388916931149,0.7887392829878899,1.8816408736335513,2.651976593455464,0.40381479098903794,1.6338521388627247,0.6490348987018478,-0.7694986064512379,1.8963554437542602,1.79075641198459,0.7624320453439455,1.8628352252660725,3.0443697460048837
18,2.6378174559233827,4.247832653414716,-1.5438408874970746,3.164288602409152,2.0752971128365276,0.6407435978950633,2.6134566589711388,1.7589970132206245,1.2827419898487549,1.0500365677010097,1.4854273859081455,0.30645798338166447,1.3885005941393918,1.4893786433332667
19,-1.6608893305602725,-3.6694646426435775,-0.18975712552965338,-2.1273214248129495,-2.1107008119159567,0.0005880060632273208,-1.168073041007659,0.32793781647785275,1.8375965695508647,-0.9183494606951734,-1.0732044172131685,0.20088443887734309,-1.4466515453871271,-2.3280862787845042
20,-3.379051059292478,-3.350946090432303,1.3736613930330224,-3.175188576216488,-2.1700119427343223,-0.7528627714867836,-2.287591428133723,-2.1096836951663285,-1.6508588160861062,-0.8585774623755568,-1.80639621594557,-0.6957592653833921,-1.4539472953841808,-1.3130225440107461
21,2.3319746439343674,3.860334941804201,-0.2921349883489136,2.671232987197462,1.8650038518602432,-0.26697279319656353,0.6780213062658809,-1.0832476052494802,-2.9104756511089067,-0.20940306455946603,0.5670512649575691,-0.8897267540675475,1.03633965825082,1.644181270257755
22,4.034146234290205,2.3741649996406107,-0.9959627219554251,2.9816942343294612,2.313585471125726,1.0490685776029818,2.2068243552983278,2.821216257055087,2.7291744234081112,1.1669854880184727,2.5191730421866008,1.487373992979332,1.8548343051769847,1.509440526099025
23,-3.8564290985652403,-3.8697341674700128,0.5651513254689344,-3.4328330772768427,-1.9653552532302376,0.24498685052545874,-0.4056831096966334,1.3935275480358504,3.4718292430192,1.17289056820333,-0.5549127110742245,1.0761434765295197,-0.8696603912323196,-1.189896784382969
24,-3.935823605786614,-1.364055563475257,0.5252876468785038,-2.334296756058694,-2.240270595338699,-1.32818202820495,-2.1455117540834454,-3.6230560132889176,-4.2264286025552735,-1.8481427290656367,-3.2489317091385628,-2.3514082534117025,-2.4207453983139344,-1.8961505928744529
25,5.7893857682872385,3.7073192309681686,-0.6037299398455371,4.145132486267939,2.272638348042521,0.07760712235382548,0.4060707855802662,-1.1869495914205412,-3.1734824240470925,-1.7270808029806384,1.0675986112220301,-0.7309998160785152,1.0778995996031397,1.0580867892702104
26,2.676684321211783,0.36266371947751574,-0.08077421844439545,1.1448203457891595,1.782422947231251,1.3654184132490255,1.8270926522289268,4.200710335007555,5.605812445645093,2.6363539648341905,3.610813785219948,2.955241275445801,2.8919973998284734,2.2449223585993208
27,-7.366477479238779,-3.38860809035711,0.442539434945721,-4.454948680069784,-2.5262668329720195,-0.5516451915280065,-0.50002379983486,0.5713666092778968,2.001657419153433,1.7818727838593733,-1.8852986157368001,0.012994873981372414,-1.6277620742135481,-1.2161505576982599
28,-0.3513561875523143,0.596575655772326,-0.24434745561518192,0.4488166676419743,-0.9490946657179861,-1.0309572541741505,-1.1118722584010747,-4.300797502871347,-6.3084059978584754,-3.219688463428682,-3.3775879069398758,-3.0714508382253554,-3.0272305112632023,-2.3490742560835574
29,7.850387734820505,2.92883995362504,-0.15706712825733876,4.0636033321330185,2.4606373506364503,0.9288245911626597,0.3730197716767822,0.19672552729085568,-0.29210157467427467,-1.436044837431025,2.648414555465043,0.8017985024889118,2.3318927988470155,1.5135567186849535
30,-2.4460117455890176,-1.4905025780382517,0.3998391137783919,-2.1053315612073664,-0.0726707683739447,0.3654531192939878,0.1125224900029346,3.8220537210444627,5.980441884629689,3.3552177936967347,2.565678781985209,2.6376354211489397,2.7031604263064866,2.0925190671730918
31,-6.874152127247164,-2.3300211839416876,-0.1601035359989291,-2.8548835087781024,-1.9184502078263002,-0.9786524576566362,0.2333406009051792,-0.7980930120364945,-1.4014473640367362,0.9416027586379999,-3.01644933191738,-1.4159188091741945,-2.9226154505576387,-1.7265390064855557
32,4.867192185801164,2.2951847316066716,-0.3837554745913658,3.3812947000804074,0.9886240311288738,0.42918209501147486,0.8368581075342063,-2.8567849853332516,-4.606375440062019,-2.9643546498677256,-1.4147924245513919,-1.7596226745708292,-1.9654039022024767,-1.49908338147566
33,4.607189462611236,1.5745029260624515,0.4231811952810772,0.9655238243241907,0.9167001253899562,0.5985453413753277,-1.347991280117119,0.9642526042281122,2.516365552721931,-0.6062535312998084,2.805841029863094,1.5989309516124846,3.1574445417491424,1.6368713290057888
34,-6.166546103843874,-2.9628919247230407,0.23730796468654028,-3.8764815367025616,-1.5063253569068704,-1.0767649489899764,-1.3452429935391228,1.6641934901227668,2.504084656924908,2.1685280443080335,0.28148172804002825,0.6697798687159985,1.010399459194176,0.7365466660301712
35,-1.6737205933657557,-0.6401187923207795,-0.5745286829897545,1.2258742413636017,0.35401088921205776,0.1368276251734553,2.715925285098909,-0.578710612037438,-2.675763227266747,0.6683826240948385,-2.057570396809703,-1.2484437201287166,-2.9120943964877775,-1.120793937946475
36,5.990953783615182,3.4043787377325323,-0.02909646775409091,3.378806301072262,1.4403973248349065,1.3461256177362175,1.174030817919592,-0.5804260623872031,-0.20250838492737405,-1.2451243871697084,0.5077760513980075,0.34157221231725304,-0.10776018221002748,-0.06280124911944
37,-1.1150138310445745,-0.4621909363692431,0.5982604162263219,-3.193552350319795,-1.5905717080049475,-1.006329385124288,-3.896940266661815,-0.2729043034520864,1.7981714526676655,-1.195293325466969,1.0134663790143033,0.41663516030746084,2.2232087801431373,0.21002403210859663
38,-4.479452943389464,-3.4994079536464806,-0.16901364204214284,-1.9637141689756406,-0.7802774294389113,-1.1474249697400523,-0.3789423935778579,-0.10680368246583634,-1.735201749507395,0.5155522756362626,-0.7891174338537693,-1.0064581380928923,-0.5029029210198415,-0.27124128808194264
39,3.0726916338804577,1.648654443386979,-0.5197803951753068,4.423903826986564,2.476174585974901,1.7350091192374477,4.470121710186947,1.329140931098681,-0.09939317242884767,2.0517481368953434,-0.008956521358113315,0.7002878679073744,-1.2656717180230628,0.9067212848878473
40,2.156957137863437,3.1433992414521903,0.3065618008506092,0.007625987644878899,-0.29928364866405455,0.5658658008591739,-0.6926707822751552,0.27267274267491526,2.873359243226458,-0.21031560873650676,0.6262390233953753,1.1570086082113171,0.6974405419375723,0.12240339348316921
41,-3.8562583932090124,-2.751716695332391,0.3895430792361884,-4.596389518476296,-2.7858911153671353,-2.1062521601151367,-4.241390383740133,-2.254608564616152,-1.9908344519853767,-2.9585940049856654,-0.6790712583820189,-1.8115707611684155,0.2772217252279465,-1.9465665052032435
42,0.29984634128833176,-2.310611277429911,-0.36899032717710933,1.908203683148558,1.48955797222629,0.17822595604112246,1.5533481535681721,-0.007275505507892195,-3.0056435596550175,0.373100534099241,-0.2729186102010734,-0.7814754573929771,-0.5009764398752783,0.48472442614828537
43,3.5197461021778635,3.555840838273577,-0.25746355733110493,3.720570138386419,2.4647989435397455,2.0457408813516094,3.347692182839651,2.7817464508290555,3.953402052945372,3.618530615032764,0.9637413017737501,2.6151742542350087,0.5358008835700993,2.6333450155426257
44,-2.308470472376377,1.0960058786243108,0.37492164203147044,-3.1894263254415023,-2.44745565165217,-0.8233287447250216,-1.8041993864082033,-0.42700123911061355,2.1881517910435213,-0.8525151859397716,0.03950617043293464,0.03626752166820639,0.05901746203527134,-1.3630562496988263
45,-2.4141164860641493,-3.867758610246268,0.1501232076154842,-2.161260495055153,-1.648921452374816,-1.6429198953805568,-2.200821833144122,-2.8292539847708302,-5.308678738098055,-3.8488839064500184,-0.9896690333390846,-2.893892038956929,-1.0710381703360723,-2.7937439276542615
46,3.5417088529910448,0.2936480549033183,-0.3577214403271105,3.451751654992681,2.910339730631698,1.1723799475428238,1.3265365944481957,0.7215328126226739,-0.7159673906432185,1.3870131713437086,-0.12229584626036777,0.7984508409653261,0.43802219649930646,2.226866169241422
47,1.0018112049003327,3.5837331618644472,-0.062012635894577395,0.5189374477273095,0.6167317505790192,1.1037276407912522,1.2945299618419326,2.535453015163043,5.7314664487863265,3.6537068635819834,1.0505534245801835,2.5896869978600945,1.3504739902385825,2.4125773938068096
48,-3.959744965985489,-1.596845483602194,0.34095640213306305,-2.678291735929268,-2.7819423982783364,-1.1637131543209704,-0.3372154461429252,-0.672746125814461,-0.9459033345648789,-1.7375546746191002,0.4871860909313935,-1.4091419261274922,-0.8401198579833362,-2.784274846304685
49,0.3259330589845931,-2.718085906782394,-0.03490210418439227,0.6005771676070821,0.3127856319974112,-0.6597708875548347,-0.9706406797344922,-2.1836086370397756,-5.141117877080348,-3.199218156907673,-1.4152942648569462,-1.8244264855638088,-1.4819485273427984,-1.6330296716179535
50,3.7277119896699356,2.568516404967445,-0.3205679904464375,1.2285702747032339,2.1537020751029754,0.8795933838246197,-0.7226265935777789,0.2808347888764105,2.275921066701193,1.7957070566757733,-0.8817615250246764,1.5521964644989017,1.0916184688135255,2.823866266384031
51,-1.357942878531967,1.3866215022988044,0.16809638689427484,-0.8290279551614627,-0.8940469196086143,0.4773965763589117,1.2636528416878463,2.0545567925782193,3.7448772682315643,2.711504150310864,2.1557509432080555,0.8573537139092918,1.5841296742686595,0.7100578793807177
52,-3.0756799851501215,-3.0271112785694916,0.26365434669949483,0.31705832405272777,-1.2535924830677507,-0.49686822700092553,1.4079735630012782,0.25692733633273845,-2.8458318129224844,-1.6113190511996704,0.9818106764455945,-1.1305220274956933,-1.2286197797924554,-2.271299411975704
53,2.067714212495434,0.22881514900525893,-0.3396943509153775,0.1745600699270221,1.0326946163279518,-0.6045476904875499,-1.902744570693342,-2.284204924350192,-2.0016479844883004,-2.3591962697721978,-3.081218534808071,0.0021857640934798053,-1.7168608613632272,0.06268458050080537
54,2.1722676125147253,2.867405260188995,-0.12603599247140457,-1.408154030278448,0.3473501138583476,0.2101290688066216,-1.4845015113827498,-0.653679243884322,2.4699303264440418,1.3339344248128304,-0.5952545053995493,0.2172386796629003,1.3247959132312612,1.2063605997409708
55,-2.529837288754486,-1.9029848924110608,0.5137824367416871,1.0132063132123343,-0.7968071684210737,0.9687524031681641,2.4659499387099184,2.8007805908679546,0.48867526185201643,2.187312206476994,3.830527574364095,-0.49158785696741597,1.8566467083278233,-0.43087370412581555
56,-1.068007388049251,-2.062915151503391,-0.11886600381814451,1.746644161990726,0.363272459501089,-0.16236807521662078,1.0278764073932924,0.6815517269946133,-1.2888618865980908,-1.11269644258916,-0.19823111222504136,0.9761574927872089,-1.4201391571817394,0.15827168963175178
57,2.7999740931139354,3.3738178828222956,-0.6251746637865419,-2.230280962956788,0.36238542442316624,-1.4140807451457433,-2.600998410849498,-3.3699216231384983,0.2997138004203544,-2.1304347838855375,-4.078743537124256,0.46803216770004147,-1.9315552973211716,0.24527439984061267
58,-0.2705899704902657,0.6866681530803079,0.45482691744209114,-1.3722673256267683,-0.8029690086090715,0.4033308461853121,-0.362812042159697,-0.2826580227279485,-0.26956385257984933,1.0176904203160122,1.0649527872365099,-2.1700308283152556,1.478741783658132,-1.529784547551809
59,-2.8242042795471662,-4.36373904207121,0.6085662954781594,3.0540681905323037,0.07778630639089182,1.7548038614738686,2.196089171080909,3.7154711425658498,-0.14160691389141608,2.082225935404665,3.7391538310381636,0.0615979750624768,1.8936796417289798,0.4977632263033052
60,1.8573588283971567,1.0542284915720568,-0.8170181490280786,0.5810561747099808,1.0242848982358501,-0.8773333550989998,-0.1174008040311394,-0.4092975549203587,1.6568563372759038,-1.0226261036441635,-1.593872065617255,3.0992395516897613,-1.406253843668503,2.609532255750607
61,2.431555150012596,4.647500187765788,-0.43481744275595197,-3.303865120499755,-0.3999762474551934,-1.830015271282506,-1.4167426743428861,-3.6477968782572434,-0.8278726014397036,-1.9692530645345157,-3.0346581716894816,-0.957104780284062,-1.7815336552100383,-1.6517309147690444
62,-3.5702033011909617,-2.8148727472927377,1.1128029522494367,0.25877505873123835,-1.15370065847065,1.4349418262660447,0.15097173908670408,1.136302415250453,-2.4308205289884057,1.0450038991973993,1.5338163074698463,-3.582852496998016,1.121570644607675,-3.173857932159127
63,-1.4264938552830497,-4.155707432200808,0.13437938251250992,3.056408367320177,0.5936364748292458,1.5535047684646885,0.5999063994263114,3.1378252480529536,2.186580259875265,1.785788333233919,2.386307650459847,1.9979378192073083,1.7264680284242429,2.958423901512351
64,5.095109533567528,4.186448199784639,-1.2615988295976337,-0.8803052201689343,1.3111864173366203,-1.8674574215640691,0.27566736792330854,-1.6277110646384851,2.4348703071343345,-1.0072282386506524,-0.9493803502666677,3.5618225535854684,-0.640722854992452,3.138628224218024
65,-0.25434969382321987,3.051188493315845,0.2076388241677776,-2.5377536658025552,-0.7476275212976379,-0.9532484427790776,-0.07076274125616644,-2.312904269176627,-3.4203777189276217,-1.5796992637601461,-2.17798162057842,-2.9535587797618477,-1.8882275648421674,-4.125948566750577
66,-5.985481980885307,-4.844239993545618,1.2338254273168994,1.1929627560418548,-1.541883680067018,1.967054667024351,-0.9469753488408588,1.6990400626604683,-1.8410730668036042,0.8790140924531267,0.19825865640197884,-3.0955302647910354,0.11665036136623438,-2.58036109043363
67,2.403211919363077,-1.70474314951355,-0.4855226720274284,1.9786522449785908,0.9889775225069151,0.18490665000320122,-0.0175243218274701,1.3926240876540577,4.146020143727642,1.410629853672594,2.5341663088560877,3.6467612923027235,2.348899421520743,4.92360904131333
68,5.837699392986153,4.698486845079758,-1.0672392436324112,-1.2465507561133735,1.7910704390877994,-1.6059785285249788,1.5516322525550041,-1.2995903335651275,1.0398517480041696,-0.6828291517538744,0.26070144795042743,2.3219277676506045,0.202119793432907,1.6968736689317643
69,-4.51324613206335,0.549626903838102,0.6200551094801324,-1.5216427667518153,-1.4059318718576204,0.5018592926427095,-0.2592435382056576,-0.6056095679781854,-4.251010820022536,-1.3113529581903065,-3.2412299532682542,-3.9877921508174974,-3.025841658534634,-5.253337455523473
70,-4.5132145029886,-3.9486678133512614,0.850157784630897,1.140162903137013,-1.9317789622675283,0.8070159976918768,-1.850600572877782,0.5040745427471618,-0.44049434923615144,0.47004473745491704,-0.1187621234641553,-1.400563161962593,-0.08592065889395092,-0.718460485106171
71,5.913036609650436,0.12042206754904985,-0.594051008527745,1.2138337501134222,1.99248348283296,-0.8509780112187292,0.6622902755321635,0.12482020184787103,3.887660833545696,1.271781269590257,3.8563724027928408,3.9695890014220643,3.6622866850295357,5.159243430556491
72,2.289814521273222,2.9861387845049996,-0.6791690194282427,-0.9502435229786974,1.8291633202187942,0.23705815575367947,1.7885519102705159,0.5300933026756333,0.290372878654417,-0.2883824254893016,-0.6138283623093255,0.46546291903104925,-0.542666910778718,-0.18719952703541154
73,-6.030779785751371,-0.29056493336506745,0.4571826079214482,-1.0557458108390325,-2.638975287309046,0.7142495277553865,-0.931306538144659,-0.037546895900919516,-3.3392981120298906,-1.246755184888266,-3.939385360972305,-3.6336259467815775,-3.916648398467936,-4.767201466514511
74,0.16293312659822096,-2.1850037081851044,0.6132933821427013,0.7178992628718716,-1.4098470331488333,-1.2241575666932558,-1.4958396473670441,-1.6114385108772937,-0.6036347495335334,0.1579304318519362,1.6103594486619248,0.3915652893592958,1.5304989318462083,0.9623340392665438
75,4.670734856031902,0.20742048302680427,-0.2976589278694639,1.0475878524392792,3.1706215040689028,-0.13437369747060313,0.9174834219546407,0.34387728129376766,2.843539181414742,1.1774455244106707,3.2776514771939813,3.0312689443940566,3.5164776578552703,4.1903032606235024
76,-2.0092894215487918,1.7015975256897338,-0.6485443105141417,-0.48194983197667035,0.7047152843430657,1.8696288540551156,1.193276893893316,2.551988051267354,1.224389176524347,-0.06257332483570376,-2.391770782624438,-1.106294309692214,-2.5231909501510077,-1.6302810882300942
77,-2.153114400343254,-0.20582081633643126,0.19637932777019593,-1.192426730268912,-3.414771256395084,-0.6588525309777442,-0.6376655225209825,-0.9676896055586229,-2.4747194540923654,-1.0156447497051881,-1.9873661192185743,-2.2059716533445077,-2.4014528544940594,-3.461815413733209
78,2.5880783110441667,-1.4074387182363925,0.7252225551175587,0.3108322040496033,0.1523768889915397,-2.0377078899861267,-1.0647234020718992,-3.193704314019208,-1.9736087580565425,-0.04377701173338183,2.558024737945641,1.616226360242288,3.099974569975899,2.2124248743663375
79,-0.7786548680716846,0.48333752906487576,-0.18789583357294407,1.4602429408069888,3.2671766340080572,1.3499284096315693,0.2315145090007163,1.7695946526016477,2.1477347271903238,0.7439832898147075,0.4479558510619547,1.2047481611778732,0.7781238551135718,2.541848810192764
80,-1.703803532809948,0.9998446118585324,-0.7622830631656883,-0.2932156744714015,-0.9674008874696596,1.8024357281656396,1.1727647200014943,3.432510365523763,2.7847998950300683,0.21896388444522424,-1.9655083306045031,-1.8505230906889807,-2.953324710589085,-2.652316463621105
81,3.260619718873873,-0.9637162400722429,0.2473124808231234,-1.7531517760773707,-2.7303997659447137,-1.6861950891647877,0.13877919702767266,-2.563340045491601,-1.7326037974483846,-0.3864246415658214,0.8839946447135487,-0.10401024935006149,0.9483089604451703,-1.3937721012770694
82,-0.2888185827871812,-0.2213628271017641,0.6994957661077164,0.4849665483842744,1.5504908672005149,-1.39976921769466,-1.457971168906007,-3.244320660905462,-3.7434883706705357,-0.5069819269944115,0.7671313990236802,1.748881994352591,2.0246057679382696,2.8066311947691585
83,-4.677897657791009,1.3354196824965054,-0.3072264368373169,1.9147365754804229,1.911534914914108,1.5900473983806978,-0.3785922322968016,3.144643170872569,1.2036617352600525,0.003239420884734617,-1.6773058905946276,-0.9773403893843663,-2.335749818421024,0.07556757323913013
84,2.662710592798377,-0.9501448948134825,-0.5260787713590469,-0.8498037546789802,-1.7746107605087533,1.0989088001538145,1.8075046590850095,2.7059954071915113,5.003023579311508,0.9145001548276096,0.6906383215186868,-1.2975731329689917,-0.5273364346063798,-2.517466386862966
85,4.910154662818597,-1.2405748960426446,0.2933269267752431,-1.7945267742711184,-0.9848787663025638,-1.1730630179728514,0.4884031836098954,-3.3381179327124957,-0.7246554988980031,0.3306920980709033,1.8419458939212279,1.895183932160922,3.0815658996212214,1.2230385430606456
86,-4.672023677559693,2.2592299882442095,0.28370695039151467,1.2432548996358475,1.6071624876236408,-1.0699583181250196,-2.138999431209814,-1.9954749944848846,-6.623839375787573,-1.402576657748812,-2.044607213740097,0.5546049822439444,-1.1527682327054023,1.7223946130692362
87,-4.3216515992157465,0.4956609157610858,-0.15969705617551322,1.3353024872252737,0.13898893744553845,0.6529583858291715,-0.5210528593462722,3.0560005693927463,0.6043921437054754,-0.5545447128362969,-1.5102057306062513,-2.520795477708717,-3.126912500193942,-2.2324362099976924
88,5.893805446668479,-3.3023000907058324,-0.04579905463678749,-1.4644863634340672,-1.1080870789909918,1.3220687710443575,2.4426001654994263,1.3564565023129156,8.436125027920728,1.9006530919431295,3.0638985304104103,0.3573367346992,2.6286440509723445,-0.5290087422024992
89,3.503084575853893,0.7918409530118916,-0.09202660705155409,-0.6277503427017551,0.4697388518319536,-0.23360418765162444,0.5056898053019465,-2.348418817743628,-1.132638907001228,0.6394163241589287,0.9135736076539652,2.778093256351394,2.639897884974631,2.7183993800962316
90,-6.372653104937241,3.7447949949674113,-0.11432969753707985,1.354952034421648,0.40327818218326983,-1.7348849550822152,-2.755493486424585,-1.0252478368080638,-10.024778318722381,-2.334411364879099,-3.6963846004103353,-1.286577744852656,-3.6653576086048054,-0.7986145570353806
91,-2.912715351464504,-2.277486482628436,0.41529000569779445,-0.10813661074543902,-0.743199915307407,0.022945832944394017,-0.39502615738093677,1.416614981779877,2.384242278997865,-0.5838003226323376,-0.2408270609561489,-2.653747061178228,-1.8921200493205088,-2.5916489643666076
92,6.4924702114520585,-3.4902779457181667,0.15133358105848385,-0.8887528268854427,0.35011542578612254,2.144788892617422,3.0881588408173877,1.1376041478930663,10.871860977561212,2.6466802102454956,4.005842332889007,2.0911277848349377,4.237871140770603,1.9372334355491836
93,2.62549350616121,3.5622817370070683,-0.7381927509576616,0.612136937559934,0.6470720808053838,-0.025845655893917574,0.07822891519503346,-0.5657186624651926,-4.1123587346877475,0.3946234858181656,-0.4361751811501974,2.1806414520157653,1.1013632715870219,1.9471636005166277
94,-6.657047989037174,2.70300617502,-0.061522590131236864,0.20161891661008485,-0.9922371807953204,-2.420259501559253,-3.3546755190085027,-1.6535316477432402,-10.594831518480728,-2.7957858212834976,-4.059505286060944,-2.6556220789669784,-4.4676636359591315,-2.628671370324953
95,-2.3407715784857372,-4.3844228693786995,0.9894977736580692,-0.6985777102328741,-0.205782317467773,0.19024263324753066,0.5384761161354162,0.09699449300328301,5.809217576868705,-0.07780475739472292,1.133710607916675,-1.4190350067631832,-0.33396171237428784,-1.0167092766998103
96,6.97853337235171,-1.6850616561799574,-0.11995072061552713,0.4585703130345227,1.3783954502169484,2.4848220176962053,3.362923145764497,2.3451589916062803,9.149478469165096,2.738168120249562,3.8498134532420933,2.885997500210109,4.483696616993119,2.762642728257248
97,1.6464662887030472,4.70611736177533,-1.120843348295672,0.3389523850499682,-0.5015001832381856,-0.45234923243227804,-1.4272190202377093,-0.17519154557464536,-6.9137798728799895,-0.3438003530323007,-1.8584156386315012,0.4593231492437969,-0.4738110429140428,0.07259996886842529
98,-7.1766923164220024,0.700712190863626,0.3342856937819635,-0.8333161258806209,-1.3927000776436904,-2.2980030002492096,-2.88975962257986,-2.874034331617462,-6.878091371017412,-2.422368250970746,-3.3040746856383327,-2.706676265192698,-4.302062176556717,-2.3848853059867823
99,-0.37410997886569536,-4.659900504722807,1.1188485816119478,0.32448884528569893,1.3407752015843886,0.7439689554591326,2.379289374303968,0.7352032622438001,7.055005242611003,0.7951203008932959,2.5183701740394167,0.556720160000241,1.391619302602874,0.657856346820465
100,6.767800361676698,0.1372964633467598,-0.5195177397226143,0.757984211294986,0.9681426480640516,1.8386053615911286,1.8138220522295727,2.939861710408724,4.374521838297428,1.817617251359727,2.3732605355905094,2.085641397013947,3.8104724425971783,1.6492217530019813
101,-1.1919527676638246,4.413129196278576,-1.0054566277169554,-1.0343037964905528,-2.1285267410325033,-0.9727155931931903,-3.0459458753631203,-1.4887395009777051,-6.200476772558928,-1.1324878687824347,-2.913124899223362,-1.428462063790093,-2.3565658404938397,-1.0309418311906813
102,-5.435109075038603,-0.8611373695477728,0.6295146360341556,-0.22672331628864767,-0.11618680753390496,-1.1218478643413425,-0.23327565825620789,-2.4341981792559855,-2.2448432916386136,-0.9698686371825495,-1.1362524882027114,-1.0840939879706628,-2.8756325103339613,-0.760626227430202
103,2.4093636374630534,-4.053747725868451,0.8282388741983058,1.5144140731741556,2.6580122850040597,1.0177524999098708,3.0791851145826743,2.0459527282190533,4.642797313230551,1.1797837370269293,2.8194614624336207,1.9360982153565724,3.1259173511054543,0.9860617355573417
104,3.3408673597197205,1.5509989877452675,-0.6468052466988683,-0.601806221668585,-1.046904368331324,0.2373061995384157,-1.5104676159549852,1.5141059703330584,0.8908471638659902,0.044385900320563665,-0.157685574843077,-0.10705848111087214,1.5038268575993554,-0.05754534852993416
105,-2.6434835983587637,3.5691915443042066,-0.6439189495119172,-1.5705505163510836,-2.753457383264097,-0.7700916428469795,-2.3073727646524356,-2.0999134047214936,-2.8512453898403347,-0.8150855281740742,-2.1252565213904178,-1.9274680778353241,-3.370528477361626,-0.5414992703243935
106,-1.1581442355722562,-2.234038082834152,0.5865150417186712,1.4559467619263313,2.301285514120803,0.6375564048762541,2.936991657544935,-0.544411196533058,-0.41048303063122543,0.6923051713824111,1.1494706132710457,1.1893953231668333,0.06109513673450405,0.5788215298626477
107,1.6873820557213222,-2.912963661447222,0.49902350882000895,1.1621220061879165,2.3380298660281755,0.20147936397647867,0.8488279231010193,1.5771076671739848,1.278707282746122,0.06193928037912023,0.9293076076434494,1.4085211910793702,2.8624165227611202,-0.18984679932456547
108,-0.23167561155474026,2.8531529891388314,-0.4897343337396231,-2.0438513522996606,-3.3709044327240334,-1.281848781428967,-3.61935992335214,-0.06997479600556114,0.632609258641098,-0.9655522754739726,-1.5121549176572469,-1.8520439812294582,-1.3855483274269562,-0.6063048083974274
109,0.03223995204435241,2.0902473089179905,-0.41288283141615534,-0.4216283092624085,-1.4819659993074041,0.5883989915396157,0.9068426098517404,-0.6696801800612902,-0.21411786391266008,0.878072353281696,0.45846143648120813,-0.5761688819424725,-1.6394471300236797,0.980579258382369
110,0.2176153892953058,-3.3150516820891243,0.40628838974035003,2.1604151842444583,4.010960251831169,1.5219734310093431,3.3696427745328816,0.0739337966121285,-1.239090580258885,0.622761172696273,1.1019920281034474,1.9031165728002297,2.0294457478480674,0.045956815751272515
111,-1.6120701826363772,-1.190414109538841,0.370047392175498,-0.3904723369403136,0.3963026750577977,-1.3895874154217678,-2.4487587279970446,-0.26801764937150513,-0.2730907533760968,-1.6881930989425353,-1.6261568788580287,-0.24241422913853217,0.035981485123286416,-1.5119391787378227
112,1.1637144627181832,3.5642679200595055,-0.3711326031331693,-1.7703901457716253,-4.099432044420451,-1.3170243634848162,-2.3216053685872815,0.5276234731226022,1.9051507066537796,0.2726248882364479,-0.03796529618495262,-1.3675908442049391,-1.7623644271187093,1.00378627693846
113,2.1249477076437167,0.3474474739234356,-0.32857245121398937,0.9868933621364913,0.6377529976437444,1.965175241158007,3.353643760860885,0.8976629974637932,0.2998475622719771,2.0744512394610903,2.228049851904633,0.7259722606209629,1.4507249445854475,1.4755549591750956
114,-3.1815922837406836,-3.6177038000721415,0.384489219367949,1.0283101779458155,3.6838083574764995,0.7846833517501611,0.8686124336053772,-1.4927414121146618,-2.403323647170278,-1.4462706939050136,-1.3344541068545668,0.4910213115282591,0.683259707334655,-2.2149738997581765
115,-1.1232288480748593,0.3288392650506219,0.24436937514194143,-1.1742810528285565,-1.3754062082294043,-2.1566965444070645,-3.4512935956818276,-1.0508012926324402,-0.08204464191509042,-1.9075713388730136,-2.130564195371721,-0.7050714279605226,-2.3859596397640503,-0.7321817758483338
116,4.739236639754617,3.537882388126812,-0.40837899292919644,-0.2158410931978089,-2.9529756969600336,-0.14850717633588262,0.5103140067604771,2.4748455443079407,2.6456657703209654,2.5260036180485175,2.581248392153202,0.3628972347427482,0.8282115189580205,3.1106883430660877
117,-1.0865668801281259,-0.7898906200831789,-0.1012464988649182,0.9380308217276007,1.696143732823696,1.952895116531595,2.8699991805963103,0.7823621695934017,-0.16384492579697849,1.2884403894544854,1.4664864724745597,0.2409980095964426,2.586156201292578,-0.5582188900781634
118,-4.910819135242413,-3.380188667165083,0.38620870702617377,-0.38306927101828003,2.147043602816472,-0.36589158302596053,-1.4497339986196014,-3.185269721329773,-2.6664139292654307,-3.2069537951384204,-3.356560014717955,-0.8740712227407061,-2.2979878530275215,-3.262847062717295
119,3.5527255587261792,1.0305606765389208,-0.07140127168167013,-0.44421409855945854,-1.6260518096226768,-1.484557193658068,-1.9478051333013797,-0.3111484734688405,0.29356582563610795,-0.4980793660007692,-0.5716896622533968,0.4061609594793278,-2.167805187410387,1.935884483089162
120,3.4077015018804397,3.1682785374230367,-0.2782159379346436,0.6107485043384743,-1.456172558195324,0.6299626510250295,1.8289220988280321,3.50304207365643,2.566595754789085,3.380853914891939,3.537885104349953,0.9062904461411878,3.3714103474386388,2.5189247912813153
121,-5.119225369997791,-1.0480010041334096,0.20789893878011345,-0.04847311468350318,1.2878685361462268,0.9500809689812814,1.060281241593379,-0.10577103788151516,-0.2619272494829763,-0.14046764802357378,-0.16718745383916642,-0.90597884891085,1.4414134543386437,-2.8107349030582407
122,-0.7340184068338506,-2.9177503686621917,0.09243470695081171,-0.5004356884256205,0.9647320810748811,-0.6552529779546218,-1.7798984001237474,-3.4897014236379724,-2.4510255426485594,-3.163312540060878,-3.258741094181064,-0.5556145610106561,-3.9372849934270118,-1.1245892932417512
123,4.974501803209496,0.8286051708775336,-0.24165680617402022,0.3232723783469088,-0.8169042428847137,-0.5137820529630232,-0.4514207799121007,0.2943754454643349,0.10470151235750279,0.4127488340426632,0.4847183550763727,1.0177411763674677,-0.7250892395944192,2.737776503324313
124,-2.0436874460104786,2.676156650724184,0.11050961469232808,0.2404288113548665,-0.664769524551754,0.5609245443870636,1.5787994689735279,3.3198552550729405,2.3846787628295987,2.812338147165114,2.8242022606674024,0.08451498610283453,4.107628922908151,-0.35017446576911154
125,-3.0348846071122084,-0.38112000305780025,0.14707540793384077,-0.3134449031039327,0.2983849505183688,0.2321329098222828,0.1470016232115157,-0.22638573813010518,0.10434866333757462,-0.2997322337644901,-0.3483515835253356,-0.7011554995065962,0.18940193626206794,-1.654938581870283
126,3.7920887659655964,-2.5289842304002597,-0.2459511806126227,-0.056983324882569845,0.5166083351223655,-0.4875862700320589,-1.4817824611773038,-3.1742369952900544,-2.380653144374644,-2.5885049967579707,-2.5493601057627746,0.22149406259122792,-4.085603530691198,1.26546471438212
127,-0.01933996601734583,-0.21795062568974233,0.0391396404201168,0.12314453913870095,0.2389997387641016,-0.04644903638910086,0.014440462618709326,0.005838240534085059,-0.2943948264109798,-0.034410584469724816,-0.04407484119888245,0.12312471429775536,0.18579633907187676,-0.05613573923050436
