,AF3,F7,F3,FC5,T7,P7,O1,O2,P8,T8,FC6,F4,F8,AF4
0,-0.010231213617852437,0.026392939174016073,-0.011617525991265074,0.014928792471345393,-0.0012646407136292365,-0.04215803755978917,-0.05447514817945882,0.003305536474619112,0.010427008720336374,-0.029763212783003423,-0.04033889537101523,-0.005255028711693064,-0.0033724824532971676,0.007916088742317126
1,-0.9776205201837387,-2.724830714139857,-0.46683077010717183,-2.5867250451139268,-0.5805165865905066,-1.2119809622036368,-1.1703616263874206,-2.132507588260021,-1.8973515041582019,-4.856124257153403,-1.580910772109392,-0.2897070341874662,-3.393339146144841,-3.502598745850465
2,0.44636774880564145,-0.5944370891832272,-0.15730822126075794,-0.16387653572904146,-0.26660872611459174,-0.3452611211687183,-0.32778978092207267,0.20727829731969732,0.6463248885442292,1.251376142758771,-0.1397609604377742,0.3739115285280575,0.954887133108355,0.31010364650996947
3,0.7602452663270259,3.2036844909336564,0.7030578757105291,2.7676425309131476,0.7010296414700347,1.5114318492818208,1.4347918335482983,2.1455094960817434,1.8226034990668427,4.684715430066969,1.8940430705862925,0.10571992860528132,3.0478473768429777,3.344899572088139
4,-0.651442724663679,0.7936529608252391,0.2111673246920144,0.18475848500421535,0.47950982763329164,0.4820062356353303,0.4717945941240631,-0.4505587720540301,-1.338883933505141,-2.4450624686835183,0.11683768030856392,-0.6157244535727585,-1.6616440712656844,-0.5630882260121597
5,-0.49222254686531447,-3.87438814223007,-1.1207985932945945,-3.018417800276621,-0.88547555503645,-1.919577568060098,-1.7833677871689397,-2.1219094623554513,-1.5909480631115742,-4.304317614192699,-2.3988929648628274,0.21355932165982838,-2.509493304888158,-3.0747625871098023
6,0.5122258803407442,-0.4549484686170666,-0.04794337354889832,-0.01583994841594029,-0.6266804210466999,-0.2743136199454284,-0.27341905010087486,0.7263670824934954,2.0149305260803523,3.5384298566261028,0.24514724223031306,0.6314783593688794,1.995512229327119,0.7096145358459427
7,0.4205925278861578,4.363449130626402,1.6000547433725183,3.2035399792468504,1.1159611782387038,2.1683810710716602,1.9639586582123782,2.0262337798804277,1.1409013301618427,3.707075137216951,2.88312651772882,-0.5383825448839187,2.0203185061010425,2.764142170967377
8,-0.1010656179097902,-0.32719136553322115,-0.38070894483004497,-0.3188808365924743,0.7133343168593995,-0.15766098199176945,-0.1675076770311987,-1.0023124073741734,-2.5350475900356706,-4.41787062641118,-0.9530402135287248,-0.3923396846374143,-1.998746720246479,-0.7396859561974525
9,-0.738718058949824,-4.359292155573164,-1.9808731704985187,-3.189573345914478,-1.3886639158713445,-2.079391287934849,-1.7955670951267695,-1.8318502864521293,-0.4987668143207009,-2.936926308932227,-3.119998608199608,0.7210924134003993,-1.771355613762189,-2.484424547327288
10,-0.35843442310381934,1.2386450935699687,1.039939962540846,0.7045415702351361,-0.7474370433799353,0.5510439554752258,0.5976625960418313,1.215671829952304,2.738572843918766,4.963138284213862,1.875710109292762,-0.04428597935807151,1.839623790093908,0.6670282987182663
11,1.4815926386320857,3.760811152590561,2.1084971331822198,2.906919325210055,1.7148915026629625,1.6734012348493403,1.2827530120269108,1.5444271564636962,-0.18910287316681196,2.1064718247081027,2.949918571850677,-0.6469310899261513,1.820284878492321,2.295675755849974
12,0.5968701565577328,-1.8936118995176718,-1.8051691620685542,-0.9716814527565574,0.7192398748917935,-0.6571089147124061,-0.750398657028126,-1.2954027353253967,-2.5453209027341335,-5.104914318401518,-2.7838177237823247,0.5458192508664785,-1.7148315946677588,-0.5224196374803327
13,-2.4988312062222096,-2.724586017106277,-1.890003125240675,-2.3959361209975167,-2.1065480171498385,-1.1595334356055504,-0.6274820299104363,-1.2167632336777896,0.7046229836215758,-1.3732573632661753,-2.342186924008552,0.2805366641494549,-2.0879581539211167,-2.245990079653444
14,-0.41984961231738255,2.014403344598812,2.492071224456177,0.9695232266867526,-0.5868534397154279,0.3867226650609717,0.4970193934832372,1.200454570261103,2.0246986504556896,4.871094238375587,3.4254438166745667,-0.9454450015258159,1.7603935601429266,0.35744786944300316
15,3.5099863076962117,1.5902385004382933,1.3368152013987242,1.8075938721869687,2.544882193614431,0.8143286861532778,0.12878033452318396,0.9383419323467189,-0.8622190206589672,0.881080730017684,1.4158717676138153,0.31113440808519727,2.4172262669014666,2.3668967849929845
16,-0.20916896106907507,-1.5576669226125683,-2.9173074598527386,-0.6474477160150659,0.2877648451555137,0.14163224650067222,0.07707053556577419,-0.9552739633976913,-1.384940321992413,-4.390580810898744,-3.6149602115516095,1.1021869627174032,-2.012807639253631,-0.2533124967344545
17,-4.210364372058797,-0.7198537546606504,-0.5698583633490782,-1.3442238755717058,-2.9498795502065134,-0.8277754416489113,-0.02521650909233811,-0.7941908679057674,0.6080253021339082,-0.6948485514725818,-0.4078359233116508,-0.9729857263686356,-2.6468807236823118,-2.653029739517471
18,1.1524254329379948,0.7267147799195758,2.9660794536497304,0.0994938515434558,0.21533449670609559,-0.6729355037021261,-0.7146661346415479,0.6554333890200833,0.8854143627017089,3.8457595468634493,3.305992844169985,-0.9567703238661819,2.421699488080868,0.31601371057036176
19,4.381410653570665,0.3279704203814405,-0.21923989737633728,1.159069855799762,3.1814287805154327,1.2071536434421783,0.3685690598120822,0.8106140467172812,-0.057022551004563965,0.7655620612075953,-0.4087212352871884,1.5111973706472106,2.6610105987697046,3.032011315541073
20,-2.147065320476298,0.1378644892495363,-2.637229404935462,0.4645894893834505,-0.8747446667039278,0.9554747290973089,1.1221564783237323,-0.4280791358820251,-0.7192964209820184,-3.3942972208496895,-2.618109958174461,0.558697204054624,-2.887045665577212,-0.6416718706151069
21,-3.9655738751473626,-0.3868291358505824,0.8374577141116718,-1.2663554707731848,-3.0928458316993583,-1.7869680948325362,-0.9977301270230353,-0.923081018672508,-0.552077822130106,-0.9486078419884272,0.8303699446441631,-1.7590983957640693,-2.40318908105721,-3.349401695178902
22,2.897373686762768,-0.737010580732563,2.045268745516433,-0.8204283740034553,1.5287557700143561,-0.8652569738417978,-1.120659211494433,0.36111189659998777,0.9275381148231638,3.1003231841512724,1.7978219613420086,-0.05295049560285241,3.2925684992622446,1.2561844736945211
23,3.081935491947268,0.659286807088244,-1.1630464184329807,1.5203440964498605,2.621022066750561,2.327225193274308,1.6223563404793762,0.9957713333621001,0.9598231240737856,1.0696035588338266,-0.8112286427058147,1.6332209158994104,1.868741593116246,3.3954786696165615
24,-3.1752969614613162,0.9685307857731018,-1.3757252944276597,0.8526310456884714,-1.9426114494839695,0.450151185834652,0.7319883663745208,-0.44165273474378997,-1.3850634755531799,-2.9117591252849864,-1.1204981921690078,-0.3665674142890868,-3.523159870995945,-2.0584167079329685
25,-1.979469432660596,-0.8469454451294443,1.1911284019559165,-1.6882498314504357,-1.8596092186013145,-2.6353128707899853,-1.9649625584535269,-0.8916652347914877,-0.9948236478020046,-1.0045854817446178,0.4889816312047568,-1.1596100782168821,-1.0940435422231927,-2.979986917418956
26,2.892058965485796,-0.9715308146635259,0.8094554419571883,-0.6266470287586378,1.9170953864284606,0.1176514012448689,-0.16169626155400196,0.5461449864984347,1.861346014662626,2.6951231537125357,0.7708772325432786,0.5175245970378521,3.4705842890419905,2.806035441451044
27,0.9470183669421619,0.7740797953105306,-1.030052481808092,1.5830303702446842,1.0554909825945782,2.643069645625254,1.8854044234307727,0.5565853393086905,0.637481933589843,0.7331373851149501,-0.12959768003255565,0.464652068743933,0.1542751224950915,2.03010673932561
28,-2.1131939634925025,1.030442652610569,-0.44729175057099174,0.3582181489468166,-1.4095040478011023,-0.6399111970396901,-0.30077724914713894,-0.49647405340090056,-2.1214049382608002,-2.306874719694612,-0.75654994197662,-0.2830688057132739,-3.0389101624709784,-3.168103935234181
29,-0.21782393448054393,-0.5010126917142098,0.8457728343315412,-1.17778414489402,-0.5083455989835506,-2.40659150476094,-1.4322232321043473,-0.06617508672810567,-0.014049060354549206,-0.34003886895833746,0.009737036948034622,0.2630088744860098,0.8298539381764318,-0.6660674261079957
30,1.013073299155147,-1.3909233307833966,0.2709610664412947,-0.2922502311307955,0.5876250989794954,0.9787779621658309,0.40843750629864234,0.15601611168940901,2.0172799416948735,1.6622324654863532,0.8977592427497852,-0.3558032682776314,2.1602651525896808,2.836553653089938
31,-0.08901784183523792,0.29749693408058275,-0.7768557709795253,0.6292909818220057,0.4177225787157793,2.0465762252628186,0.8099664095899548,-0.3971098555391693,-0.6675319309417804,-0.028384860116206445,-0.2875295956579069,-0.8263109656719801,-1.685244045891152,-0.7884666639908949
32,0.20380056712673242,2.0940839679947407,-0.16306598048515705,0.5623060857607441,0.23290039201457205,-1.087676635072724,-0.05293019289264986,0.48718632326084826,-1.5307225020676696,-0.769826093237596,-0.9026873713745073,1.3172219170308879,-0.8256164580315087,-1.6581600618088488
33,-0.0331747646932568,-0.48864195323224696,0.8615384164570123,-0.19470093615892797,-0.7675461131372373,-1.6795194173953847,-0.2900384152143924,0.6300439320167577,1.201926322456643,0.2242615103835058,0.919437265344758,1.0730251783938953,2.1942539255241837,1.8795001027018892
34,-1.3681212814094756,-2.925486732028326,-0.019805808226688613,-1.1147518776044265,-0.7463939152056448,0.9868506387497668,-0.700735116478884,-1.2989899848855089,0.7579769965133238,-0.2740925565324098,0.49876412633734396,-2.444418009454809,-0.8752220882897662,-0.26547570037719775
35,0.5266519301526892,1.2605332313348454,-1.0169957780100354,0.09315707557425938,1.3273649495178812,1.3847759315145496,0.10778153028248712,-0.5131257187892525,-1.4496415624736436,-0.14548065799007254,-1.6613138830192609,-0.9316755348102598,-2.131571717547927,-2.164257778643135
36,2.362559028864218,3.50824829790951,0.3571682713637347,1.7385340320031732,0.8217465159642245,-0.7210002589774553,1.6424001685288354,2.055528882480659,0.14124949369899983,1.31579393167157,0.43405384749677506,3.5506931693801214,2.7231127982098275,2.556318129035497
37,-1.318335694176524,-2.532960864902239,1.0858412628019731,-0.3944094052463527,-1.7821149399973455,-1.2155473727392687,-0.38208451463374654,0.07563971265979338,1.3587862871571124,-0.2402951033113555,2.157477864013835,0.41937394751455515,1.3336670520363882,1.3779103001097666
38,-3.0947866522889877,-3.4897474556918384,-0.8074786302959674,-2.175496674864722,-0.5705823414886418,0.34059801373749476,-2.4892815633843144,-2.549594488626308,-0.9959115739804838,-2.179360480720791,-1.7844992414184024,-4.4660275468280854,-4.375457802927806,-4.640486752538819
39,2.3283961773816695,3.96543480759042,-0.9276489955329686,0.9914026083139797,1.9180421088168902,1.2230721244519909,1.077624617933325,0.5167658708315034,-0.9543194618951246,0.8877591483748711,-2.086899310192592,0.37658420033500833,0.21561553098061395,0.43397431018924676
40,3.4703017122415365,2.725911765872532,1.2184227045883569,2.2443843172124818,0.26949896644367843,0.08161488676007603,2.976603874481187,2.6889060231999093,1.655017873698919,2.701216268733078,3.2240794312733403,5.0692081596525025,5.4294272635402825,5.921067910788876
41,-3.4383101404136545,-5.091801947850431,0.505720612977533,-1.6587870693413544,-1.74884679409705,-1.4538350721096869,-2.0145451557059952,-1.0462180776277532,0.31982624163090895,-1.6739940820806847,1.310145992912206,-1.3300175950805337,-2.320140554402851,-2.8771954193721063
42,-3.4098281256920013,-1.3745118625263268,-1.4023550384411752,-1.9169044327781528,-0.1794014997658391,-0.42626283169817647,-2.9410427264178876,-2.5310801847019437,-2.0021373852050055,-2.769509450364037,-4.318981992205192,-5.299799669857778,-5.54067431219375,-5.993680767824234
43,4.465025312788933,5.519714404046908,0.08043376586869844,2.1563037530632476,1.497671726849389,1.9069494117203878,2.9200381163202347,1.3497479332473568,0.41175907250709654,2.4112993652428663,0.04769585056110067,2.3050246651194413,4.571069152878545,5.303050595901213
44,2.9115358252116947,-0.14467730144799845,1.2366213375322048,1.3207090453752037,0.3757521223047632,0.5373550159583459,2.3760316741456635,2.237891974264252,1.9723105457213683,2.368774811092705,4.702959694869904,5.155592776154499,4.562784350098607,4.821995003664855
45,-5.193876747309468,-5.107535986459289,-0.63651117636546,-2.3268563933889745,-1.442115390845349,-2.480893966305969,-3.5092755824687747,-1.3869624799102427,-1.065778779766836,-2.8868668679343137,-1.625578952034559,-3.176234122989051,-6.438050015550553,-7.024260954275876
46,-2.10344563806228,1.3077165522588208,-0.7331250131857623,-0.679842202041802,-0.7013496360083459,-0.28589324918698245,-1.4433557563514603,-1.9817686029194237,-1.5818316676989814,-1.612286721891546,-4.2381370073568965,-4.684232597365311,-2.646295868712159,-2.784755504964793
47,5.474034336286633,4.043378367522607,0.9659678778094728,2.154351996127731,1.7215864324207908,2.9614019376359217,3.576447822251622,1.233352036021922,1.4544378614031377,2.933291136195565,2.967895084734134,3.842814407158905,7.439514941932809,7.5786429850019905
48,1.2196727486048284,-1.701276488922538,0.03924203063796216,0.22098613534546557,0.8744454253998961,-0.33914775379548906,0.4331742826370732,1.8656204259596247,0.9559209173807734,0.7332012575848045,3.0823698858194333,3.972364904510296,0.2350975310533461,0.5472588400425522
49,-5.313799571874185,-2.7874719849056206,-0.9623488140039791,-1.7654427973752784,-2.2343519533191882,-3.0849894911585904,-3.070326459884693,-1.0155490855845832,-1.4385702867834165,-2.5082806274004454,-3.7199608090332235,-4.240999635941466,-7.331917850345404,-6.922354295539684
50,-0.4871738470393258,1.2086236928661431,0.6277732444985761,-0.07889765540888416,-0.6811772658031895,1.1726976908816558,0.3226394120987332,-1.9014557570918498,-0.32114300246318633,-0.017384547983128745,-1.618580009097293,-3.1296795976198895,2.066676380773337,1.2071952435237177
51,4.890482448231083,1.8891117743952552,0.6529692092670658,1.3743211787009675,2.6931930863521165,2.6631715547580863,2.126910225678075,0.8417847802208499,1.0035229543661928,1.7412970567336583,3.7788627483229975,4.354151233134718,6.22788987407659,5.447331960958828
52,-0.010030771577155054,-0.08261398910853805,-1.0741376248898744,0.23581620728120217,0.12466454147050342,-1.9032487563648302,-0.5620292814650611,2.045180174688999,-0.06098151394728716,-0.3069259944553826,0.274320613204519,2.265675590464588,-3.7201539871858147,-2.0674608080819707
53,-4.441457410905631,-1.7433603597815321,-0.17662320076325114,-1.1865992246231898,-2.802892495567164,-1.7025381112568196,-1.0396510332495643,-0.7745032978111805,-0.30260848164783116,-0.9090377706135788,-3.3150565381041095,-4.212923949779037,-4.5675718225231146,-3.7964907743490186
54,0.3841253832391602,-1.144198713589335,1.2013052160162854,-0.5240729349780987,0.5666535006083859,2.197740150154049,0.19266525726485118,-2.2433152117353354,0.006013661748185798,0.17492314285150312,0.6721199682467408,-1.4640746974934198,4.470491677909809,2.0595008277718736
55,4.096185073927845,2.3933199036598816,-0.28449867009491997,1.2988260451224318,2.443346715413925,0.4419245528035732,0.16717299197106372,0.8487800023734836,-0.3762399363366609,0.33370916625801494,2.6512798222271123,3.87874085227068,2.933386857119411,2.5588997884016456
56,-0.8545995766196047,1.8944488169290834,-1.0258323285649285,0.6994451779550083,-1.0742285498332238,-1.865806486857767,0.6600122495204744,2.446837769304257,0.48927141176031835,0.2713924928828733,-1.188465421966899,0.7674643213653313,-4.442105580119697,-1.5943757794903073
57,-3.769403267408088,-3.484075332149205,0.5782403444107147,-1.6416715045569044,-1.7423830464536878,0.7332262985663243,0.1956521839227115,-1.0981458512806326,0.726581289220519,-0.24196579682190614,-2.073142672707262,-3.413819273695959,-1.7886166165757342,-2.0006789371708655
58,1.56017131592349,-1.8284835856706976,0.6496511946114997,-0.5579437542465131,1.178694068483305,0.9705655214975767,-1.6839513888190594,-2.5872347164417393,-1.2171444048358286,-0.7370146435927662,1.4352755678640046,-0.18440209080720749,4.0468005633933934,1.2228557638680484
59,3.2087341843676325,4.4153835239418315,-0.6270446733757085,2.001183388074503,0.9977949359294231,-1.4659059495766413,0.0642729668271243,1.5461995358127183,-0.5740300746347143,0.652911482980318,1.690181284848328,2.854334112743331,1.277949060133385,1.9752704905343401
60,-2.3987111631010953,1.031415396569839,-0.2073574577539636,0.04083868263193549,-0.8848118941131157,0.1864132425164548,2.489368371114249,2.552886464545338,1.8388612535327784,0.9107833420869054,-1.6069012938125435,-0.28152143037588084,-3.74666811079528,-1.3303299283769614
61,-2.1864369514406086,-4.637398601802536,0.43325619537886184,-2.114018323302034,-0.5035440463192669,1.5977837878031076,-0.8233850846452038,-2.1606289168327395,-0.020976414642591226,-1.3592465117901145,-1.4317969641397041,-2.2074671087500874,-1.204315934917881,-2.058906906843987
62,3.0208581938195,0.008743632241743009,-0.17972004617941048,0.7262055244499558,0.4111696907374992,-1.2063517290877732,-2.7582854791056812,-2.209439137242262,-2.047015666877429,-0.6214705196701007,1.7803563682089034,0.5998046146448929,3.8063309764172573,1.9421722144131401
63,0.715818328513271,3.9425188736331327,-0.05788739813002604,1.791195824915807,0.3879272089489105,-1.2368316963735289,1.7614249545818397,2.810301861550554,0.7756473126652133,2.0219378860159583,1.1685918128588446,1.479238540615706,1.19275402165135,1.8277683481104294
64,-3.00816308955448,-0.6400505312659583,0.42798571544230735,-1.4804094146103566,-0.059623836012371104,1.783224229481912,2.3726501327289555,1.4698951475770201,1.727293179653629,-0.06999168118847222,-1.8769955432526264,-0.7059009325064423,-4.179720370586376,-2.7454857802749095
65,0.8616417156984733,-2.590364212927483,-0.4066044552238765,-1.0086496422393145,-0.5543000960084086,0.6851161723278838,-2.486445838244908,-3.2744638350879134,-1.3182550403685465,-2.3359602200493774,-0.8610146033973967,-0.7148079814064695,-0.9339511176672491,-1.1109044089634978
66,2.138445288044674,0.384744962474168,-0.49855276546801996,1.9300762547325911,0.04667043073106491,-1.8358200461354799,-1.4623859547432205,-0.37305042105832603,-1.0272799142917142,0.8966869275745738,1.757735070287702,0.5323402554847824,4.589346640246582,3.3033635143534537
67,-2.0000445682135304,1.1856216825808394,0.8578597267291876,-0.0772727113224423,0.7476246581569702,-0.2740740083018065,2.692543669069915,3.317393705175261,1.3754412059933945,2.1802373496648246,0.6192339693135233,0.0172890766750745,0.35266250909702607,0.07151609689708296
68,-0.5684805734742581,0.8085622969450611,0.39807773742959207,-1.8689763189121145,-0.39070567076981566,1.5154223216046794,0.3504367419512248,-0.8856501160299032,0.2888556528551592,-1.5207226548959094,-1.3725909104755216,-0.06174072311802989,-4.729570855370347,-3.322580812010869
69,2.228144075811439,-0.3687502650138808,-1.2016321644012504,1.1893719409579238,-0.6994461630723081,0.2044607158729923,-2.2805124000283015,-2.7934757450698324,-0.9105554425759226,-1.6691946128861883,-0.6265972653189265,0.477757925528056,0.3945852632696801,0.9202784991189992
70,-1.1965795586509382,-2.5415491647924053,-0.17776719173766858,1.2463359552817768,0.9080368890514423,-1.1007784271842853,0.5787017557031484,1.9981576206398133,0.12042296609804122,1.7052826952095648,0.8436301539216726,-0.6363764439496009,4.450411918700073,2.809588243289743
71,-1.4173546287267496,0.49197852314684565,1.373044813936848,-2.027913198301218,0.2699911478241311,-0.4726338910951535,1.3912545797188105,1.7261859808651163,0.13721071386132325,1.076637978185298,0.9849054088367477,-0.6620284279529678,-1.066425842320038,-1.5286071506573407
72,2.5454651691872936,4.1821766606245365,-0.07620291969664175,-0.172554301631379,-1.3088694507854293,0.8518193349565469,-1.0271190229433813,-2.644593725638061,0.016714909985988655,-1.4296378670376757,-0.4101323975794937,1.4160480215568758,-3.8064458714848626,-2.029546931575075
73,-0.13293381222549563,-1.4632697377595159,-1.359544570860899,2.361216549714467,0.4803062561013403,0.9032537804089324,-0.34532660093514117,-0.32220265053372743,0.5942228407789679,-0.6743352021448148,-1.6034049804227188,0.509330380492432,1.5072991816723222,1.6467704811019397
74,-3.073825971401276,-5.188950292490673,0.26933969099072397,-1.1250476820233604,1.338827277106147,-0.8995967081525689,0.8887469572365522,2.60472097421296,-0.6782297626608512,0.8838618580593736,0.2702204310403758,-2.1108522275699038,2.9603929950782537,1.3137116286931474
75,1.8538752096770126,2.8379292598276846,1.2122365458910476,-2.0790636614518316,-1.3146152193457181,-1.2494342670244403,-0.4782776994199074,-1.081780213314183,-0.9671127900580506,0.5759286545489041,2.2248865188626756,-0.08673822407131544,-1.7179544572867875,-1.4276174747652386
76,2.7760609091775423,5.352903731397071,-0.33966727713770645,2.365936100945763,-0.9003883817899019,1.2111037872061963,-0.2791033250247982,-1.8366748963609487,1.6398179767256837,-0.34604975259100523,-0.4351753432317425,2.600142008339556,-2.0342309115120245,-0.8531450077190753
77,-3.2147818257268233,-4.0859927507666285,-1.0301218511537473,1.2068660037933887,1.9201349802418024,1.300933267737165,0.7746720484324288,2.115084872641036,0.829792743380481,-0.6742084408628712,-2.5812089045908997,-0.48602531422621825,1.7867935619469595,1.1473136418478238
78,-1.9987594590863578,-4.827628288968241,0.2942152550489066,-3.276024864594491,0.10700457712514709,-1.6210823869761788,-0.510677262850486,0.5002703909957403,-2.6027816559689025,0.009771721710056273,0.7088824931475413,-2.8423248541983037,1.030891404974039,0.6126584098355582
79,3.9884873978106263,4.862561506426121,0.9143166079505931,0.10470915966869217,-2.0411228059844952,-0.9588535389301899,-0.4138333727225261,-2.4801512228228715,-0.2235340563750084,0.7084857161683207,2.5721485168325824,1.0994711918353097,-1.7512091329307053,-1.0091452828629894
80,1.1912726575057742,3.9564436680825166,-0.21621274416990133,3.6376278941403855,0.7469129528740396,1.8992933851212552,1.1133841966722862,1.0775069312130119,3.329225417655641,0.1417859884584714,-0.8174954364843995,2.8558695020341776,0.11047751884117178,-0.4078102929860862
81,-4.311879903255833,-5.12205367813642,-0.9098943890235511,-1.6029770629556632,1.5951091647262865,0.2654435262064336,-0.5172573889883182,2.042534087350788,-0.6898517741631407,-0.4277131471470157,-2.3385600409316885,-1.6943148041213532,1.5127020392103594,1.0239108659186498
82,-0.6179991126083109,-3.0291855781688586,0.22857990982547202,-3.334391766887426,-1.2888018847144624,-1.8250188671886483,-1.206272285059331,-2.4845531229029376,-3.7061607980389946,-0.34192192193409143,0.6066914100078005,-2.6665870250627224,-1.3696609956677595,0.07631289538249579
83,4.51405683184465,5.030514251629733,0.9678787966341768,2.971339057424993,-0.7304733745074453,0.6041202773410324,1.7405979029988963,-0.8807088870088252,1.7375613096253861,-0.23778519178283827,2.16994424163277,2.25070757861015,-0.8916634898451403,-1.0411972742998306
84,0.21706231200285941,2.130625107564636,-0.4235612427902717,2.3899765044247805,1.2104339054926614,1.2543613526635138,0.6167998542058031,3.3337804703217997,3.7137097520677123,0.91677002944734,-0.1720551456927724,2.26430099487178,2.533372556447938,0.3825875622192757
85,-4.834878540160604,-4.7622128984341225,-0.9569505582222024,-3.8905162571324308,-0.19994783639138863,-1.3794532030231819,-2.8730130958780062,-0.7204450630367554,-2.801371242050393,1.0906630209785118,-2.298763039784206,-2.7365510845366097,-0.19887807978555727,0.8991455264481312
86,0.3101097311428631,-1.1665922736408774,0.7932428286718515,-0.984990636262555,-0.4018753523853821,-0.17354045942218183,0.6190530533113535,-3.3732851208489656,-3.3412869736706168,-2.0911406616656754,-0.1727252709276735,-1.6062971720258301,-3.229071027653802,-0.7981531213233354
87,5.222676622379198,4.331513279966345,0.7308104345075114,4.12002710001447,0.7488719454174485,1.7582776390872565,3.5452536476340573,2.335283879786017,3.7950081838273655,-1.7209106484284928,2.7124559898806733,3.056614541250349,1.5824445966153777,-0.581675370442769
88,-1.2453156484007895,0.029839367319254732,-1.204754290913942,-0.5689060733628597,-0.9747847076742046,-1.271020958091337,-2.265209771027756,2.565415635752503,2.534825463349857,3.8231956648350347,0.08233211593435125,0.6722734245728949,3.1193489629432665,0.9537375991333724
89,-5.341498235940296,-3.5735813743559643,-0.2230958183599402,-3.5761423025346613,-0.5363290340336933,-1.4907503786297644,-3.5150460908666212,-3.5069893271150954,-4.5798256607323795,1.6852218626025144,-3.1079822733885605,-3.0483700613508127,-2.7928830559319286,0.2704190856984112
90,2.6058022797784393,1.2216038721835156,1.4469693840458442,1.9053094016141994,2.5082591454041556,2.780388094789218,3.9571158506992123,-1.1111615365749146,-1.2375652402969037,-5.758746278026708,0.5857927330986843,0.46354067565632945,-2.1493396806762752,-0.7622909498420045
91,4.779809824111383,2.281164163582819,-0.48290725715150257,2.3707404118867976,-0.5940484091564112,0.470821949490918,2.73687171924629,3.8725189256816246,4.90325161983138,-0.7312616468156892,3.0292979346063857,2.542837839136834,3.2509065731133586,-0.25005279676297193
92,-4.062252517102329,-2.3021479394717783,-1.3369032408320352,-2.710746591136487,-3.6599183918189238,-3.962054391362111,-5.3104442016987035,-0.5889356818101925,-0.4864188778589937,7.341723180131804,-1.6301063358802097,-1.5970434908605917,0.6813274848513142,0.3718583010484717
93,-3.3271100451214175,-0.4019416463565723,1.1591119050312977,-0.7858434764939247,2.4861253800298235,1.1927273394902513,-1.3691659793416595,-3.2717774330878577,-4.444376253963695,-1.0437443056225624,-2.120035372782191,-1.4653367356415874,-2.567263556435379,0.721613533575748
94,5.074639152590694,2.801040998439965,0.8337795253092196,2.823277108302675,3.9477105189667507,4.440433697081274,6.030752804139293,2.0324044446273075,2.3356726861678454,-8.040674622775775,2.5484674567489227,2.434450124860821,0.5967062897776145,-0.12318274560321649
95,1.148678418312592,-1.8354237359528764,-1.5253669354088872,-0.8131257146894988,-4.690653737304093,-3.1611541092214672,-0.2774794390364452,1.8133673045287741,2.981760901531454,3.1877989800264497,0.35554055770922244,-0.08131022856985932,0.8017724626180899,-1.6394407305929939
96,-5.165518842595843,-2.39278288203635,-0.09310070805947936,-2.2810331349145128,-3.127694969881059,-3.9946592696396355,-5.993000630021986,-2.755208050786933,-3.7754349639352243,7.588024336086645,-2.7571263373672235,-2.7029296878293194,-0.9688333138461529,0.37205587288399156
97,1.244789919087477,3.9521744187049355,1.3912551964161481,2.093839316279901,6.595470951077454,4.934859231956245,1.8322484950270896,0.12846355027196882,-0.5995877356819491,-5.0583474802189405,1.8743955681541542,1.8077600326440055,1.4829583531531645,2.678639849844303
98,4.173311253319654,1.0334751164314138,-0.5823329761438506,1.3001514246597692,1.304162521786394,2.6727408960273054,5.2713856681926305,2.484407471020528,4.215006556220715,-6.114263446121624,1.8803871588730026,2.2800156081359297,0.04723678034840715,-1.273924320682635
99,-3.214816438950741,-5.398580956129555,-0.7711370773259306,-2.8590416613082823,-7.62786317292791,-6.0056780906969776,-2.971266622010862,-2.004294861560746,-2.2092039941937225,6.084999216304842,-3.8860323325450605,-3.322934243428443,-3.4250750426665957,-3.367216866026589
100,-2.3448919226774074,0.9702624839318694,0.8813288494802918,-0.18976394730357624,1.0807769155831604,-0.8205296669128309,-4.11058921074447,-1.2528017504664564,-3.2953149777797304,4.106901290497562,0.033825152353262986,-1.2711445954565062,2.004352167971426,2.6582421693472225
101,4.278738435208167,5.788426838532919,-0.09817128099669939,3.095716022974254,7.459110075748435,6.045888954554669,3.5110838061477923,3.260066929797106,4.647993969074946,-6.006349098174406,4.977706121169745,4.279199080959823,4.234054505272985,3.3207035576587307
102,0.22059472432607394,-3.0617495840059337,-0.6441934850237293,-0.7649322391580218,-3.3865557098941887,-1.0121218936428635,2.8420855836753622,-0.583016156908786,1.1303920421604263,-2.211512710837773,-2.4838343540378416,-0.011880842103441284,-4.504177533339734,-4.075980892510468
103,-4.306286924663089,-5.067010274034076,0.8578322831340918,-2.95131048416188,-6.13062367001925,-5.050986468009579,-3.456254985661924,-3.5358680290951034,-5.916894804504298,4.969234286874981,-4.735740898893541,-4.508061783099763,-3.5458769274276034,-2.4510908100478934
104,1.6194934011210462,4.6550540251973445,-0.04466799120724415,1.4064227739611412,4.998591830419347,2.2674752162942737,-1.7692464965002561,2.4529539206823845,1.65288164590068,0.9704509798664933,4.692909435887748,1.1657152881883526,6.53290531894587,5.006783250810237
105,3.5292949961048103,3.527568132721126,-1.199117875829863,2.6423591951464678,4.04211341182661,3.357723783740434,2.97685576418833,2.807052540408234,5.5693887953789005,-3.4501595426575427,3.22692464818309,4.079986055341721,1.5875042318703803,1.0270126615715145
106,-2.8047299132799965,-5.3649109880561445,0.8873443198988942,-1.7483146321221208,-5.549778304933593,-2.595785016822063,1.0659714634782167,-3.7823895602588067,-4.128981957402836,-0.6199926429345526,-5.920896335399607,-1.8484040909619708,-7.325302375588325,-5.11591253792916
107,-2.3723473471445535,-1.6709478957031336,1.0171251848439267,-2.3316887788974907,-1.796806101861177,-1.5150904027041654,-2.319674474107531,-1.393057822549105,-3.7364576617052787,2.046003759221226,-0.9843773177185402,-3.262728989194533,0.9264630249160934,0.4576939262067973
108,3.2841152124002293,5.1319736416290205,-1.5153252993670425,1.9296579748236717,5.041661674132187,1.9866677251621274,-0.7366754443492214,4.210343273452179,5.450923611377103,1.0293779964503,5.7686395562221096,1.8993511450909288,6.585953328175286,4.4146133913542975
109,1.2137971754992838,-0.01513823997217953,-0.462976144283094,2.036232705343613,-0.03304682730800606,0.06477263341071285,1.6936526042288957,-0.17900302414541844,1.091743195978764,-1.2366390323942669,-1.2113912377253766,2.4039827319363556,-3.108704041891718,-1.536779821349722
110,-3.2507370446551644,-4.187922081513314,1.6716190275419085,-2.0946700651867585,-3.808907690915403,-0.7516927743755234,0.6582831025370806,-3.7143601144468286,-5.2057626555113,-1.7920030072461282,-4.335624457499082,-1.3784020609162349,-4.586294662077448,-3.2297213137275325
111,-0.2211540140828837,1.2407512210516443,-0.13461938290599976,-1.6255532417922693,1.1135492949562915,0.6627517167814561,-1.1892882759266494,1.392876982563139,1.4322038548993952,1.2216551787891876,2.657525252628601,-1.7957066133174902,4.270495206723501,1.998950443016209
112,2.9475338728225604,2.8934038549948915,-1.3370157452829607,2.2634709814551712,2.34702358436156,-0.6271550972553697,-0.6790741541233439,2.5865801977276552,3.5736385730414164,2.4109844544859125,2.1581856531801082,0.518758613437898,2.012298001624219,2.002972318790819
113,-0.650313036886827,-1.971057720278202,0.4377690947545027,0.9261231737648985,-1.4345777121597565,-0.6433892298409882,0.7744420103981484,-1.9397416444494184,-3.037217594344436,-1.885674249972023,-3.0084913452241926,1.5765170565239683,-4.177128818965032,-1.956719700590837
114,-2.4890456524287345,-1.5497865787480318,0.7353192089717973,-2.2798441430629275,-1.0925260566200379,1.7015966530576485,0.715209969500027,-1.2820103331689294,-1.2182604426983439,-2.490136775887181,0.039692851167455336,0.37577329930607506,0.3484444504523118,-1.0454434423009908
115,1.5161611468152467,2.343773578972785,-0.2702449839930869,0.12336932063241408,1.243332702422342,0.11653519460917874,-0.36319976645448937,1.8061811751522068,3.3718119643886224,2.8826063508979347,2.3800059885157205,-1.7035405300457822,3.083353248106578,1.723637120770197
116,1.8121980360697816,0.29089256417697107,-0.2165022088188782,1.8838365131102806,0.26444016664508035,-2.2164652910972245,-0.7880414364857454,0.2190994494869038,-1.0280029035105798,1.8561138579327499,-1.6585994058634481,-1.0437048326021992,-1.9244045400145988,0.39713206959928876
117,-2.389328496022887,-2.517194799175377,-0.29634034248945335,-1.3652431240938643,-0.8760362444438377,0.5549742213647945,-0.09009130261353454,-1.2269373759425315,-2.6208211465750333,-3.782525469276329,-1.2367389098859616,1.9938433421289736,-1.558315797878187,-1.5879455194189342
118,-0.7759664844949034,0.8997820898683357,0.07976383675832655,-0.8767861280280023,0.16525493941634883,2.163869673189654,0.9832176968035928,0.37459014270828717,2.5246961417018383,-0.5828073923508115,2.4453907643340416,1.3479209594096073,2.5415956538676694,0.13141000737284433
119,3.0976547758494726,2.5511558044127005,0.9824023091646353,2.4429703599418553,0.5848839522725795,-1.0444411252823054,0.5336620624136578,0.5412688932797429,1.348034879741574,4.214964843680604,0.1362887430286428,-2.211066875823702,0.20673041380128948,1.6309559432675846
120,-0.6692443925492103,-2.0836087475077263,-0.42720306419604825,-0.7194157473605747,-0.3794939058022092,-1.7310826351429458,-1.3620752943343142,-0.5111480727976295,-3.058271919615998,-1.064534473491291,-2.525950778192644,-1.302521949678357,-2.4100235176522684,-0.7781813844837031
121,-3.3463257657565997,-2.3853783750612685,-1.4422535556511353,-2.9482972785789503,-0.44641670921435717,1.1711898513173293,-0.835232262058828,-0.030317418198338428,-0.18916829433496682,-3.9648343306851777,0.5278726615799223,2.160851420111801,0.5749620533341031,-1.6990654837272885
122,2.3607369153809152,3.2564051480832714,1.1197836538291555,2.6079184911197415,0.571616365146408,1.187835053549061,1.8857457789381984,0.3803532603365696,2.8546559996782377,2.7251014813735464,2.2594819809064846,1.0421041511083506,1.9556579999910841,1.636506858135877
123,2.882094849278567,1.9074154142676407,1.433564405296494,2.615877254111024,0.38084460208853665,-0.9297018960323479,0.8623124076688358,-0.18944042124146174,-0.4439897587161429,3.009365597435705,-0.6577481393117623,-1.760237640854372,-0.7097786108603449,1.5319156416793551
124,-3.929947473314741,-4.3005376790752665,-1.8526402887176885,-4.302694651818268,-0.8328107575606872,-0.7725817167866668,-2.40407456988865,-0.22229905115433315,-2.38922302617499,-4.042071817046569,-2.01853680362451,-0.7516375319061818,-1.600383663744696,-2.572286753741211
125,-1.6574238371846972,-1.052461294000849,-0.9297566425220285,-1.4611281843147994,-0.2483303924499323,0.44881919424098254,-0.5742744446396952,0.17841302066478615,0.5099607611309125,-1.5052934977730554,0.417498420228148,1.0592381752452367,0.40053195402963737,-0.95182351072729
126,4.933722134989963,5.015575840152601,2.3064942863354134,5.310663489164709,1.1224530583652377,0.6203825714575185,2.7199836793910492,0.2030707476580605,2.1096480597775584,4.745813127245252,2.0189938943874775,0.5874870247975724,1.5921253282094199,3.293950436673276
127,-0.09801618145291145,-0.12377015973552735,0.12337427434959225,-0.20407850858164164,-0.04482873111821606,0.08351577911516919,0.06629484312388456,-0.102924773210239,-0.2843927308583723,-0.2597964840542696,-0.09190960808728182,-0.2116083459698066,0.010741517245309078,-0.007284687557536532
