,AF3,F7,F3,FC5,T7,P7,O1,O2,P8,T8,FC6,F4,F8,AF4
0,-0.5936691071830729,-0.4795620473752334,-0.5878292983305533,-0.330102608078744,-0.2626988231953838,-0.32079077829595054,-2.644914785135446,-0.1412145617721017,-0.6102019226293054,-0.7792485935757297,-0.710519320339067,-0.8753980520738346,-0.7011249715366176,-0.8699262736491803
1,3.4294011347784736,3.279801413220287,1.7222664253157285,0.9077776364379716,0.2150733516972915,0.11225833141612092,0.6430457926012386,-0.010949105727120772,-1.0866302867397282,0.9361029108588171,0.5241165440831915,0.7518059026880614,2.967663605548245,2.624527245190804
2,6.0930653550904905,5.666024040150223,3.1901817312700285,1.8001073403621421,0.560297074843882,0.6776807774757039,3.6577090465845665,0.14136008958230997,-1.1280702621175411,2.3136376661766356,1.4712020551643625,1.7953220385207143,5.4530035741036444,5.044689460180345
3,6.42629807288503,5.729695180459327,3.208580643694034,2.063108255818069,0.6488535210195762,1.3659001575439282,5.592207800876706,0.2863869876585124,-0.607836856434963,2.950704432573563,1.8044889261918524,1.7768912451663883,5.8543989612805944,5.553557509331423
4,4.310956858800381,3.414450300796968,1.7633216192286671,1.630632073894846,0.4606010178424135,2.0267066525151205,5.976806529874474,0.3839385607354174,0.363973261679151,2.692848980319142,1.4443204230136035,0.6915105570391725,4.049487140968492,4.013391354179326
5,0.5216325055785032,-0.4178121251206768,-0.5575889015357008,0.6727013659223977,0.08501147851799093,2.4069600407328013,4.8144060363902375,0.3957024211912626,1.4697526393889888,1.6788635894862165,0.5825110878383711,-0.9832335499415671,0.7343178728640203,1.0272351688376384
6,-3.5560533537452876,-4.306917976878554,-2.7914920542831956,-0.4669341548698387,-0.3150388427542538,2.256454887672528,2.567170229795614,0.3017523764826679,2.2998972897523116,0.2872041756255407,-0.3970962091289132,-2.474535589048065,-2.8373561443243824,-2.2853354084605497
7,-6.425313971744968,-6.739726475789951,-3.9781879727951623,-1.3915827133960832,-0.5673142991862505,1.4564201739492937,-0.002705425255522761,0.11364338768905415,2.509943021448482,-0.9983415995092907,-1.0724110200825523,-3.027949048284475,-5.319072429980861,-4.696276644052717
8,-7.015188668347049,-6.7174060389259855,-3.541986405217351,-1.7882394049913322,-0.5577070889470004,0.1105206658038791,-2.0878179465026387,-0.12275794120446074,1.9574785544248843,-1.7579843012534584,-1.1527620525827362,-2.226294062155012,-5.769605032537575,-5.31348426050279
9,-5.062227709176456,-4.134202198128708,-1.5313663688395405,-1.5328491364811818,-0.2756223143456729,-1.4494103362068438,-3.10323470553576,-0.33797365596792917,0.7645183122869018,-1.7815930748620044,-0.5990652434387754,-0.18819879022342753,-4.001114742200886,-3.901890673966708
10,-1.2026193253808628,0.17163386792448568,1.3775243457483566,-0.7287847106770281,0.17984447312620003,-2.7559380460743275,-2.8778615235813443,-0.46087973351543254,-0.7197356014837218,-1.1391412065057782,0.3532026971914135,2.4361635791419585,-0.6504680851586019,-0.9668870895172407
11,3.2539109368864936,4.712122748789271,4.117939167720378,0.3330911395211506,0.6352798118021677,-3.36741865272325,-1.7032779451058375,-0.4445103537526715,-2.0416347606673972,-0.14991328302186802,1.279704333161942,4.67891431190488,3.05139095066622,2.428210630762135
12,6.783281347617482,7.879669857135501,5.623457924316697,1.2772427640172832,0.9067287603093911,-3.036837866171758,-0.21988284060861782,-0.28579228332327755,-2.803849703106794,0.7399241476085463,1.731650021104721,5.60475531243797,5.72685592472559,5.043471808584103
13,8.1735177356969,8.519145364859138,5.2277497797870645,1.7726099199937306,0.8683001846044928,-1.8195812445873716,0.8249064626606972,-0.030769164582266643,-2.802413912558984,1.1284612947123118,1.4179158208632425,4.670588996961424,6.352586450570612,5.904984304769264
14,6.933477194937463,6.336085943034654,2.924538764509677,1.6437417921126163,0.5004581025895268,-0.07306249191227338,0.8659643144532257,0.23805694063601424,-2.0886319682274856,0.8161254939791976,0.3352768573927251,1.9600159418345435,4.63284413865129,4.651264506317447
15,3.44598994372835,1.9983209811792109,-0.6089262557231656,0.927171664367557,-0.09943004285424158,1.6571404669298,-0.243701850600217,0.4288589712726015,-0.9348869980010137,-0.10804156948986811,-1.2052772085991303,-1.7990924221497153,1.1120820721585745,1.662329046261148
16,-1.1782722252631284,-3.0986701599579134,-4.2342860048972355,-0.14396381134465028,-0.7477843163628094,2.824940180729711,-2.138597565031444,0.4728571581331131,0.27856019864094905,-1.2861914411061222,-2.670639133855383,-5.448461238026449,-3.0113067545724177,-2.070982593932372
17,-5.484527187782767,-7.3122963859378665,-6.740213177600583,-1.219466322371911,-1.235406652726129,3.0755737461428754,-4.031946691599827,0.35017253926481884,1.2083773201047556,-2.2142560046759385,-3.486894076269174,-7.77561743979303,-6.301389692051843,-5.287993258309463
18,-8.155072081063231,-9.305522760492355,-7.257506067346804,-1.9473568131506653,-1.3964152729976407,2.369455343419573,-4.974700453325627,0.09927909270076941,1.6665534696402091,-2.426590258713286,-3.2470169853784445,-7.923988988286857,-7.582640754594799,-6.887998306436685
19,-8.42248805675766,-8.479606835605024,-5.5552938532218805,-2.08621798223519,-1.161902966980512,0.9916531661155612,-4.204708037010282,-0.19416118010687897,1.6672466767689154,-1.6781686903861146,-1.8710321436363406,-5.694899325521648,-6.345430215785612,-6.299960526684306
20,-6.2827659357257835,-5.144995489368973,-2.1178455922957506,-1.578972962703963,-0.5811453430191468,-0.5558013155776446,-1.4707013030411875,-0.4258905137417662,1.3876325464603023,-0.05846069464544884,0.33981739679480444,-1.6362691026665706,-2.9212594045464515,-3.6682831772467286
21,-2.4523929053026743,-0.3854962734107817,2.019165271495659,-0.5668487681797367,0.19479532073045996,-1.737481508471256,2.7857657382780263,-0.5094508234711543,1.064007955745859,2.0070067714416036,2.777032627601787,3.1137084702959057,1.6273084857244666,0.20235423289310744
22,1.8974473213380625,4.32236466885062,5.6105107923260995,0.6576434102374745,0.9594471012100122,-2.175206778998346,7.469642149273452,-0.40765063568961385,0.8705855682667021,3.8736563878469004,4.705121263968319,7.176114894019769,5.858510895768811,4.116754787100986
23,5.526135419773636,7.594370044444857,7.60087289221029,1.7410462816159609,1.5107768093466387,-1.7760403288468791,11.104966707708186,-0.14775088730798805,0.8346110055360401,4.87907628253572,5.490256603691761,9.358047458105625,8.421838221170129,6.876848097063405
24,7.495732857009449,8.562556424333247,7.447765698196417,2.373181655614398,1.7056496519548647,-0.7530608459064695,12.275638269899908,0.18554248070254567,0.8253836587085933,4.564459038871424,4.803500944152603,9.01722654234442,8.489260614752801,7.656420402514529
25,7.415005830683825,7.105395522208811,5.266544853136186,2.3740276442147312,1.4940832615185347,0.4649129983501744,10.106665984968577,0.4775335222339027,0.62314510310599,2.8436183970702826,2.733679414159304,6.2492734159599115,6.009033649619514,6.24356318205254
26,5.493880592355163,3.825971038536594,1.7610101046137836,1.739617021610135,0.9264812297642792,1.397886652837959,4.6315652982191695,0.6224547537438079,0.03944287549902992,0.06205427475929968,-0.22528832436719992,1.8438515513371323,1.7078519963078154,3.081417575500615
27,2.4141142685768506,-0.19300772814735034,-2.024317552894023,0.6370033585880387,0.1355968174425662,1.691358166376769,-3.087268075991313,0.5605919381169281,-0.9626736062114402,-3.077584301035035,-3.30801539588669,-2.9678851852527783,-3.1486339704879605,-0.8932783916345355
28,-0.9210197583934292,-3.7592111829338077,-5.038969996075706,-0.6466015945808226,-0.6987786712949063,1.241217640105571,-11.151907079675809,0.30062895395313,-2.202951112150199,-5.705542420614712,-5.691048293172097,-6.887087518667677,-7.151276658665336,-4.550638881805733
29,-3.6659376857255697,-5.937241918752138,-6.536307262023593,-1.7834330362436073,-1.3918676772308414,0.22441607779716907,-17.308191110197065,-0.08093215911509653,-3.3076881071505944,-7.035901748419982,-6.722505760576311,-8.921662365603037,-9.169766312036277,-6.90562432886154
30,-5.252975958618182,-6.297718813095656,-6.263790005899784,-2.4904639474322194,-1.79301734281037,-0.9715972581438826,-19.58868374255668,-0.4635999981667075,-3.8235451788183976,-6.6037744281627395,-6.101980646437471,-8.648139953453764,-8.67265264463979,-7.389162604609015
31,-5.497337518772631,-4.984403429555051,-4.4858315491389975,-2.5981722899857504,-1.8150026744997099,-1.8917134352486316,-16.93309751466139,-0.7222009048517922,-3.3855554078068404,-4.416634671713164,-3.961403400346459,-6.290252838047966,-5.855500101436185,-5.9776904562255195
32,-4.575003171102713,-2.599390263471324,-1.8489233408377312,-2.0870436331296127,-1.4497926258323162,-2.175627578672041,-9.59027422831344,-0.7684112249443704,-1.8789115768802847,-0.9720976085483339,-0.8271917009436874,-2.6049703656758556,-1.5513472888514883,-3.1560567296407203
33,-2.90301658355214,0.03661608134349456,0.8524592835221138,-1.0856572437654477,-0.7694797802596567,-1.6832682277847697,0.8417267188572288,-0.5803872826143657,0.468776215851573,2.8664371128591983,2.5225575203309543,1.373923414969085,3.036048336713106,0.2592494838612482
34,-0.9766272444358889,2.159646403669481,2.925547743916597,0.165959295304199,0.08730238013931954,-0.5421340172161061,11.778016742808878,-0.21043466452744256,3.1073236354479614,6.102685380109813,5.264185586885663,4.64589708620072,6.686935963044915,3.37140939959003
35,0.7786435815636602,3.2837377908908327,3.9651826410360314,1.376356773860246,0.9417543142775814,0.8961568074927082,20.328589429337214,0.2317805069818878,5.3008552756091945,7.882709681320095,6.740997741522127,6.510782121474082,8.500646328113461,5.449613624332644
36,2.097491205897707,3.306079719631552,3.925732683085413,2.2706841386501164,1.6105572979752623,2.172224307538037,24.1105185444747,0.6146052261723904,6.345124527503045,7.733046974189279,6.62593405226263,6.719061635290526,8.117923779607466,6.10174207872132
37,2.8919456805844703,2.4776750053410974,3.070994840061458,2.65123252017844,1.944983574873929,2.867760537011027,21.950092455005517,0.8262463672101564,5.797829230721235,5.692570066959844,4.993576184942654,5.474756036331388,5.77744345625382,5.334283282271996
38,3.2065703329817117,1.2654847557459408,1.8342520591276799,2.438252850443111,1.8655577897086872,2.7383985263695676,14.256937578028353,0.8090347614093363,3.6454716650934875,2.299767178869647,2.286156295118306,3.308617643938822,2.2048897261741733,3.4975372141109107
39,3.1423780457552803,0.1633136531510076,0.6461521479586924,1.6840212191888169,1.3836060697900718,1.7898733092817283,2.945745204046636,0.5750234953424964,0.3469366312289584,-1.5605364265982196,-0.813332210385706,0.876983589774173,-1.6200130445684975,1.1469409619035784
40,2.785975845360424,-0.481185891348455,-0.20793922985046107,0.5589099739770781,0.6026817020803369,0.27629704930874915,-9.081726916910519,0.19858471646741893,-3.2685807226704826,-4.905744207152758,-3.563911119308475,-1.2421864489142165,-4.743415251391877,-1.1291541667102738
41,2.172732225013522,-0.5679691594354115,-0.6561842371562031,-0.6865875447513387,-0.3027990161626531,-1.3761697166437576,-18.744638958491066,-0.21029441112221656,-6.2252406260064905,-6.926265547043152,-5.3549472200925745,-2.6927853605175396,-6.483260014878342,-2.8625387499555006
42,1.2955204421373918,-0.24741985935556773,-0.8192634723689383,-1.7759559149592496,-1.1281933141969307,-2.6952174776204076,-23.63947869740937,-0.5419001557989129,-7.68145607828587,-7.199481427617837,-5.8501754399207675,-3.38774879633102,-6.577471403600085,-3.799364741027456
43,0.15055751536622408,0.16791554645665718,-0.9176507395878233,-2.466367721898954,-1.6888703972484809,-3.2997422254937736,-22.68809884251081,-0.719214669937796,-7.182878005207243,-5.785718281521405,-5.05141206915654,-3.4601531585321608,-5.203852517724057,-3.918530457493369
44,-1.2038288651272768,0.3453440477073258,-1.1485341596860423,-2.6023216456163687,-1.866516839631015,-3.009020090022296,-16.387828272126146,-0.7163570301436426,-4.808354817189988,-3.1814506925336854,-3.2692623313447715,-3.150389088589528,-2.8795946034347595,-3.381839441163865
45,-2.6056767208133516,0.07449594065430068,-1.581705625514981,-2.1519655152458395,-1.6381380521498103,-1.893591753504611,-6.6014903007997985,-0.558359839550357,-1.1612431852874576,-0.14889445077356633,-1.0144025080560584,-2.6794741233430823,-0.2810287808051978,-2.4428364391870394
46,-3.7896386778806037,-0.6408890253443082,-2.114216604216938,-1.2172848569871284,-1.0789931423163344,-0.2549676520941308,4.030369682264429,-0.3047675062532977,2.7943282942108447,2.521058905301066,1.155138085397534,-2.1577550796362166,1.9572392851830567,-1.3502178518463355
47,-4.438215446029411,-1.5741191489753497,-2.500765868705242,-0.013990967076769839,-0.33850961779463634,1.4588330057587924,12.859643916316127,-0.025219103398936724,6.0046975744104065,4.236186554399747,2.7841875842915704,-1.5605419749240106,3.4044178102721214,-0.27869461752713015
48,-4.273455341858325,-2.3528069908934994,-2.448889401470551,1.1765121324156462,0.40332317515493665,2.777646874236472,17.9425888450921,0.22279410659770246,7.624594258373064,4.749752807220364,3.6246754366282357,-0.7747653469496625,3.9142945259998614,0.6930838502998815
49,-3.161304897451721,-2.5955818823959835,-1.744509043586003,2.0734892728282155,0.9854381159431015,3.3389466548279976,18.487505174775748,0.4060320547947691,7.252997983869467,4.185030510737761,3.666808258787731,0.3066162858912738,3.610274382772753,1.5568020409298506
50,-1.1921192318537626,-2.06076861935951,-0.361881648007537,2.4660799257910617,1.3057949605129147,2.9877400287141413,14.930625826896133,0.5148078794502682,5.03794190782132,2.938553700109322,3.094685014801397,1.6837742451209452,2.7909228422063896,2.3184069056746632
51,1.2957102640571427,-0.7544303076899592,1.4839874478763724,2.26744544220553,1.3403991337398484,1.819782788713092,8.657978379880175,0.5527790088100061,1.6220671273465954,1.5048326276095798,2.1887375591016953,3.1869322489831236,1.7960453498455906,2.9405741107894996
52,3.7668083832972656,1.0423692098593993,3.3662621976762086,1.5384449816758776,1.1370012790352693,0.15661000276950082,1.4992053464603767,0.5244963027112173,-2.0508085870357697,0.29094913745439804,1.2140768384020035,4.482179542629674,0.8830656467265177,3.313108961825622
53,5.609491966706583,2.84096026455818,4.753822325568184,0.4727941580629477,0.7879508929774142,-1.5410744498727222,-4.824453428438265,0.42829385368488976,-5.007170765300795,-0.5103369314729936,0.3363579642211841,5.15263886609521,0.1562566192203811,3.2696502889160337
54,6.2974980238818326,4.089256492961095,5.168188146412964,-0.6538271173111402,0.3934831701998188,-2.798914220473388,-9.125621953961137,0.2587302968383572,-6.511872240978408,-0.9457455087855174,-0.40593869382750525,4.833399048995982,-0.43019430521956337,2.6499262011880127
55,5.547706466433593,4.34808180315822,4.342381507414479,-1.55760763670273,0.029234304174277415,-3.2601618787138986,-10.942832232430584,0.017384713320334408,-6.256314513239324,-1.223057821146483,-1.0673142120565677,3.356679377632185,-1.0027722429657557,1.3863809895686625
56,3.4253086782609032,3.442275706666851,2.3304614735953213,-2.022880835426223,-0.27076132092031,-2.7873580991567217,-10.484604314978188,-0.2740731885117612,-4.417841302618704,-1.568641962292982,-1.7189475972428447,0.855635798337932,-1.6656827111098633,-0.41982517267026526
57,0.3595266855654674,1.5353215880653153,-0.47121850782973734,-1.9588502688959697,-0.51086823249977,-1.505866515110499,-8.39468556687328,-0.566666145793698,-1.581732442098897,-2.085565924428494,-2.367470420096788,-2.2155291507011063,-2.4101334917748543,-2.4695504701583273
58,-2.942830656857904,-0.9003362610100759,-3.404739824682781,-1.4200663190570808,-0.7137749503739976,0.22484377278266535,-5.454254324491807,-0.7890329235678913,1.442887447813038,-2.6758171992643143,-2.9084254239861957,-5.163127364893812,-3.0772020942232077,-4.30595304311717
59,-5.6687744878940665,-3.2117653553274543,-5.71619302515703,-0.5847178156767054,-0.8935044659276633,1.9072323579883248,-2.3350247974331872,-0.8657007334844476,3.8543277529570377,-3.0630254973844746,-3.1400328993245528,-7.222980515318584,-3.3949873117736376,-5.423194735131492
60,-7.111674648403071,-4.7549152587574195,-6.761862801275339,0.3022366573223785,-1.034218421974726,3.045061204356622,0.52550863083331,-0.743680922715096,5.069796088512231,-2.909555451413976,-2.8375197130768055,-7.772688574038941,-3.081067501101691,-5.416030986875219
61,-6.866233757979119,-5.086442812668695,-6.1960164378274944,1.003113524147081,-1.085331316099976,3.2882993392660653,2.9169904535681193,-0.41764852410268205,4.861842756193533,-1.9808847782012347,-1.8613082168267954,-6.525242078426488,-1.9735175016729647,-4.123657176168788
62,-4.949329941812345,-4.09788328929681,-4.0839217417929135,1.355488724199631,-0.9770134791570023,2.5416102651029457,4.761663309189629,0.057061641889594984,3.390525690341796,-0.2876010123002429,-0.2547604095152655,-3.6428907120492338,-0.13866272168338017,-1.7172165915308584
63,-1.8094135392683741,-2.050049404004356,-0.9036294962366789,1.3132127856820275,-0.6517508928357532,1.0023048897722453,6.00334322624569,0.5710133133222971,1.132833919585428,1.859068983054022,1.7133125783716963,0.2695580370840416,2.0920603722674618,1.305720386344884
64,1.7817573380597522,0.5027437579177825,2.568301289460365,0.9487599736075825,-0.10034335833981331,-0.8875954896191041,6.543384921995305,0.987378943378137,-1.2627530496620258,3.9099861059931094,3.588269281335925,4.298552557364134,4.180739836025765,4.228313528498762
65,4.927498405934923,2.8742488539102764,5.457981903271838,0.41822926230086266,0.6126081930464324,-2.565464692176058,6.253334284920197,1.181728685648787,-3.1531914892068906,5.244278294726673,4.848063714857435,7.451129554539683,5.5275079917394185,6.298671421292836
66,6.840950818772536,4.443039590466957,7.027153166183319,-0.097318265613471,1.3465278327718238,-3.51448728029781,5.051418518796634,1.082233546541863,-4.06333291670016,5.381794500188329,5.0658872660939895,8.91802616842977,5.658238195546424,6.939584039268962
67,7.051739816514971,4.824560152679871,6.872780326887344,-0.4530684467330113,1.9115670895106298,-3.4231652990860875,2.9977989135138396,0.6963997933310658,-3.7964998999125794,4.163623779649622,4.062277554004111,8.29638114445945,4.393195068763177,5.920947019505427
68,5.527960797320125,3.968594085267595,5.037093288116628,-0.5831867294228837,2.1196428725390253,-2.2879122812118746,0.3544263428057682,0.11428688528782877,-2.4712720710182228,1.8315080064279776,1.9912096342383305,5.7074203374589105,1.9363672909627812,3.440766519023515
69,2.680834284251698,2.157319810507863,1.9970937631778172,-0.5115724800968163,1.845697155660178,-0.42401371674335586,-2.4285983498562964,-0.5141855993442772,-0.4805020720779893,-1.027128350535199,-0.6754923224577445,1.7736319370018718,-1.1511382673476909,0.08693689604914091
70,-0.7478927033338111,-0.08972580744873601,-1.4634627811447452,-0.32925496756082473,1.0794806967319004,1.622250320779508,-4.8056345438474475,-1.0214674731958833,1.6147332483877037,-3.652852879844052,-3.2673105191420495,-2.540054537111573,-4.092594181505974,-3.312364879530316
71,-3.8836972629384126,-2.1704149715406356,-4.463750855841823,-0.14925446327253775,-0.05111728890192082,3.236139136059732,-6.278137486884513,-1.2710397717857829,3.230484416757547,-5.347675961038633,-5.103860509832785,-6.177678947229192,-6.112208024651408,-5.908149845146467
72,-5.947740490758377,-3.5663047484945696,-6.259039121235276,-0.057512369317777076,-1.2968632350400096,3.9225232970490875,-6.536623024264506,-1.197134341747324,3.9108842012293477,-5.6880867527514125,-5.6945419729021864,-8.266687236005154,-6.660522493425409,-7.057376404743952
73,-6.4548169163755755,-3.973021534872804,-6.433518434272679,-0.07907150607073557,-2.343826716660748,3.4605838937276268,-5.550561756649272,-0.8231029886500505,3.4492553095204106,-4.645771271984109,-4.885046759072428,-8.340038386230152,-5.577812325762738,-6.492449587051225
74,-5.329625546072955,-3.362120813128954,-5.0012955350618284,-0.1720354033689585,-2.8966764273620074,1.9754477947317943,-3.574519196259787,-0.25310470344655484,1.9490916155212914,-2.578168483507849,-2.903407590021224,-6.446572816811401,-3.143584023303059,-4.386342940937215
75,-2.913603144227734,-1.9645474861015715,-2.3904353519667936,-0.2506367894875181,-2.765658000921581,-0.09721453837250257,-1.0702107509130785,0.3595852093775394,-0.19325381316066786,-0.09756176582989941,-0.29095569348840433,-3.1227466189422945,0.003477635880523036,-1.2973271393329044
76,0.13563677290413476,-0.18873168690895117,0.6824146190108693,-0.22731220439306377,-1.9310435555506953,-2.1435557390284936,1.4257995601700022,0.8571280784605491,-2.3846164178816345,2.1310159413835628,2.2590223465593113,0.762066924271733,3.0495112681219694,1.9877536740427086
77,3.022322493239593,1.4975421236848412,3.409726760853715,-0.0563024099147123,-0.5635524935854508,-3.5595717533064586,3.441929343699172,1.1205628196082995,-3.9900704672709497,3.591073288493984,4.10281572041066,4.240402788725952,5.235473061920272,4.664616562359236
78,5.019362725030924,2.686891997099268,5.107731157206978,0.23931517428448298,1.0090529581698942,-3.9354194158098204,4.673787885512479,1.0993784006544567,-4.509476878067949,4.048242904614739,4.824493015886496,6.49578282904082,6.062424410942034,6.116983681141088
79,5.6502229790276886,3.124112323425713,5.390190217933442,0.5689135826542592,2.3834328902193618,-3.1779333142448203,5.022034448637198,0.8196480095846842,-3.728155510214941,3.577867967461064,4.337157957762664,7.059864170252013,5.411996044033813,6.06133773693191
80,4.8009526889834495,2.7522915445760816,4.2569238366578,0.8047345685598496,3.1895097969441677,-1.5334756623959813,4.5657133751262915,0.3703163902994155,-1.7966868599209214,2.4887066563904496,2.88074729835215,5.909259191286928,3.5514036652375403,4.596578498342403
81,2.737188339779639,1.7094786187085467,2.077415145647988,0.8307701445623418,3.1963255561782953,0.4943222634804404,3.4943472531676525,-0.12615540178223159,0.7892390967973035,1.1815857649164316,0.9243315395247748,3.4432894503580496,1.0300599647461595,2.1529611890156075
82,0.02574459644732848,0.2835317220731145,-0.5215377210661365,0.5917319725725629,2.3834585258386274,2.3036897166356667,2.033284071505711,-0.5486527541207393,3.3114479592437234,0.001583095641562683,-0.9892584423394892,0.3564338864627254,-1.4923578780896405,-0.637533976954887
83,-2.6162284555573914,-1.1605379253866372,-2.8305302325174537,0.12280208913437794,0.9549397686933653,3.378789834749403,0.39237505852697263,-0.807391354348518,5.026501039402237,-0.8612136316431165,-2.4032282377150724,-2.554475531089161,-3.4292100147979085,-3.1085752431480085
84,-4.505103130411457,-2.2643651154022253,-4.246593336357519,-0.4527300752455713,-0.7114274178890742,3.440704556692196,-1.248606799223958,-0.8616468617759001,5.384437589792677,-1.3914445629742984,-3.061142171677375,-4.594673694367984,-4.407148068498336,-4.718615024648916
85,-5.162004533611486,-2.7556715271569225,-4.427250419315441,-0.9592429541531535,-2.1672850286143626,2.5201755667745607,-2.7249618830419817,-0.7226063140203797,4.204576428538424,-1.6921315889992627,-2.945594396783691,-5.335362167025808,-4.328927842596441,-5.1639001610726005
86,-4.430384033809056,-2.5097403964724987,-3.371456407586646,-1.2266717671598715,-3.020776327560969,0.9337122942020555,-3.8646032562232717,-0.4433202413218005,1.7515628577643796,-1.8863440800414857,-2.239159428361547,-4.699578987143623,-3.353010345663635,-4.424468741379282
87,-2.512587706220699,-1.5814617401397209,-1.409318467301939,-1.1503493984492055,-3.050026454562695,-0.8242315376828317,-4.483169987576793,-0.10072831737442794,-1.318833147826842,-2.026004683073977,-1.2316348299245194,-2.9551112880437334,-1.8105784311009805,-2.741776497852255
88,0.08258742832742377,-0.1995460745520265,0.8939713892388151,-0.7310234483374166,-2.268184399633137,-2.235362035276911,-4.411696655466811,0.2244425969813777,-4.136273834356561,-2.050950375801151,-0.21267532362511832,-0.6235640796420976,-0.09599884603366395,-0.5427480615500999
89,2.6685745101876517,1.280155384523921,2.8932492811536927,-0.07978604152334101,-0.9189134297856478,-2.9090777591889507,-3.553661521430954,0.4651022026288423,-5.867777189152051,-1.8174143923690051,0.6113995252086776,1.6657996428499202,1.4325517913800798,1.6657812846590976
90,4.555273497408998,2.456970694621706,4.036608577558931,0.614931910342649,0.5976260592558785,-2.687427850723939,-1.9502292450068033,0.5796568069136496,-5.9709786653032335,-1.1833449124789457,1.1521161529458868,3.338030235124428,2.5174975622849964,3.4067734692035936
91,5.226910267670593,2.987927937513877,4.011920068886421,1.1474015181168127,1.8462361192859105,-1.6771253482625408,0.17718758851006766,0.557329882059366,-4.36964405630888,-0.11147649962326661,1.4219575894458079,4.010362411222997,3.0245486548690033,4.3258300498712385
92,4.479599579872285,2.6860488145275965,2.8290124209034606,1.3608778735211284,2.4878872357452018,-0.20562230219235345,2.4345688430828667,0.41727689959661496,-1.4926503579134758,1.2592721655697796,1.4838105799075456,3.5748828764117193,2.9331011100942432,4.253498668795268
93,2.482843152048813,1.586184639017255,0.8163938232918009,1.1970793222424208,2.3792446841065864,1.280485013112362,4.324798940094536,0.20244788679472592,1.8416431758279734,2.6130834733852186,1.3957341398414504,2.209987886645139,2.311969388596529,3.230653691574172
94,-0.2537274463917375,-0.04534902290058611,-1.4667768453941585,0.7120923508526683,1.608985272568247,2.3431451081801615,5.367952108207386,-0.030614548832487317,4.66490806443919,3.5385625436282697,1.1781581439326028,0.3220120480900311,1.2961499735078823,1.4960585806166076
95,-3.004310114170856,-1.7677836039506045,-3.3809500211746837,0.05430431865970903,0.45998918896285806,2.6719203035651797,5.240013406163938,-0.22458147167918183,6.150512899184241,3.669028555941874,0.8171313207887162,-1.5658294810363549,0.07090198872589139,-0.5610678058285469
96,-5.014048377005526,-3.0807236170138332,-4.379765456527948,-0.5863619116634273,-0.6889585775632782,2.1654606684272353,3.8861522284373944,-0.3347332815889624,5.8665302669532196,2.8311686312899966,0.2984102749646901,-2.9489822974519506,-1.1415722496908167,-2.4774512089492196
97,-5.70327050774314,-3.5683786817816423,-4.161259435502612,-1.0389409929827826,-1.4882767837711575,0.9576859626977564,1.5677455951686918,-0.3402132811405442,3.909388181750243,1.1424540836801425,-0.3485617090505787,-3.46885563298513,-2.1037694135184033,-3.81099444266859
98,-4.834693843889691,-3.031700509645442,-2.755806458831185,-1.2005282151020704,-1.7273704217502701,-0.6157692202405943,-1.1799895711901327,-0.2500071788832905,0.8743505854618365,-0.9877691342949334,-1.0233717085079894,-3.0017299099438337,-2.6013635826403045,-4.239434708962649
99,-2.5951503190291585,-1.5658223418709434,-0.5254822563200445,-1.0586911685764737,-1.393122938001822,-2.1026381232079023,-3.6757515923196253,-0.10105011189360968,-2.3289823588335774,-2.9647686225199754,-1.5635509191738672,-1.6881032465969261,-2.496710067321925,-3.642095568383035
100,0.43685651981332735,0.4469133359127998,1.9276455025569317,-0.6828704391845699,-0.6596777064950201,-3.0517739784170916,-5.273264135567647,0.05230538795179182,-4.757907174853215,-4.1928017988628365,-1.7923514315015514,0.1049813320036852,-1.7824220479427169,-2.142754158600699
101,3.4364728592952765,2.433851177966442,3.922312331007695,-0.19193596485620562,0.18374303823994434,-3.1369710373542103,-5.544170235115666,0.15537180435206285,-5.724983514028477,-4.275427299982612,-1.5888079890954756,1.880264227160669,-0.6113670624117407,-0.09619694258794871
102,5.556672922691951,3.7957768198740474,4.886174755161332,0.2874327829961122,0.8391490287784091,-2.256627731253294,-4.4071344894004305,0.17179471166864257,-5.001942797064796,-3.1594390849571625,-0.95049004889642,3.142210707235851,0.7188514567331833,1.9870640342688821
103,6.171267237461238,4.090718214063424,4.520012925071151,0.6558715054059158,1.101820065090095,-0.5812150364390747,-2.1613091836225995,0.09730908391595182,-2.8757100749381013,-1.1669210000666683,-0.018832695746636523,3.53146153227339,1.8351640361420063,3.5661252775447334
104,5.0662133754718965,3.18056638741993,2.8909060983730206,0.8594601561323737,0.9230560010841826,1.4700735417890258,0.58984523419341,-0.03705784147931238,-0.041969228674141316,1.1012447353391341,0.9499599292364149,2.9262016763914733,2.398810482104709,4.215565221648757
105,2.5187770962548006,1.2909123568001573,0.4248484274809714,0.8888850064707888,0.4142459783277782,3.325713354050418,3.1049492721193737,-0.17464137046409967,2.6252645767038665,2.960224443532015,1.663506729253848,1.4814702295955757,2.2218255192631897,3.750839675321478
106,-0.7661643803691414,-1.040865396075109,-2.203628768120765,0.765602016622969,-0.20538325276950295,4.413026940239334,4.713479954731213,-0.2532054653163261,4.350304183550231,3.8671170924753846,1.894631364504139,-0.40751432803258814,1.3465759953466971,2.292618741476734
107,-3.8514061299677778,-3.1194603068078837,-4.2576464979965385,0.52500408898229,-0.6951937545457048,4.326848439694844,5.005119377502246,-0.22866276373330047,4.68843459356077,3.597808457105141,1.5667740700482948,-2.2115706458277162,0.05192676621346242,0.24409341058674386
108,-5.841129633656393,-4.3035976233220845,-5.149067397747967,0.2054241948323572,-0.8808032117531838,2.967420310651388,3.943098394383773,-0.09366722994855657,3.642255502043842,2.3119289213841983,0.7882703654137073,-3.4163535587861147,-1.226399123136504,-1.8188707700593567
109,-6.151789277706496,-4.210424868238322,-4.6132737404151625,-0.15343934759991965,-0.7117015708617536,0.6018105016666249,1.8679863821233973,0.11640523844504123,1.6307993639773175,0.4840991456963312,-0.18099081946732148,-3.6722254618653523,-2.0408959473614905,-3.3156814054087804
110,-4.695132763576517,-2.8453529839619107,-2.793884035401033,-0.5055214930502409,-0.2703395277638772,-2.179141390211504,-0.6081174987311523,0.33322098454094173,-0.6697486692658762,-1.27109474901134,-1.0204478656604994,-2.9004119215000457,-2.093778544353463,-3.8360110468566933
111,-1.9121607191719947,-0.6115023232475255,-0.2081712999944246,-0.7940111848972708,0.2670960631530014,-4.606885010228322,-2.783794204592054,0.47826431367619626,-2.55413019652315,-2.41449558873692,-1.4636755344920096,-1.32112624775768,-1.3542129369670357,-3.264999647849307
112,1.3576441017474725,1.8092166959319949,2.4007431459957695,-0.9548987712914233,0.7006058166703308,-5.949772608498314,-4.071250239209537,0.4907761355697149,-3.5068925553798285,-2.659283799519491,-1.3930580314943728,0.6082726194978442,-0.08261053105446226,-1.8159462578776657
113,4.134294236246118,3.6687242882095523,4.2832070170353775,-0.9315234718990413,0.8795729413935013,-5.735959666107676,-4.159460905787486,0.35072027142660706,-3.342901523456016,-2.047639218891948,-0.8776293134752116,2.32900041271707,1.2537391208718325,0.042032785431495884
114,5.6018693761062055,4.391536829415788,4.907812574512049,-0.6966514951643255,0.7526769024545974,-3.9154048779371102,-3.090743902375935,0.08818748294244945,-2.231503049561946,-0.905242790195813,-0.13983765148784671,3.3497313887763953,2.147593878265594,1.7379440685543106
115,5.361508237124972,3.7609796718820228,4.121411004844192,-0.2729803458786207,0.3784845068500934,-0.9047916064762054,-1.2315564851293017,-0.22450270872576444,-0.6075905932414132,0.30174807986153107,0.5346602366069142,3.395524559809004,2.2410949316320576,2.782455832339768
116,3.549896158592746,1.9897516289639083,2.1928348529537924,0.2588247625918028,-0.1037377028090472,2.5079014567938565,0.8493218626248891,-0.49544979537719136,0.9906993805735392,1.147634449733846,0.9075931826231274,2.4887025460745034,1.4655698227726306,2.9187499267854897
117,0.7843165602329397,-0.350258624875933,-0.27473642315270447,0.7720966699250158,-0.528966174228536,5.3788786883124935,2.554999612286049,-0.6427103494248388,2.098192262755708,1.3960791377166808,0.8751540539793236,0.9352751364571961,0.07626050549227895,2.1905629302670664
118,-2.0465200747956165,-2.5162918996614443,-2.535232784654065,1.1261461296101913,-0.7650732050945855,6.883408980157603,3.433147399204574,-0.6205358711351361,2.4553213975104815,1.0641474159740465,0.49832506839284846,-0.7781771971871645,-1.43446783575504,0.9074623810799489
119,-4.074561874375506,-3.8378620537693715,-3.9331142870643,1.2095537418901918,-0.7540485605206678,6.566409617855048,3.296423457342246,-0.4335284182774466,2.0605154093961544,0.3849548269605485,-0.03289545888423575,-2.142190225419662,-2.5151310343841975,-0.47583567497007445
120,-4.728600896001005,-3.9324266629458657,-4.102936067535203,0.9799365951741984,-0.523255625762683,4.488447970574368,2.2582786104245947,-0.1343897370404908,1.1359685278307257,-0.30752113982216456,-0.4838072522827297,-2.7836896231667754,-2.7581982559497322,-1.5198154805056565
121,-3.9027642053753677,-2.821125622934074,-3.0708937015282896,0.48474665187412247,-0.16640266486695737,1.2173198268635168,0.6788759750581972,0.19332897298689047,0.029012989230032708,-0.7199965538669417,-0.6716140991757307,-2.57439626151006,-2.0516369259908083,-1.9424453755131705
122,-1.9645326917003572,-0.9074551255122799,-1.2277157302592874,-0.14664744236773328,0.19528251429504837,-2.3361283262514467,-0.9569945813968328,0.46117487008434765,-0.9111298850815843,-0.7106626563570341,-0.5350061170393363,-1.6546814755967174,-0.6216625397404418,-1.695756906708624
123,0.3937230429733689,1.1701676901485643,0.8139845533455641,-0.7392271099972857,0.45562395525263694,-5.188578616935611,-2.1892124201348486,0.6017203540065937,-1.4391533724688765,-0.32912571689386655,-0.1505096461232923,-0.3692092374459302,1.0490289653858336,-0.9557873702220638
124,2.4018711921493843,2.757589797889009,2.4262742940346307,-1.1258833313616534,0.5547778551186435,-6.576408115917334,-2.7126379917915586,0.5864312825537643,-1.471498925378123,0.22330303868127355,0.3075720760369827,0.859050158597085,2.3959243713727774,-0.0373201653536858
125,3.4684463005540156,3.3983903837250797,3.1650310843283367,-1.2002197384409021,0.49044037943943686,-6.17701744289326,-2.4512090173807533,0.43069611136209757,-1.0853426158430588,0.6897976887384151,0.6438671059134794,1.6702171514907773,2.974041785506109,0.7294782301145701
126,3.358471949386431,2.969268078406603,2.8959558394023652,-0.9501642236745254,0.3086040759123462,-4.1902085924652415,-1.5582988216224716,0.1857138722387676,-0.4681374488899409,0.8674393985440518,0.7220482917553921,1.8757028084420733,2.6111481960613303,1.1133762322809773
127,2.237453696133158,1.6956128284941263,1.81012286612325,-0.4605107053423647,0.08061556508311758,-1.256925317377076,-0.3495214036013835,-0.07898398781455324,0.15857012333151277,0.6853130308963289,0.5159607535881288,1.499507482110749,1.4581583385570447,1.0481210754854349
