,AF3,F7,F3,FC5,T7,P7,O1,O2,P8,T8,FC6,F4,F8,AF4
0,0.08456003749916914,-0.36274949354542413,-0.01072390287175936,-0.11951497000798426,-0.0026446325487278015,0.9179072828695839,0.8444389038959371,0.4159947244672158,0.02491738623477166,-0.33465293225642273,-0.2029088446813878,-0.13751462502446213,-0.39776616227558853,-0.08032678957737009
1,3.8124277615492232,2.309370857336474,3.7278614394881475,1.4154766600316633,1.3535859590106205,-0.45740865433340017,0.9659402249175217,2.4546128115421557,0.5559537705107928,-0.4273893930903064,-0.21657046374234135,2.2400231496998257,-0.5509709265934722,3.143385514237771
2,6.412091171848675,4.384860588161779,6.557442638274151,2.5329809504478424,2.3098017243221314,-1.5810433811620652,1.1845128745439906,4.192533792035902,1.2798612460170036,-0.3404071453658046,-0.1564840286624998,4.041478358839237,-0.6727312301446055,5.414423098481098
3,7.08579766844481,5.310599167633133,7.7352521126735665,2.9118281326839126,2.5832616385596006,-2.064270425072393,1.693870177422727,5.376391123952486,2.1996346495202186,-0.07653642323234087,-0.05708931486856605,4.761274304980765,-0.8427069363058217,6.00322915746778
4,5.61274261038305,4.8223896443089025,6.942032222262872,2.4531190927886573,2.0991365419290697,-1.7231671952170344,2.4798826660229776,5.785501862921778,3.141603106306232,0.2950424872248952,0.03648621653630929,4.191209160028224,-1.0847829899074486,4.702106374227827
5,2.417331747645444,3.0221654842589674,4.370646613646041,1.3075401623414638,1.0112571516870423,-0.6468197933160476,3.2933519595724645,5.271636305622959,3.791706998779566,0.6624000790327944,0.08752084438414973,2.4830191673318223,-1.3413188005278496,1.8917191541459304
6,-1.5579924629266215,0.3633429783337848,0.6784801919198166,-0.17461949646808708,-0.34813569308870296,0.817811445981318,3.7260733185653656,3.8104055669427868,3.8039544741985645,0.9092477573947993,0.08299242699785568,0.10754510788204628,-1.4830118563277521,-1.5762037956843995
7,-5.135902357660169,-2.4566761250793743,-3.1844685729611126,-1.5536995515586796,-1.572701096026596,2.1647236869600506,3.366353418006502,1.5459919374571975,2.942177998733755,0.9534723209773237,0.03845177059859441,-2.2791209158946892,-1.3546963041539228,-4.642360146012313
8,-7.2563351500506315,-4.673785133870677,-6.225744433381008,-2.4351849280075664,-2.306638974998187,2.8856786759293023,1.9789413191062066,-1.193681980003383,1.2008252735602596,0.7718339133939405,-0.010144653178036488,-4.023916559167131,-0.8432092135003758,-6.366328655710372
9,-7.2904989805468015,-5.661040284521835,-7.6713278336072905,-2.5858442769332357,-2.350372563437909,2.6392276369121337,-0.3575368286708965,-3.9289686994402224,-1.1443998496675687,0.40306224991778383,-0.024731416665376406,-4.663731274123445,0.05712284452682795,-6.213982805656468
10,-5.222720912180951,-5.105592303072449,-7.167026045230629,-1.9962204301407758,-1.7151637244694302,1.378928295067871,-3.2107877857505724,-6.111283952194358,-3.581343966631631,-0.06946558210788348,0.014182170356860604,-4.054932850149935,1.2083106045833363,-4.217506217758345
11,-1.647855656288914,-3.1085509248732666,-4.866751205301433,-0.8726620696722851,-0.6117166580737616,-0.6034502325608924,-5.876429235806935,-7.242331851646335,-5.49299014777522,-0.5464589969352782,0.09409885082860284,-2.4068205690581252,2.3412682452181226,-0.9607285946588057
12,2.411255066857055,-0.17529765993186863,-1.3852032634901676,0.43501362639033464,0.6209650508326359,-2.7405018195508335,-7.564165876742428,-7.000288754017012,-6.335610543944214,-0.940395176942728,0.17181089987050363,-0.21012310737433737,3.120729486316289,2.6025903548458795
13,5.807835590605377,2.907830850348033,2.370638145595331,1.5444926271296262,1.6219424173453763,-4.346450348514935,-7.635681258755361,-5.336983358454413,-5.805732976503326,-1.1918696974177578,0.19083595401136186,1.9156045929481484,3.2469824946328862,5.438680498197584
14,7.603600286780701,5.282472640295984,5.444298762044459,2.154542450870652,2.115773499204772,-4.827066044786212,-5.821426246355742,-2.5151238707114754,-3.940964550181395,-1.2709406767309768,0.1090239451584218,3.4068671988549735,2.563182248126228,6.741337925689473
15,7.330892204564244,6.258045671857899,7.080587453797386,2.1268466731300038,1.9884540834053406,-3.8799108403387073,-2.3462064662251407,0.9300686762003867,-1.121639438926922,-1.167614147151556,-0.07535154469734771,3.9156270313210713,1.1309118299966772,6.16373200256748
16,5.11020965731163,5.514880936617468,6.916943692979197,1.5139550349089586,1.3109355784455967,-1.6203014989383129,2.0817618676270184,4.2995586651195445,2.0268034460344384,-0.8809375674286104,-0.3117699623407659,3.395317988474619,-0.7565718006041223,3.906971747967218
17,1.5944875390619984,3.209493802848582,5.06516494404762,0.5292699280425007,0.30662946845518835,1.413590389445684,6.424208181443914,6.884270856547562,4.798723081475493,-0.4163877793969204,-0.5080337801132139,2.0906514959559908,-2.635567349398827,0.6437498016869381
18,-2.236097282897364,-0.05383298547377109,2.064133510228572,-0.5272138555445951,-0.7234718202279786,4.38863785589703,9.572159544110189,8.125768840302497,6.5884655746274605,0.20395104158450927,-0.5624625635911746,0.43995681746100973,-3.9952940263958974,-2.6938634758519435
19,-5.362033753508947,-3.382866907546976,-1.2799660888769753,-1.3616323185133365,-1.4926668435459736,6.408502138223406,10.642395275638146,7.74367250733545,7.032423581840252,0.922320707547276,-0.4072299402546746,-1.073771551059243,-4.428634571069003,-5.1935278818151795
20,-7.007366663425164,-5.846513663303548,-4.118560768971089,-1.7684929786687729,-1.808924577587827,6.784620316245975,9.229052339087714,5.798910600538292,6.076170298006001,1.6289091658954142,-0.04592690728382141,-2.072518095918488,-3.763219203895817,-6.222534397065562
21,-6.836259520556445,-6.742050222783933,-5.786261987264735,-1.6793687077581179,-1.6211145823196027,5.264201835955041,5.538541288657821,2.679207198795755,3.9573396409602943,2.162624296618274,0.43168517708660176,-2.3857283082005836,-2.128707007012037,-5.592239348283046
22,-5.012419143725329,-5.8011780338217305,-5.964274126479546,-1.1672504941876287,-1.0206419862552705,2.1403804870436853,0.3663145507109057,-0.9869442115557336,1.1223559462576918,2.339224578844272,0.8678748609589815,-2.075995031596105,0.06577503242904821,-3.583375435894079
23,-2.114500879298573,-3.271865350340507,-4.73868998772316,-0.41006774416584096,-0.20230858560900422,-1.7983294040746987,-5.083728094672168,-4.464937084391463,-1.887662902357863,2.0061924671444356,1.0863383861970013,-1.3853274861370217,2.242014236164546,-0.8328730854176932
24,1.0563305584312035,0.1504639440987722,-2.5428769862565654,0.37132436772112765,0.6000492093767068,-5.474047948167186,-9.493746494423974,-7.065218474652946,-4.544911867862197,1.1100990682188054,0.9582392590515619,-0.626016194771526,3.8198531259703596,1.8753277223943403
25,3.71156651942818,3.5230249342760356,-0.007842575107193078,0.9794376114799459,1.1817723910369715,-7.826155562388313,-11.765274104054077,-8.278435333734897,-6.4125227628629515,-0.24852355561575254,0.4614905035809793,-0.05774482672444257,4.389804671345256,3.8463086469834002
26,5.281301536845603,5.927154434640786,2.2289986590247572,1.2905892453210346,1.419335353850141,-8.128572063213964,-11.304152688048172,-7.869124447168278,-7.186972018527489,-1.8000648522851004,-0.2910878322861883,0.2042529480045218,3.8357929556298096,4.663845923487287
27,5.534803249354854,6.729256068480049,3.696184999937257,1.2765273768414562,1.293135141026557,-6.219596938915026,-8.180967276197379,-5.913921086511294,-6.71685435350077,-3.1486554503535653,-1.0707718644481643,0.2173885046515261,2.367018891310448,4.279348522610236
28,4.5912072617304425,5.753141455382347,4.190858257576661,0.9947541708525818,0.8784357763986377,-2.569343184740096,-3.122649237978325,-2.7822956930434777,-5.015202552906533,-3.8721404651503075,-1.5994108504059388,0.1671974163837041,0.4468183525468963,2.9805312418465983
29,2.8320285280184705,3.314331657361184,3.7869090203011173,0.555268555940106,0.31154564377214,1.8417387688285838,2.6646494060849832,0.932442381471477,-2.2752206216578834,-3.6555210316309323,-1.645529784623814,0.26815543984794843,-1.359350476409529,1.259620438520739
30,0.755921935972085,0.1108142825377038,2.7572592082381724,0.07816194571024133,-0.25536678418189346,5.800798120961746,7.796146036462086,4.5181123888353145,1.1163806028164767,-2.4159712963647224,-1.118162125489177,0.6492962815711306,-2.5665554089505727,-0.3678862646315646
31,-1.171244661088254,-2.990688026195888,1.447897159235609,-0.3422448665232417,-0.6960347760085815,8.214281996371202,11.053975963902493,7.268276895009871,4.5891736186977985,-0.3721965177321474,-0.12251592546785492,1.2718569163833429,-2.921686984150232,-1.529545536125464
32,-2.624129988725449,-5.203458046364285,0.15527128597275783,-0.6553369440381026,-0.9369960502199162,8.426137102313417,11.687478327308497,8.609636110014684,7.447271883573173,1.977206228144159,1.0493693849150745,1.916511969886971,-2.471067478730117,-2.091583964637468
33,-3.4578009764014617,-6.028407195265152,-0.947458821770621,-0.8509021233725209,-0.9645923759839617,6.4050609631718025,9.591200673506814,8.215101042120462,8.990282508426326,3.974291625212959,1.9991895926035628,2.2528504753569774,-1.5207912949676279,-2.1554701974465416
34,-3.6816240350030647,-5.362724803861338,-1.8134780777582,-0.9400482731588069,-0.8140232156885056,2.7445702616077745,5.3176334946836965,6.084685764426111,8.68607366212917,4.994179835653743,2.3542949577824492,1.9716329798061172,-0.5046497082057217,-1.964172646785987
35,-3.39256922773914,-3.487285525444255,-2.4644949591345737,-0.9319268129892293,-0.547681391523253,-1.5213516381941614,-0.07371657733702533,2.5759377154388226,6.354443225997709,4.652062078795802,1.908727986643085,0.9326394234793737,0.19105156308703727,-1.7606119936065319
36,-2.704587788873926,-0.9501824307015742,-2.9084762559595525,-0.8189569298629341,-0.23204460704620683,-5.227036216015864,-5.287112953075309,-1.6319594268888553,2.299195355583018,2.954211563136631,0.7216745597544659,-0.7312510437163701,0.37909296813782173,-1.658983579105297
37,-1.7063964405495227,1.6063609565680805,-3.0796993124452445,-0.5788611456996048,0.07901861421844063,-7.411478626094657,-9.109085507320916,-5.648084447282365,-2.6746319525911106,0.3334648326526781,-0.8694159216506534,-2.6033063744606477,0.13985724150567674,-1.5848208180095766
38,-0.4628046395881356,3.6175169873172197,-2.837189101260075,-0.19365017528467632,0.3505744722988064,-7.580232748834836,-10.694519348524956,-8.5460024148107,-7.395926833189905,-2.4559573547288367,-2.3372486355217856,-4.0846399721997795,-0.22238888893597628,-1.3126136052814676
39,0.9478124810227385,4.717251897636272,-2.029859758437154,0.3229575744270607,0.5633123431289333,-5.817949932679653,-9.752887897649606,-9.578162790360182,-10.60511196288258,-4.5617823956254115,-3.1345830732053552,-4.585852665329834,-0.3214339492421859,-0.5896777322982029
40,2.3857657673935426,4.785242892185518,-0.6032610605092649,0.9036546408512642,0.7050274731548555,-2.726102035279244,-6.595309512795744,-8.380713597582625,-11.309934510666624,-5.308150525753945,-2.8922878136930477,-3.7480853856385123,0.12477990038385584,0.703286437790641
41,3.624640827045602,3.9231955968991636,1.3018391690937858,1.4248521101297804,0.7628241489038485,0.7845771938273484,-2.038348510439227,-5.110620242009363,-9.114455192344057,-4.429756687208711,-1.5751605349524733,-1.6136250854601848,1.1391414215407225,2.4254747037879913
42,4.372822331906344,2.385910628296604,3.3131154161564025,1.730336508006542,0.7209156169241436,3.7747026731382536,2.806043093398723,-0.4633096344425027,-4.407486389414926,-2.1809282829853815,0.4672076071468394,1.3248956138200019,2.4294889485887623,4.14733368060672
43,4.346603999959819,0.5003005695168035,4.886863083126468,1.6778906774352778,0.5658581426432945,5.540294022418732,6.800641470727902,4.455244657194229,1.6716755347235788,0.7269201936064891,2.584945657940942,4.2308995498694815,3.4652001767324534,5.250589280699816
44,3.3753485516990995,-1.4008449576948856,5.461267020579708,1.194841287032712,0.29725002870284967,5.782700831432423,9.04847352557511,8.387570046538757,7.506587372486551,3.347933201778721,4.030945970444212,6.166489255693811,3.668930585453404,5.137330555741955
45,1.500483557244986,-3.0190263570506866,4.658016614564998,0.32209196803281165,-0.0611596947009613,4.6424855951491315,9.093064665686894,10.256635468889565,11.452508831571052,4.8150984642804,4.219794740248019,6.400005816195621,2.658141662368962,3.480109147536542
46,-0.974918285061826,-4.109065876558976,2.4596151057564732,-0.7728739976905521,-0.4561041431556443,2.6014803380071836,7.009773309600046,9.480460437288727,12.330862960887865,4.638383720852597,2.9531744447335138,4.676438845826068,0.4445480811882805,0.4179469002866989
47,-3.5172702513737764,-4.491327238013491,-0.7118413691764146,-1.8247895992616918,-0.8098323586573015,0.2980667848483853,3.3705448018706585,6.172364346961529,9.812111464487504,2.8820174511803724,0.526507897243887,1.3520930538364087,-2.4933572667806625,-3.3893636391865485
48,-5.4796202504570735,-4.070260507055659,-4.060586470189452,-2.5379040372611152,-1.0364787981809163,-1.6766769834547892,-0.906387150032922,1.1543382938175735,4.5549539943817665,0.1537165870569102,-2.332064370068571,-2.6658042225075964,-5.308931689114187,-6.8932305612629925
49,-6.278655243832558,-2.862264598325097,-6.62461028471858,-2.673911781217764,-1.0660269043980348,-2.935946403635286,-4.7841719746883316,-4.237535048871406,-1.957572060642666,-2.596621179992752,-4.681827006945104,-6.170302126316476,-7.04005359312069,-8.953361905103487
50,-5.5797862574712065,-1.0227086169956547,-7.568039338450121,-2.1329705761838573,-0.8683042702521526,-3.364522757056059,-7.357306529679306,-8.51285134749966,-7.846827264117209,-4.40296355003615,-5.68155717001794,-8.025752556037796,-6.938427950923516,-8.713596452026538
51,-3.428866207624283,1.1468186529750666,-6.464712817428799,-0.9995778865067271,-0.46815135149092685,-3.088731629579504,-8.064141450792237,-10.45330087279028,-11.404135695973741,-4.621300053235671,-4.8883206535877255,-7.541432426335329,-4.76188913877054,-5.93043525681364
52,-0.2803875182856552,3.2290033063020482,-3.473466735763607,0.46557153628069453,0.055016664276276744,-2.3751665582792763,-6.811528013261729,-9.478986539682857,-11.615147212765795,-3.159943601377577,-2.435940903367276,-4.722401416337201,-0.9194476176003072,-1.1317196249335622
53,3.09795011373613,4.765500313149989,0.6642257825929098,1.889768995911424,0.5850059443145558,-1.5052907766736818,-3.9827005284428068,-5.838869992213468,-8.473550458383707,-0.5181290679828057,0.976793947018197,-0.30712289333416753,3.5965609809049197,4.468110255581715
54,5.824766827120307,5.364382832731826,4.816423392737289,2.891668325054578,0.9994656572827282,-0.6751442134987329,-0.32828561598688266,-0.5587370941044585,-2.9806237643412277,2.383527052371805,4.293622203838934,4.4309528256364805,7.484875857168252,9.289901843705582
55,7.153080765861538,4.812104049099573,7.789987672295187,3.1927502848864195,1.2037043648102097,0.046294482105971826,3.2305028204680633,4.846594111311603,3.1711187560685343,4.522617704171184,6.44000283857794,8.062461347651633,9.535555653316825,11.859022436400023
56,6.691843694578689,3.153657395235146,8.694790282569848,2.701507869394476,1.156378653187444,0.6928152287715309,5.835347481217087,8.8155845950195,8.128700432845628,5.132194380295834,6.68097773479784,9.4444961766207,9.02594835875708,11.275019627758054
57,4.530491993169631,0.7097331125268237,7.224952948269408,1.5427526262999538,0.878421190379529,1.3300819155665669,6.900905257612856,10.204333641209413,10.452792278375954,3.9693642462513714,4.874703477002124,8.084882646608172,5.9771376780709335,7.52600476320412
58,1.2244676491828954,-1.9827867489932465,3.763732566997723,0.02194777361757383,0.4427686591130507,1.97480930026712,6.248322669531128,8.63018719666705,9.551509228542619,1.4006656387586993,1.5324398428864614,4.309746811327685,1.1784512729857661,1.5368933483561515
59,-2.3570864547981842,-4.2964867402428535,-0.7244681129600326,-1.4642442291118563,-0.05035872728592661,2.5430137994254434,4.130220930551418,4.586917790205655,5.838349684408515,-1.724660073647266,-2.338173709176896,-0.8218373508602007,-4.03554000478208,-5.074752797301312
60,-5.276532485351181,-5.672523288393825,-4.98178301355023,-2.542458760972844,-0.5027496693599103,2.8534117556549385,1.1448256768431893,-0.7060435475676451,0.5705075018202841,-4.366992196074708,-5.554972193679485,-5.831169347358894,-8.187054458553988,-10.465602484821085
61,-6.791499623669794,-5.768222536138302,-7.832555969820078,-2.9658329232349825,-0.8413324192391667,2.6889685818350366,-1.9334028465629454,-5.674815010610802,-4.572156579245262,-5.650172323262886,-7.140024395298361,-9.26337227918735,-10.106281690917152,-13.112165949224392
62,-6.557595363792886,-4.550279890943639,-8.52783911244436,-2.6745013050164492,-1.0281009017409042,1.895009132927651,-4.358059707137218,-8.867984279949308,-8.02554487821631,-5.153459427536581,-6.628580513113433,-10.122464244244679,-9.284925694057566,-12.264104828320793
63,-4.710839814682412,-2.3063218721249825,-6.951953805984104,-1.797350431232416,-1.0562351583806369,0.47532777054168934,-5.5945438913592405,-9.391483619461075,-8.822173139452019,-3.0430197216942414,-4.207120765213428,-8.163871019857238,-6.0187467056437995,-8.163626284811011
64,-1.8093455650393662,0.42847498439521814,-3.6315008493927743,-0.599018521129471,-0.9379577046709697,-1.3551027169452716,-5.4366817038095006,-7.167498341460182,-6.864267081022403,-0.003052830263642073,-0.639193237998521,-3.957135496444468,-1.2973167511429327,-1.9649619443310722
65,1.3423824614697852,3.008602915231897,0.44780484141106014,0.6064970137557136,-0.6926412052939964,-3.1893591318125725,-4.030901433181235,-2.9396553159242673,-2.911401040217499,3.002922896873335,2.990174914889059,1.2951481486554384,3.516599993040574,4.616142672933983
66,3.928656901096944,4.840823817556186,4.150668566723052,1.5454979329095602,-0.34216388471583065,-4.523726455423749,-1.8093875346659156,1.9729816807496512,1.7003990398255682,5.0533311594958885,5.621697991055122,6.1207744409026885,7.1082128694698214,9.809009311452062
67,5.344949903347914,5.528232310492213,6.526263822021872,2.04970545005247,0.0846233967720898,-4.904911723096726,0.642173702724154,6.09206601804599,5.506169130196326,5.561248050242022,6.544718602649585,9.208790957502188,8.594546791569629,12.292004905400496
68,5.3438608916303325,4.959086639955709,7.063763523387874,2.0806622330919633,0.5425238031488626,-4.084081450918831,2.741701864502049,8.233515610118703,7.376090932754052,4.4432000995698235,5.593803325741862,9.777009811186316,7.752370044029734,11.542847139543566
69,4.068938086917521,3.3205543397897648,5.798144660675948,1.7130404028897546,0.9637687056899705,-2.1255547943137603,4.049786471229425,7.8568700391134225,6.848654185458809,2.116101993048017,3.1642417518324435,7.770444523285254,5.029267026071343,7.93916130353932
70,1.9768917339298406,1.0384057820127606,3.2471357395293787,1.0902204338774424,1.2625450800919902,0.5713510960687299,4.357408858793504,5.204954236953699,4.235097916908423,-0.6650796606407885,0.05386393202818713,3.8409714624402986,1.3510985407296465,2.5951620544099807
71,-0.31849784492967226,-1.3374616195264981,0.21404963922295797,0.37235497492996705,1.3531512873241955,3.353313286443629,3.706521094836916,1.1968994190586546,0.4754493653724012,-3.0645413284316407,-2.8061392997149026,-0.8735566254883275,-2.1964395458333374,-2.9987887138945832
72,-2.22804086931842,-3.269741405074196,-2.4706281243924444,-0.30454019657564685,1.1777377903835369,5.480339070653492,2.3472613725865576,-2.8839543219659918,-3.1937237615890957,-4.42731945118104,-4.638337727298804,-5.094234845789565,-4.700779369601432,-7.412869825583638
73,-3.3400633327181284,-4.3578663574025,-4.184503375448606,-0.8482333423387843,0.7336901604845761,6.33395599638649,0.6515501616446907,-5.802533984904143,-5.6438215420300155,-4.461414887896617,-5.033563168639169,-7.762054005947682,-5.664574757770655,-9.657439162442076
74,-3.505039286320265,-4.420774074060567,-4.657278401478872,-1.2091152964318772,0.08869403499135949,5.604866894414533,-0.9888088271083717,-6.7518881562775865,-6.199227294569301,-3.290045377079608,-4.033730784779911,-8.30988484010215,-5.091680372456471,-9.401860793332762
75,-2.837037596213162,-3.521942487267218,-3.9915271737569453,-1.367090397588817,-0.6253867708716095,3.4015171228806307,-2.251881263967104,-5.582187000885251,-4.818029039986316,-1.3707394692832708,-2.0712270698874646,-6.774727845283353,-3.4093575829727443,-6.987062182197706
76,-1.6430340561154024,-1.9356026004992848,-2.570632599713723,-1.3183405037095521,-1.2414449354696393,0.24241444423935934,-2.9434163813101217,-2.812559125547617,-2.0620919040059142,0.6787417964071131,0.20087040792712377,-3.7321814912732902,-1.27294941451224,-3.252380589545361
77,-0.3104093610774856,-0.06713851603390138,-0.8984995810919808,-1.0707367925105165,-1.601857339849246,-3.0710807078355784,-3.014718710502183,0.5690948193027787,1.1203870758944459,2.282237347763539,2.123535441575515,-0.08877990764979574,0.6683295007666704,0.7504016302490087
78,0.8093710663929783,1.649643084668121,0.5685844135864453,-0.6496740010513204,-1.6053452669826467,-5.668642846724388,-2.544321527830768,3.4456671719286773,3.718859349711376,3.0683006828472075,3.221207775241743,3.1940683011764905,1.9635774023245647,4.059088772370537
79,1.4875563317944587,2.852373186437754,1.5434906601189542,-0.10876270048961383,-1.2403595081195842,-6.8515449842522225,-1.6956837870848167,4.935179923309173,4.9813597565834336,2.9489647959862,3.312373514378511,5.358748358568935,2.4546872365898524,6.03119762970615
80,1.6558736737550839,3.324366743898862,1.951991128233621,0.4643119830560969,-0.5930375042387221,-6.290380496630524,-0.6666299889446532,4.661656124105524,4.630801031432821,2.1016051369215734,2.5191261214523184,6.022116441276506,2.2583083885444446,6.4487773169622615
81,1.3931712866902886,3.028918322448754,1.898289416238913,0.9553987384747101,0.17416773699810179,-4.121770685517952,0.3552375036548077,2.8490255789578764,2.91494038002587,0.8740396866349395,1.187432605935586,5.222366090714469,1.6609628248440145,5.490537182240642
82,0.8740389764445992,2.1002384730241332,1.5788391480644972,1.2477333330718108,0.8674568402792472,-0.9148242117574539,1.222016689394928,0.21521886445769622,0.485613197624022,-0.3455359378367221,-0.24479691033619197,3.347357991701136,0.9790503692943993,3.6050024648713164
83,0.30120491734216726,0.7980240805254872,1.1850099296506822,1.256698972984414,1.31667045288104,2.4840564898614663,1.8372876726688607,-2.290396512573454,-1.8418539210358371,-1.2474905077241696,-1.384656583785254,0.9832347219051176,0.4397242313216791,1.3419725051081386
84,-0.15583352225825162,-0.5600308254824983,0.832798417448628,0.9633956430860786,1.4233151747295694,5.184061119643568,2.1534280973266404,-3.8134973985412954,-3.3625534050145984,-1.6734236571832115,-1.9850657579055038,-1.2614892905937176,0.12225457141582442,-0.7994907667100879
85,-0.3997058441831221,-1.6706478537015748,0.541635770630441,0.43270449414655143,1.1867952254780165,6.494153049218331,2.161142697447644,-3.8750621584684057,-3.6974574430492355,-1.6282394020811461,-1.9860358344017242,-2.9045307169916867,-0.029037446043067038,-2.4666075092901805
86,-0.4153609427516239,-2.3067966761387506,0.26182057030787964,-0.19471339125189263,0.7009112402059706,6.109125788533635,1.8783057700235588,-2.514776671274964,-2.88394726364934,-1.2394523958354229,-1.4949537456116537,-3.677861664553248,-0.13803918778795687,-3.4800434075369595
87,-0.2553179529951285,-2.3582652285218955,-0.06963715073133575,-0.738297211390796,0.12204041089294841,4.185253331738319,1.3430349568198838,-0.2557567891171829,-1.3209681893639882,-0.6875185031841371,-0.7232233526187689,-3.546632409567239,-0.3125645409144219,-3.8070154192325276
88,-0.01045151574539612,-1.846302052447059,-0.47449636751350144,-1.0324840978740544,-0.3807590774867994,1.2855002879100326,0.6123904879304998,2.090347199742834,0.40123282141566535,-0.13647108329174695,0.09314676612249952,-2.6718247627533835,-0.5811882795248394,-3.509928679531602
89,0.2214816951430708,-0.9129448415590661,-0.9061184145667263,-0.9832119122671261,-0.6779058722674458,-1.7878100796886134,-0.2352912489123139,3.706522020348573,1.7194065150436426,0.31111374296933564,0.7615613883536235,-1.340933524698888,-0.8768570582288711,-2.700548707599626
90,0.3602970010932122,0.21090065538008596,-1.2611875317049361,-0.6057350479306987,-0.7172907907031967,-4.2225281368148515,-1.0985407399383018,4.044038099728733,2.2841894903324054,0.6235892042881972,1.170942168765721,0.1088734888257167,-1.070910630575116,-1.5175066819693208
91,0.3570473765581379,1.2528552307452696,-1.4233034614247322,-0.027934525329769526,-0.536225215163476,-5.420799183034097,-1.8558552516249405,2.9960707477739223,2.0526403760747627,0.8179981418197692,1.2949761078602642,1.3584884371182606,-1.039336508007739,-0.12701026422498177
92,0.19836405326772555,1.9552025950783722,-1.3169566160042938,0.5458048098763015,-0.243770097014733,-5.153264853082359,-2.3769566816975263,0.9180818672618156,1.261581045215047,0.9219077712375249,1.16865962182535,2.15880462567164,-0.7300163141160209,1.2684465778716894
93,-0.09444376412590932,2.1317561413692268,-0.9461119472715375,0.9011767027264441,0.020603842782981434,-3.60126924067888,-2.542931989562492,-1.5048264084498097,0.3019963556557286,0.9399114782041057,0.8544106233865986,2.36690088142533,-0.20009903651446237,2.4340715914748747
94,-0.4682036122548974,1.7155408640657412,-0.3991091637736446,0.8899620087282311,0.13832013183767056,-1.2796803864241817,-2.2728943741260883,-3.4926055354074688,-0.44995677806626283,0.841719710128403,0.4147472635159,1.967607658249202,0.3942347921319289,3.1338025221886827
95,-0.8423377702847811,0.785806400104429,0.18273765521021174,0.48886909444879034,0.05576834515381628,1.1310484935735023,-1.5517576975031906,-4.424927793308929,-0.7770491110358083,0.5782770331450453,-0.09775017292046004,1.0784504204816683,0.8530714500338902,3.187577400742926
96,-1.1177348849570696,-0.4364111516915642,0.6587455900085855,-0.18171069377714602,-0.19405308809251803,2.988883762452032,-0.45144806168394813,-4.0317614909680675,-0.6857663990020986,0.11914553716089109,-0.6327354091136983,-0.06741711658303351,1.0113935230645232,2.537194307504262
97,-1.1935107972981585,-1.6301361829313104,0.9404423647370952,-0.8894486227700213,-0.5004827542453179,3.867428498872955,0.8628189113767946,-2.4618687238845536,-0.3716879231732054,-0.5063480766378048,-1.125893219165123,-1.1650908518964052,0.8089356193033354,1.2926904379910709
98,-0.9924304639850343,-2.450335624648125,1.0179912110308829,-1.365187280584479,-0.7128883509625011,3.6553106291997035,2.1479855378544253,-0.2148528154087055,-0.10628851716178128,-1.1855629078221506,-1.488378174449312,-1.9069495170981887,0.32179152929242594,-0.2670861881099324
99,-0.49052647905112484,-2.6226446836858006,0.9502047473107541,-1.3977405613903002,-0.6954275272916699,2.5539790821077655,3.1229108779807793,2.0322970690946893,-0.09731024055614006,-1.7329145109605946,-1.6139067394358984,-2.0646160778190383,-0.25905275289239155,-1.7515269768939776
100,0.2587570380950474,-2.031640351346999,0.8240639444498465,-0.9155131452007718,-0.38078850423838967,0.9834008106462645,3.5285374354191323,3.6414753962340525,-0.38427770471130984,-1.9378964286002627,-1.4071245551445077,-1.5617895677200213,-0.6962007978895904,-2.7626211629326556
101,1.117671842649117,-0.7738232592648545,0.7041313358271093,-0.024337093732850316,0.1958497781890934,-0.5667621599610613,3.197075720459636,4.201194012178522,-0.814757801814902,-1.6387566491697485,-0.8257306744910973,-0.5124525509084662,-0.7964288862824348,-3.015576776442502
102,1.8832751154900897,0.8472697022022094,0.5971875345675783,1.0152476702497777,0.8957952412652782,-1.6889487016213045,2.112556977519944,3.629742092952149,-1.1122469265924089,-0.796971147934136,0.08018691408224818,0.7945680720352436,-0.48907139205866923,-2.434408326310006
103,2.333314116726683,2.3906052225479617,0.4503613306544063,1.8670508045073202,1.5115828606000032,-2.1648318682264605,0.44273717678800495,2.169746529094633,-1.007319960554718,0.45695872112939534,1.1508581991042934,1.968013741318794,0.1383449522821981,-1.1865476768734222
104,2.2893161508764606,3.3976635320345405,0.18507159676738513,2.229756552660615,1.8284661247494256,-1.9994117639558933,-1.4739550190949173,0.28666152372234766,-0.3759532641474341,1.8295668320030745,2.1354741987514534,2.627038618759332,0.8623780240739715,0.3597513951736729
105,1.678680357544041,3.529812867149755,-0.24846533605494273,1.9415342588699855,1.6942085171867596,-1.3806155871251435,-3.192357813784419,-1.4875830689913507,0.6758598447981496,2.9295867027994738,2.748722918960783,2.5214506833711727,1.3978737491236628,1.7445863546695184
106,0.5745087957682897,2.68044039056875,-0.8224786911516114,1.041981759908128,1.0749454646458063,-0.5876982590698234,-4.266175854944011,-2.7121423320262257,1.821766163264461,3.378842667007064,2.7528113117429607,1.6201286446552317,1.499075077326391,2.5577296104767893
107,-0.8036268587304128,1.0236656695965272,-1.4142809060580395,-0.23144466776475778,0.07823838216238996,0.11404629037232906,-4.37047188453969,-3.1484410298491685,2.6219697455315036,2.937224833002077,2.040994409192851,0.1358344537862334,1.0524837205111912,2.5659099697095034
108,-2.1336986549387356,-1.0205336005337462,-1.8334578482763941,-1.5130304451580674,-1.0659725622873386,0.555007752746952,-3.4060884866867718,-2.7977746843149776,2.690334377222145,1.600942567872764,0.6942851275563693,-1.5260859201116783,0.1284739282676965,1.7843292255379248
109,-3.071449208876544,-2.8987738481287537,-1.887562132895208,-2.422183050406556,-2.0629730360385325,0.6953340450103008,-1.5510789535923066,-1.8644950909448146,1.858009559738957,-0.36268665616334167,-1.0119310364871168,-2.8828091436237067,-1.0278430030132009,0.4694586024412899
110,-3.345541130422284,-4.082595917961481,-1.4624224169664686,-2.683240680363536,-2.633844367316643,0.6073332452217627,0.7636688453653104,-0.6670214665606191,0.2677156740655451,-2.4634535711112404,-2.6610365414487056,-3.5187880698759386,-2.0658147300758127,-0.9637145948194772
111,-2.8396354244400372,-4.2247155657829545,-0.5844373559789982,-2.212183490818242,-2.595901513087149,0.42118119809109555,2.955750065186123,0.4683533232766578,-1.6434725908371228,-4.113304691201449,-3.799287705446892,-3.21480764176339,-2.6376604069444123,-2.0724331894154084
112,-1.6354059114089972,-3.2643948127027516,0.5632888810771376,-1.1420883326466238,-1.9192597207283435,0.2600929324545853,4.445831141461697,1.2961930384647125,-3.2739622947213247,-4.795831749688685,-4.064455673123001,-2.019731479760342,-2.511768516183401,-2.5227023927545447
113,-0.0010932501763802707,-1.4484384488221578,1.6826352294772586,0.2200722996712763,-0.7422620043173207,0.1912534526874106,4.822324873194919,1.6998359569426473,-4.058262394458291,-4.230004340316437,-3.3016358176763108,-0.2411315578056334,-1.65416129170241,-2.1888247022494984
114,1.6736614386607023,0.7391632365729063,2.449416779157222,1.4898726142881487,0.659786293488304,0.2090884409731093,3.9661151882254417,1.6921084323036242,-3.668100336213373,-2.4753129636857825,-1.6288856032299326,1.642972464816145,-0.2509237074322244,-1.1861787340386079
115,2.9794018766561723,2.7170777514226634,2.6198550878984426,2.322706428952263,1.944644344020858,0.25263714238497004,2.0945634529206734,1.37858143101314,-2.140892833592574,0.059844844647446514,0.5725678504830176,3.123638479257815,1.3372430738036065,0.1706724057251463
116,3.596018768803615,3.972579730908436,2.116459674461419,2.513913584840564,2.7927677258965544,0.2450688084456442,-0.29257978077862695,0.9032326636438143,0.11333448050018072,2.7163242501871037,2.747420410584872,3.808082306520602,2.6758570214021926,1.4690664920750836
117,3.377980188404201,4.203071242054748,1.0612960268517755,2.051089076554237,2.9917451631786878,0.13592562911295392,-2.552313896658442,0.3980596526432494,2.4328611542139296,4.765124372924191,4.313945502727109,3.5291523757898666,3.382876106824867,2.325448448842806
118,2.391233093268099,3.391818143641321,-0.25694337845955617,1.105004687439559,2.4922585572529443,-0.07228167567410808,-4.0820476164778645,-0.0477721584806711,4.113884032753583,5.61921377125286,4.829400874203979,2.3852999940227835,3.242109833907054,2.4989862684522706
119,0.8919337296137425,1.7984672117406615,-1.4718188717914686,-0.03384647066898774,1.4203937862127411,-0.32323547527173113,-4.492118875374694,-0.3939761671039093,4.638050161426119,5.011784966937683,4.123815473494472,0.7021083055351508,2.2692944156959705,1.9577373100058584
120,-0.7455700861513682,-0.1281395364230608,-2.253584520442872,-1.0491761165044617,0.043376329734666486,-0.5303200837977647,-3.714235549591171,-0.6354304263868648,3.8406337185344372,3.0840762480924795,2.35946709683621,-1.068984556236295,0.7106282646121779,0.8794687394544095
121,-2.129601006122318,-1.884341543285161,-2.4099275509802456,-1.6916265254567175,-1.3013560655075294,-0.6131446659835595,-2.0129247901246243,-0.7802934576996844,1.9627787247803623,0.3523886507846316,-0.005773939163106947,-2.481079770300364,-1.0259606371095626,-0.41006394642195015
122,-2.9516597463941494,-3.0508158226271096,-1.9393048553091372,-1.8419109744457658,-2.2940067308407412,-0.5312085826616649,0.10210831194219311,-0.8323993740139399,-0.4286339473813921,-2.438650572414845,-2.343909881819137,-3.2114421192105302,-2.4862607471950633,-1.5397228350150711
123,-3.0591447444881794,-3.3962611005011825,-1.0207704739792915,-1.5282750840598451,-2.713307945661146,-0.3010378656810212,2.0334941386910113,-0.7859653530308438,-2.624824189891896,-4.533115784468203,-4.035431151523825,-3.137058216595669,-3.297494992140795,-2.203528082883588
124,-2.482523929153695,-2.919640472058245,0.053095225602351276,-0.8984796178815262,-2.4890615081452157,0.00936537122637628,3.27300721908494,-0.6333480942569004,-3.999688287340989,-5.384372757751515,-4.647353324865073,-2.3488685922084005,-3.270564497062196,-2.2455606121615483
125,-1.4132179053504874,-1.8256660421174238,0.9743058973952279,-0.16086992933474784,-1.7132418396551965,0.30552930831740954,3.5426734561282185,-0.37976502049469507,-4.200223489962814,-4.810572537148272,-4.055706480476344,-1.106889684526535,-2.447260337784759,-1.6953443512227866
126,-0.142268766784343,-0.44806217048300917,1.5138899024938455,0.4831060542293623,-0.608213808415212,0.5003681570057295,2.8587435758748896,-0.05551001093978424,-3.241841045742146,-3.0370286237955813,-2.474298131016428,0.24496258810474134,-1.0799458386066292,-0.7462785841569595
127,1.0204905888384088,0.8517936767631766,1.5818582285808602,0.893144539622699,0.5376600977253364,0.5436368454826015,1.503497165851479,0.2824216441644321,-1.4818205880617148,-0.6141359313905698,-0.38139823790662025,1.3763914288020902,0.44820252521467885,0.3125509819443509
