,AF3,F7,F3,FC5,T7,P7,O1,O2,P8,T8,FC6,F4,F8,AF4
0,-0.264930885578652,0.10536599678045487,-0.8301642521142889,0.13511840311638537,-0.04664447776503604,-0.35589149344757,-0.491760675717384,-0.13576554049654907,0.1599913386431739,-0.2706520441460515,-0.4152322455684717,-1.0202311773833463,-0.45214685233712987,-0.3022855785527101
1,2.5558468548686806,3.193579546838629,2.112610783383659,0.8866553897861571,1.3554878415555023,-0.6143856544612274,-1.2087791658926068,-0.3624416473403339,-1.7350677919404713,-0.8869116294779523,0.5106997471175804,0.7019634523851687,1.0426143674744837,1.1511117063365373
2,4.728639319613024,5.519491135812888,4.544288012670123,1.525101931553111,2.4713406541750293,-0.6617830984245809,-1.5541750681304853,-0.41604199413662446,-2.9739291047273055,-1.1350828630067766,1.4542821327266975,2.277973347798031,2.450041104278999,2.2433986612416947
3,5.707496300150786,6.513788431084208,5.944448323273659,1.958468347364655,3.0585897455960196,-0.4357001965764917,-1.3776268828993883,-0.2379960643154024,-3.1125957344278965,-0.8750918664227234,2.2564242991631893,3.3490779526403553,3.5269249844630943,2.634072052698526
4,5.269160411201886,5.957864553373544,6.048621807763789,2.099679644221813,2.987246550596196,0.02382452786321483,-0.6966160895205878,0.13282562331016795,-2.1064146903391605,-0.17488927686823028,2.722507774798131,3.65355054128358,4.033190736038826,2.1959023960222286
5,3.5675110871994993,4.034572955619929,4.900948145920767,1.884623916148262,2.270486075457651,0.5860060339898635,0.30908272604725495,0.5695224954533898,-0.326459024658692,0.7100967354823927,2.6754562560147903,3.0988711400430193,3.7922931938061026,1.0576089990763493
6,1.0809856131300244,1.266130910461079,2.826647779698668,1.2987046551618784,1.0644122749560276,1.0734359821264872,1.3531082121564424,0.9010939360125348,1.5741391044829007,1.4326478848595492,2.0272462752077383,1.8012417374895946,2.7600264689230394,-0.4318956587180144
7,-1.529395790172554,-1.6392038002075384,0.3349894668874788,0.40145949653328217,-0.3645056560766664,1.3222783241471878,2.1288336630371165,0.9759260054295659,2.896187123301463,1.6883850193644137,0.839542110138432,0.07379346060272905,1.073845598260606,-1.8087045813977776
8,-3.607485939358658,-3.983607186396158,-2.0174786325252803,-0.6637720623331407,-1.6981535240532215,1.2371059250986844,2.398668392573143,0.7221252070163366,3.1479455138606385,1.3375304314386947,-0.6570998503083498,-1.6428028126288998,-0.9444733454146442,-2.63755106841457
9,-4.6788265535057105,-5.260670254031993,-3.7638802412639114,-1.6851524335119608,-2.6389570632916084,0.8217749567084616,2.060024561101437,0.18208637352394574,2.224788167263754,0.4663233690732524,-2.103340173547942,-2.895356237023148,-2.8465674080042773,-2.6496987837879677
10,-4.566118696894157,-5.270329574683011,-4.62697294091789,-2.4246525326828023,-2.978938946095348,0.17701089080170515,1.1708702115992078,-0.4930078061787938,0.45002638501966935,-0.6367720772852097,-3.1060609463070388,-3.3488051184569994,-4.167508341966209,-1.8311963442221193
11,-3.4134110798948463,-4.140421534223659,-4.5584109396874215,-2.679053807494083,-2.6489735131110628,-0.5326229232261261,-0.06893458278346593,-1.0890980203400809,-1.5383173832115347,-1.5826750696524823,-3.3606713091065896,-2.8920713451137514,-4.5581232577729605,-0.4319380501407173
12,-1.6180390417133939,-2.2575295131085595,-3.7134478198669068,-2.342481726780753,-1.7356439507262562,-1.1294761024311504,-1.3716279142010293,-1.4010927413404224,-3.014786699833598,-2.0240904335129914,-2.7587298939725255,-1.681466641358216,-3.896785286482186,1.1096041462807353
13,0.30296090117592667,-0.13644561682238748,-2.376805074463145,-1.4496232301528296,-0.46065010704072124,-1.4734801282664913,-2.433612458998112,-1.3058960359034852,-3.426956413034934,-1.7858615919154428,-1.439883883067727,-0.10106655542400192,-2.340136306497718,2.304051193856594
14,1.867434637289963,1.7273682816191487,-0.868447024705911,-0.18238971778178967,0.8729687540770815,-1.4967210069056422,-3.0061180162190504,-0.8101872484506674,-2.596234228622813,-0.9343377468721642,0.23581329938257767,1.3536564908889779,-0.2900855092179453,2.7682625805102603
15,2.7562706006063427,2.9782139741527627,0.5394158825100895,1.1668092758058872,1.954830546008381,-1.2131476324062467,-2.9483976908558187,-0.054484849067817046,-0.787154826262177,0.2410489878790774,1.7916704926697562,2.234979531662743,1.717767952029775,2.351263906068648
16,2.879696018143724,3.46336079412342,1.6708024816749323,2.268026114895126,2.542846185403638,-0.7041285911512711,-2.254226785296703,0.7298639685353686,1.3802633059860545,1.3286751239656238,2.7827716237517945,2.29283459990328,3.1712768127175592,1.1869225393282774
17,2.3683017264277333,3.2305293342495003,2.4517648033205335,2.8430740140479207,2.5211290760669063,-0.08849086189397902,-1.049884629275984,1.297140482669043,3.145151429022596,1.9424052125197016,2.939746609887461,1.562747031757113,3.7339113601485843,-0.34573880871384566
18,1.4997233474794092,2.4724359782706693,2.8817554431637338,2.744452002532604,1.9252356633942145,0.5107451545878693,0.43245718509225844,1.470851077190591,3.872571149139417,1.86277386343744,2.2578716989334953,0.35749150361583043,3.341182175833753,-1.7436379917034683
19,0.5906756600920811,1.4451186745728584,2.9903609170258365,1.9990461003171884,0.9283302219181956,0.9922333164903048,1.8989190161948954,1.2046444283173876,3.278884259946302,1.119929926397044,0.9987640740334626,-0.8396418120703554,2.2084681360798744,-2.543863703075794
20,-0.10813147618852605,0.3897920642415809,2.801953307721801,0.8020796395922355,-0.20771038387077678,1.2893258874740048,3.047860035085604,0.5980882892749176,1.5361938184832362,-0.01308496017559054,-0.39834582563996546,-1.5469030381856101,0.7476334520219675,-2.477494464977449
21,-0.4811979766778366,-0.519255229118322,2.3242287534874033,-0.537686626010821,-1.2027278917322959,1.3710961922142755,3.626105944844984,-0.1391931959998689,-0.7816917846044531,-1.1161262948373667,-1.4669267646254052,-1.4628905794037836,-0.5782495220067102,-1.5617373791975118
22,-0.5629679401925781,-1.1916091364860106,1.563740209341886,-1.684992529593682,-1.8308355922136694,1.236691802130889,3.4801396956957036,-0.7625923964464937,-2.8940038192797672,-1.7738040000576405,-1.8736316261110835,-0.5876635791352817,-1.4108083523164974,-0.09861636026023063
23,-0.49857378279759,-1.6073241164892171,0.5578127974383792,-2.3706655145330267,-1.975244833038399,0.9092947162903618,2.594367668410045,-1.0795543424489733,-4.081350062923623,-1.729295777237254,-1.5326962683120295,0.7610890863210934,-1.6080332026684174,1.4210056712562755
24,-0.46862534844866427,-1.787374284971606,-0.5965909635760338,-2.4616842846049543,-1.650832137396151,0.4334041857869008,1.1078659177500099,-1.0164480541277825,-3.9344550621812475,-0.9840341003753216,-0.6331536406868152,2.0485981980589987,-1.273207209222566,2.4777190252461536
25,-0.6067857254035982,-1.7644302487836105,-1.7364947556116463,-1.9884158169248014,-0.989480899801375,-0.12518158229813997,-0.6982729205281125,-0.6403714324071632,-2.4965410994011807,0.19455700501284082,0.43202050644487516,2.7102345569746653,-0.693147643900818,2.695884675687708
26,-0.9397478894893104,-1.5659154611922397,-2.6592074284019813,-1.1228640289553138,-0.1941770147002246,-0.6808996537004602,-2.4470700900620126,-0.12782657241356857,-0.24937877260095076,1.362799049723991,1.210976578089643,2.3622253347061153,-0.21117944620290297,1.9710086255094654
27,-1.3704321720339667,-1.212938182823238,-3.1764600796982183,-0.11745342576995048,0.5231614914247126,-1.136463872907349,-3.7418724303769224,0.3076222219713551,2.0525505854014248,2.0584602212309884,1.3614979747940135,0.9608610472055922,-0.08404670475450633,0.5096165646130073
28,-1.7099263413523216,-0.7305205069083999,-3.177057845942557,0.7740963438308215,1.000840079086369,-1.399759137886061,-4.259445378690813,0.5007568427282693,3.642249365249186,1.9715844368755622,0.7827791977948308,-1.1500855636952851,-0.3773129541263387,-1.2321963105087832
29,-1.7469631560337422,-0.1599017926204219,-2.671450624714013,1.3677450978082941,1.166014509531351,-1.4069998961240207,-3.8378676580821987,0.3998969106393082,4.004066997706177,1.0672265425765362,-0.3378833683116033,-3.3270099773451416,-0.9387915434267672,-2.6920259559221895
30,-1.3309504796352147,0.43602777529055586,-1.7957254287117919,1.5902181129305593,1.0425795296265843,-1.1447446133758254,-2.533293721941223,0.08604459762191595,3.04908874623248,-0.3858359117800123,-1.5825867824739077,-4.825713016785997,-1.4598705864030312,-3.37997241316469
31,-0.43978710989222514,0.9787236721738718,-0.7675570659487617,1.4798807255917683,0.7285384357079884,-0.661289851088204,-0.623991445474742,-0.2622187677119959,1.1408403742581903,-1.8943049469267936,-2.44691483771432,-5.048610477286847,-1.6013912800396157,-3.035457875524785
32,0.7915866499344996,1.3898481720779101,0.19271553506234373,1.1514292188372972,0.3530589629916758,-0.060255763041933405,1.4469309137729285,-0.44511011702209136,-1.037341386022989,-2.903639087590525,-2.521846370358361,-3.757269721101542,-1.1364133472224875,-1.7122371861495873
33,2.0933095771694012,1.610391070855925,0.9450256154723831,0.7406356600475671,0.029524458412615688,0.5245730939010124,3.1801461746508433,-0.32971786001054615,-2.7261946554353984,-2.991397451652403,-1.6501849383159473,-1.1769147291443707,-0.05574869350181383,0.23436852645445325
34,3.12842245702242,1.6146995891411036,1.4793779380612508,0.3512774925181123,-0.17892978592677486,0.9663311588317829,4.152119358820231,0.08538144325266561,-3.359326030521337,-2.0246596774125964,-0.0017090521100915895,2.045696206013036,1.4042618925015138,2.2523947924138703
35,3.586746898147076,1.4133756001967213,1.9051643147188368,0.024111892432558166,-0.2705347520486167,1.1815083892546927,4.132037410995526,0.6563199179198819,-2.7616341751995352,-0.22596470650401376,1.961778067125931,5.021356720296654,2.823972241721671,3.7561211338952445
36,3.2769295552139,1.0443189355752465,2.376723398366449,-0.26165089966432536,-0.2910342813986951,1.1523219059274459,3.1470559343697895,1.1397626305176234,-1.2067729565351322,1.8783902622514086,3.6232099876899513,6.879727489743204,3.7325647675931575,4.2964018993096325
37,2.189351615198279,0.5570272721183426,2.981607321427681,-0.5570044680115772,-0.30261048389598744,0.9264625964478633,1.474020731870161,1.284491896350089,0.6871260995857981,3.6152162954474694,4.406036047414582,7.031482146678232,3.7653378135774553,3.6882881409925
38,0.5113943730715329,-0.001312384465512771,3.640765422431583,-0.8966263060898567,-0.34942455902349606,0.5944018023543532,-0.4410584334710598,0.9363064744160138,2.1866667160896394,4.378745708677081,3.9659253796841574,5.350026267212909,2.7928293896873195,2.0613063395488465
39,-1.4096571863688905,-0.5903458322917202,4.074025762514002,-1.2585028189641205,-0.43424203804669237,0.2534025271275336,-2.111068678436329,0.11630668573303347,2.715406700701671,3.8342539752283686,2.315771644217119,2.2175261374733233,0.9783385543733064,-0.17794203884972026
40,-3.1464188628268572,-1.1693127117579851,3.8647269602960637,-1.5495387829304454,-0.5156649501450812,-0.02730602387884048,-3.1433806724139397,-0.9604576447553123,2.0706287806171884,2.0440047768012133,-0.15785209383165386,-1.5775057182728436,-1.2554718315604132,-2.4564239824921974
41,-4.293351989712902,-1.682861179795372,2.618751288535051,-1.6274734181571147,-0.5269243170850538,-0.2263793360378764,-3.3413282132467295,-1.9393497620270082,0.5046442220877801,-0.5287120074443237,-2.7945719809638305,-5.058857927858444,-3.340616523839734,-4.1859685037623
42,-4.565310452710115,-2.050285463011307,0.16929032409570607,-1.3549116150600427,-0.40831667561428003,-0.367804496575655,-2.7424345873353255,-2.4407574792910762,-1.3618437951541729,-3.1440458067717643,-4.847845498173826,-7.3318182058691,-4.7231099636859,-4.914883785474792
43,-3.86868523442184,-2.169263167984637,-3.252381011856533,-0.666972990919009,-0.1396412953241292,-0.4979633703762514,-1.5860588494379348,-2.198568776164815,-2.766437399512811,-5.004189794553976,-5.704446355190475,-7.824744612381052,-5.019330247668257,-4.44241293159667
44,-2.3281507613778305,-1.9398602074517448,-6.962631509756162,0.37437948750192007,0.2413354197876864,-0.6529056347822121,-0.22622398133979235,-1.1737961105904193,-3.0920695640082765,-5.50040861674922,-5.069833464321063,-6.435822137501926,-4.123711380274981,-2.8695064727166413
45,-0.26253239597164224,-1.3049210677724117,-9.938964332739744,1.5648635960601447,0.6431056805603084,-0.8306013040723635,0.9784334680076264,0.4009866770229284,-2.1101863046400338,-4.411335016739331,-3.063389889908819,-3.547659509147681,-2.238123685461029,-0.5749978233453603
46,1.8850075285998202,-0.2930078302484518,-11.094733016542103,2.5949794226806646,0.9471958330630278,-0.9810610793174659,1.7616004719224108,2.069834200937505,-0.08856983105797488,-1.9881314581695932,-0.1942084101078244,0.0887509988350967,0.18288958990267545,1.8768161317433047
47,3.6467900091427707,0.9554514433436626,-9.643478558169816,3.1346786603555383,1.0483264010207276,-1.020048233976182,2.005644521925597,3.286478111206021,2.2813419574596714,1.1042815866370068,2.776655184619763,3.5630491614460493,2.552954497625907,3.875810989135962
48,4.637632609869755,2.1958462113275496,-5.433743773745921,2.941485428802466,0.8931562201248626,-0.8624706744111534,1.7468145034613887,3.593375062329725,4.118399023826146,3.9763500431438255,5.048251524862109,6.046505496316569,4.305690068491842,4.920186724993021
49,4.64406662691555,3.127561269204635,0.8736685099077203,1.9558293929554977,0.5028324629017006,-0.4631722645271857,1.1369624689914453,2.7880730799969236,4.668052812886735,5.778384911391857,6.005262193396973,6.999065899195404,5.036396861473217,4.747462863861249
50,3.6743052258568834,3.474081931737323,7.875573309277322,0.34757245995920494,-0.02967513274748789,0.15102416234609198,0.3821805605057056,1.0175861927780694,3.589009342041591,5.960194980446506,5.392169800651927,6.289833721526169,4.597908563773088,3.4078447849085047
51,1.9563121480028154,3.0720899983519367,13.755792753200097,-1.5086012263108084,-0.5671404209937377,0.8719939833226229,-0.31810122985348555,-1.2382921278297503,1.1044966196835313,4.444910243563399,3.385960100580974,4.204836396133134,3.128943508391286,1.2575228920455546
52,-0.116381291464426,1.9391378422428343,16.79494706010317,-3.1280079003685315,-0.9708903158623513,1.5301380664888204,-0.8141357410473749,-3.298272402013768,-2.042714795638069,1.6608407368250928,0.5462430746834369,1.347324523266648,1.011337407317575,-1.1310813793358074
53,-2.0785381198681785,0.29280024398370647,15.90837120428301,-4.055107189608572,-1.1434901455806081,1.9394792336165934,-1.0248516754775545,-4.489534606485294,-4.82385845665413,-1.581598955988036,-2.3432972317279392,-1.5364940309984232,-1.230240441082673,-3.122304631327549
54,-3.5039407320811393,-1.491711758623459,11.034087660171407,-4.003510326375295,-1.0561249715977485,1.9546789298849794,-0.9372865084428857,-4.370658353348728,-6.270394969508648,-4.332458493556595,-4.497072339215219,-3.7563523374589254,-3.059879787232593,-4.193747290737
55,-4.105445580486119,-2.977907966581854,3.228400391593678,-2.9502521984740895,-0.7515458765183806,1.5214127090878762,-0.596188921504996,-2.892747872714062,-5.813866951719673,-5.790516287417097,-5.349863864178533,-4.848598112119968,-4.061236503879614,-4.086288242520085
56,-3.7991792008915373,-3.7909478476027156,-5.583961696223849,-1.1510759951922465,-0.3229833296958718,0.7026085474347742,-0.09199042353554375,-0.44022850048065076,-3.498692070753152,-5.547680948003422,-4.7152082580219625,-4.676539234969582,-4.03670525109882,-2.8816192562531304
57,-2.716786242835256,-3.728293223937095,-13.143540493419067,0.9306806094961105,0.12136670998297648,-0.32974653293264305,0.4507233038358929,2.269707989683299,0.011084740568760182,-3.712436142193657,-2.8337709188119224,-3.439013366843017,-3.0516686119245646,-0.9801761126724555
58,-1.1632586690343747,-2.8211431867301497,-17.512029771931573,2.7596343058878654,0.49353658567626574,-1.336509869753374,0.888187144649068,4.403056381332216,3.6388503418468137,-0.8725902286778919,-0.29708813758904357,-1.5904809216584184,-1.4128746561206933,1.0184347775006954
59,0.46764048941226255,-1.3250468510571165,-17.640458332793344,3.88417586836971,0.7469487287462016,-2.075166508987445,1.081613409962667,5.273776812749131,6.248350202852539,2.091639703946686,2.131526746654416,0.30149299293775506,0.41489886931009673,2.4994369346702356
60,1.7970440002235646,0.3582673200721241,-13.66344350393679,4.0617181845971935,0.8766257809135181,-2.36629086453682,0.9320628196522741,4.571053345817074,7.021595519946177,4.285120838897151,3.7462504705872686,1.7204216599033884,1.9344625861854554,3.025644011628179
61,2.5555450280172463,1.802335155422502,-6.823111969647065,3.3139958253189716,0.9012152644440623,-2.1424180358958362,0.41924953484322347,2.4716722016635764,5.730350455195139,5.077144930336998,4.109573921598013,2.341548391418416,2.7525462055322043,2.4774113849530432
62,2.643478569042228,2.6804783270309835,0.9483235485917482,1.8983688633576685,0.8379754519869544,-1.4646619317755734,-0.37028537826106467,-0.40391249756613495,2.8063566900259316,4.292842579455505,3.180449273834324,2.1112085352644026,2.689912518400148,1.0923792658962472
63,2.141864439404511,2.8527650746302187,7.642198757671184,0.21067153567456062,0.6851385215017118,-0.5027454945222344,-1.2423938205382186,-3.1817594559785474,-0.8134417336439552,2.2554744200168906,1.3197830150693608,1.244466552026408,1.8326040926779776,-0.6114084688848833
64,1.2733058379349926,2.3887113240111804,11.77347272855338,-1.3421965313048543,0.4224884994234727,0.5143786717999892,-1.932489034139914,-5.0110507578527645,-4.010278660205558,-0.3323745835986916,-0.8292679775574482,0.14350723856450875,0.5061221679536183,-2.007095850470307
65,0.32646542084950675,1.5220655884929808,12.767884727614758,-2.454361381327576,0.03180202257745497,1.3613049977045721,-2.1777632338758734,-5.336665015052449,-5.859323368938111,-2.6271736381043502,-2.549423070204545,-0.7382605870982084,-0.8238968440631819,-2.57062556476285
66,-0.432268981977989,0.5575277422474791,11.018054607201826,-2.9822596765834626,-0.4720965101518569,1.8730389837268386,-1.8058576984168953,-4.076909792694315,-5.92425405921899,-3.9214030191636473,-3.2803711778207902,-1.045680023262495,-1.697870806920543,-2.06227882993606
67,-0.8336171401465401,-0.23535696193649522,7.611997682583441,-2.942375047224125,-1.0164521919689717,1.9797572542671174,-0.8103208456102652,-1.6464723650316786,-4.368838274020275,-3.8663796985239474,-2.7989768289384696,-0.6398749864598071,-1.8118026319460803,-0.616226518872375
68,-0.845608471274223,-0.7038371291527982,3.8544539999334413,-2.4583598513986935,-1.46880472672939,1.7114447959016346,0.617522248985229,1.1833639679097772,-1.8527826952901116,-2.5683639994727363,-1.290042500156384,0.35152871897916604,-1.1223191966070485,1.2941717634953454
69,-0.5692117637487776,-0.8431629504342171,0.7708461741077361,-1.6885294055633542,-1.6669911483417752,1.1745706557466304,2.119165503292609,3.539837188142591,0.7404393843198125,-0.5301376911848812,0.7161900867121819,1.5688780667630577,0.12953900966794205,3.0062952130338294
70,-0.19305875473267403,-0.7712113771023298,-1.2191825543470824,-0.7681538311928674,-1.4756824003266296,0.5115859726029187,3.2603251779951146,4.7323766902806215,2.634733441311946,1.5362575281581652,2.5202960224831807,2.531592996921814,1.4883174285737037,3.885560344984045
71,0.07711811812150726,-0.6609846179770861,-2.344533949986553,0.21079871299096797,-0.8503095398673015,-0.14170472485308627,3.6591477159408385,4.46869512940906,3.423654391717687,2.9566742481483543,3.4864231526875913,2.7943825845755126,2.430164685973272,3.539157222619054
72,0.09176464497675751,-0.659376351401232,-3.24208943364179,1.180875490040498,0.11836325651135222,-0.687055599292754,3.111570948179499,2.9314401943719637,3.166939816527444,3.3150542501948994,3.2549054334982688,2.1019713248876064,2.5405203382695385,1.955821395894879
73,-0.18926534619496135,-0.8233719151500373,-4.545598367131173,2.0602602773412677,1.2028124600648684,-1.0749933086097971,1.671661318429747,0.6929974441990374,2.2931070029686333,2.5730208037655387,1.8640577625515207,0.4937703275125638,1.6656576564558452,-0.4748621890976932
74,-0.6799563480264678,-1.0963315717789315,-6.4843772622536155,2.7233327439550146,2.0905390986812598,-1.296501504226651,-0.34293155336029585,-1.4969870855003298,1.3591314519839741,1.0539131875422487,-0.25971695136919093,-1.6775834444032889,-0.014545546643614397,-3.0710363682203115
75,-1.1933641765862937,-1.3311137943487792,-8.668959072743476,3.0058512272064912,2.4788879078043315,-1.3627385353967836,-2.426876171533054,-2.9728537689064103,0.7762128424379748,-0.6943160501386412,-2.4404907015681827,-3.825765481378294,-2.0219105605786805,-5.0613187769416035
76,-1.5018863057392784,-1.349683890568754,-10.16740276336879,2.752428519911079,2.183511818465876,-1.28431129792868,-4.024372806810885,-3.3694072890059097,0.6234981661680551,-2.1011304034641647,-3.9738563663022233,-5.290975671974725,-3.7179953555385366,-5.81833147086894
77,-1.4149214962056866,-1.016515676948113,-9.859431521489917,1.891098384525312,1.2209778126311197,-1.0607699770306682,-4.687149584235773,-2.719206726779139,0.633195660438335,-2.76480887839939,-4.356584008553931,-5.537304641743917,-4.504693136571609,-5.050631425967137
78,-0.8502140728476861,-0.2993145860798266,-6.939852069396573,0.5020770252219163,-0.1696689768492346,-0.6857094419831496,-4.205302413212754,-1.4020920822055005,0.3554647436043022,-2.5667894249190852,-3.448404123255086,-4.329031496385526,-4.024046560528455,-2.894534817380424
79,0.12432133092722349,0.7040756301300654,-1.3726016025725984,-1.1560209187834762,-1.5827525406194123,-0.16522546814303943,-2.671160376007712,0.026392550413850815,-0.569763607706866,-1.675424808596842,-1.5129121339861347,-1.8298015599282005,-2.2909619297938346,0.12101987058330133
80,1.293998107350574,1.7817566968402123,5.898813612333349,-2.6862915840493957,-2.5680975457135444,0.4595071915923949,-0.4571148835604776,1.0571397923202808,-2.159877899036583,-0.4489236475872325,0.8738885560873131,1.411525034850173,0.28817083194689286,3.2243114530856074
81,2.3486517306075076,2.661811854385125,13.098122629701525,-3.6582297860612987,-2.782037997328596,1.0982008084617783,1.8853126334762762,1.413489825277132,-3.98181445991346,0.7158598115400998,3.013766870023582,4.591775695403287,3.021853506796217,5.618705389507933
82,2.969385896694383,3.087489622346289,18.104409711949682,-3.7470899244985856,-2.1152081731402768,1.616826293479782,3.774605764090825,1.1317559804150124,-5.259857657640308,1.5255380524523883,4.308689966507979,6.868269299897824,5.134582499438757,6.702551955891235
83,2.925847635429245,2.890908515664851,19.134025133577172,-2.85896098250721,-0.7486624239129477,1.8664269811513885,4.752999835938171,0.5106264402283376,-5.177632739589624,1.86929621484198,4.440063075068784,7.59651621442592,6.000219855213651,6.226498442390597
84,2.1537758704909007,2.044079967033815,15.384755022060084,-1.1914659515960735,0.8880047182345117,1.7297481929090663,4.601908334479356,-0.04347079520132096,-3.262113209369538,1.8115284482726062,3.447210469897251,6.519667779034071,5.333375011015047,4.344872943630175
85,0.7869152018941087,0.6736216669184434,7.407984609090704,0.801065503370917,2.2491933324627733,1.1710689742726206,3.389295770067758,-0.2071132776875678,0.3129086385224911,1.5128339693398847,1.6851900865543057,3.8509242820637724,3.2776352586768716,1.55182728019798
86,-0.8692696179358286,-0.9636266307906081,-2.9423237655766417,2.535911788909231,2.855716880074989,0.2699980759838442,1.4400772191619247,0.1140138583455284,4.651190002629676,1.1241052319415212,-0.3148111263545426,0.22196482631670472,0.36321347198086557,-1.4715134584173863
87,-2.416300257734999,-2.5363175679086782,-12.993291886255285,3.486244230776499,2.465588180625389,-0.777752136864576,-0.7576961364373774,0.7443723458631589,8.353388257187078,0.7074563459566906,-2.026681452600858,-3.488106766168472,-2.6506756725056144,-4.047163218169208
88,-3.4708195934549493,-3.710613411553307,-20.0281879805941,3.359792937718411,1.1719725266466534,-1.7002421627231552,-2.6818705529436566,1.3193658846039935,9.981632253242855,0.22233884003716184,-3.0859847877787705,-6.3914933326192624,-4.996478719991333,-5.668509762793811
89,-3.7692080963857735,-4.2211157995746404,-22.106237062617467,2.207699841759786,-0.6105173777288756,-2.2234744515031344,-3.904682871822172,1.4530464381191492,8.61163385696,-0.4176543050044799,-3.370371198767266,-7.825830850749654,-6.111346283501294,-6.099849996893254
90,-3.236843844799887,-3.925739937023734,-18.659151270851414,0.4205168256496712,-2.2726051643814964,-2.1595257578989466,-4.188486000564724,0.9216455482797812,4.261185429676596,-1.2475119406730708,-2.985079639313303,-7.514875963036596,-5.777891023591449,-5.387280499793871
91,-2.002172721551893,-2.835199971770592,-10.667696078757965,-1.3934655518804697,-3.2119209600538206,-1.4796952287595955,-3.5280966896946038,-0.21550403078711525,-1.9887723398619084,-2.165811809470286,-2.1725063299330434,-5.612957206024377,-4.155471076745344,-3.7923718559281876
92,-0.3543339693468524,-1.1142668293846862,-0.36084878476945503,-2.6104514885268,-3.0430327853552823,-0.3445314637717426,-2.134661762711065,-1.61134766548479,-8.260879770527852,-2.913381306113632,-1.1924688430792967,-2.6295171833135207,-1.703069914390729,-1.6845242645052168
93,1.3387184733748907,0.9428925432370545,9.461884286057577,-2.806422758298928,-1.743574614191169,0.9260900440869914,-0.37066871305737265,-2.7495417676191565,-12.472383995312327,-3.1408862556458295,-0.22680161761506562,0.7319664806928343,0.9704719511299421,0.5632284759505065
94,2.723657673194282,2.9583287377707324,16.262835851117305,-1.9104994552069186,0.31702180608237407,1.9406019099712724,1.343990103628556,-3.14234062503921,-13.056767361673085,-2.549800927660596,0.6539364172328519,3.763143092765401,3.274380816503082,2.6396256549489014
95,3.538795849494423,4.531321228003677,18.486986894838495,-0.24030991953206432,2.481579730694651,2.358019666659426,2.6309039418477123,-2.530769331147348,-9.557719004025,-1.0528605918365483,1.4553315233791178,5.909425711382163,4.770189223260859,4.309575971151482
96,3.656629037004623,5.309015419960589,15.950979590644671,1.5973578358843146,4.012573722611115,2.0065792564119533,3.234828537992031,-1.0067299582488618,-2.8673653915692956,1.1182317624401321,2.1824057045873593,6.8590733309975676,5.241040025986956,5.39174217092434
97,3.088716672829737,5.059224005046671,9.796918631550659,2.9108319986113895,4.337051967542506,0.9571376655577465,3.072141858851151,0.9945423841928791,5.000732220450461,3.418059527282772,2.7681739892074337,6.554300446379371,4.6929380901152875,5.731174040684232
98,1.9626215924346848,3.7341957442069096,2.05236786508774,3.1653434282005204,3.248040126566365,-0.47904788956877276,2.238358874518114,2.8336631957970257,11.547177224399256,5.125572073794445,3.051907277666054,5.1443302603857965,3.3081347488953283,5.199318749702087
99,0.486393584791921,1.5099069077536897,-5.039282688712783,2.1795552395346873,0.9931192004501533,-1.8351611112650965,0.9757021291297188,3.888914390062743,14.621569397832072,5.580665209812112,2.827346745946266,2.9151863082933795,1.3805186097045177,3.736321784045158
100,-1.086652555704429,-1.2160921251205195,-9.692676265588233,0.20698178982577248,-1.7836564492040365,-2.6348592990937143,-0.39045353609010763,3.7792348007520764,13.166039224258407,4.438684692029635,1.9456830759224808,0.22802351064250592,-0.7426466114910253,1.423085675667473
101,-2.488355927503392,-3.8806889649723404,-11.04953883525925,-2.130077235094187,-4.232514899902153,-2.554398029445462,-1.5314584063206178,2.505577335315773,7.600283729965006,1.844284809242077,0.42749931930923585,-2.5192424188787936,-2.7034609736280326,-1.4537223870803022
102,-3.464993923748492,-5.865436769206185,-9.316654289778867,-4.036750286020041,-5.563064412350607,-1.5459205752723175,-2.1934806026305123,0.45789233874083235,-0.29692135396157027,-1.5534764069343656,-1.4733484455023351,-4.913413247090598,-4.166710867616511,-4.388964690515562
103,-3.8119833130146112,-6.643793291713085,-5.563106049351123,-4.809497101890795,-5.299431740928165,0.12412682583692318,-2.2558279711855587,-1.7153006183912367,-7.976774177013397,-4.768967167903978,-3.2962286108744197,-6.55098111114714,-4.856687476139874,-6.730251674330755
104,-3.416041026612238,-5.9306623710492845,-1.2763875058848217,-4.080275266442028,-3.4424694912593354,1.9414557484383699,-1.7554723748470231,-3.327492916825104,-12.978155792073474,-6.786437599481299,-4.496998827926101,-7.086366187999155,-4.605233829276882,-7.832491393676152
105,-2.297239852698683,-3.7895456209532496,2.156208168061662,-1.9576888396627357,-0.4846176487869245,3.300073748338956,-0.8713002846520843,-3.8855926001837218,-13.754598550494265,-6.904040352968626,-4.631729795734874,-6.3079763493200085,-3.4048331279923336,-7.2567701126348
106,-0.6343579664339162,-0.6564555053981576,3.8679670166096725,0.9856823808726712,2.7302803214589524,3.700509327396934,0.12847212133876243,-3.2504682466733428,-10.181489827073728,-4.992531675476391,-3.533467754636584,-4.224354540888897,-1.446232268349217,-4.946530484068744
107,1.2453592123384984,2.7406609158156927,3.711941429433081,3.8801771854293694,5.260128158609586,2.924784778499759,0.962274995913392,-1.672322891946904,-3.5692081068862547,-1.5696228889194634,-1.4095535326995454,-1.1249047404039,0.8854302737828665,-1.3101069191840988
108,2.923051977534966,5.557108281449888,2.2006117644009677,5.82895650791142,6.3519569841726256,1.1269867432079008,1.4138945477355624,0.30729561068225764,3.8152536674053796,2.3462590373173864,1.187913908554644,2.423296148675799,3.073495756687653,2.8364460474712665
109,3.9862931686703127,7.058396752771017,0.235934321313085,6.194278524307935,5.673236190577088,-1.1958330105625181,1.3914404766219863,2.047692586948607,9.541646197397895,5.559705743705658,3.5192561462523675,5.665243424276168,4.588237483140085,6.465827977857844
110,4.144165738912114,6.833400344225328,-1.2574745746809528,4.806512092434684,3.4142128003164642,-3.348218621724846,0.9489551495036235,3.0249240403143096,11.840540431778283,7.090336861882497,4.892764869846794,7.826719229285539,5.032449811711794,8.623592078283394
111,3.3227187277657055,4.92559258625423,-1.6635934931933416,2.0264942725180224,0.229212965441491,-4.652427594153188,0.26380200463599346,2.9961221972449636,10.170434448815781,6.49653476869013,4.896201924432957,8.321284080203712,4.2680200137679645,8.712018761342584
112,1.7048120487881981,1.835258294950739,-0.8636895911119172,-1.3604365930739004,-2.9640252661175612,-4.666295628350936,-0.4233487034322014,2.0591623154928937,5.340010318044367,4.017007226919509,3.5396668882012463,6.932791637011104,2.4762831962159275,6.679799781176624
113,-0.306109044583907,-1.6150731349989234,0.7667852761027827,-4.385067185659468,-5.263038556471403,-3.3305344481995585,-0.88692334397347,0.5942267977372534,-0.8383823175622473,0.48105133169091874,1.255869479536424,3.910075696049884,0.12329858578109625,3.05128809488842
114,-2.193197700832947,-4.514877181706478,2.534022360953585,-6.191698554595862,-6.049356823924439,-0.9955613173904255,-0.9878854456818819,-0.8843525421454503,-6.221469663566188,-2.978792310826403,-1.24418802390243,-0.06638330502137667,-2.166755523929938,-1.2186041975990287
115,-3.4732985875244573,-6.128044773225183,3.6995069872986104,-6.296327379144985,-5.16382269136289,1.6821167139481246,-0.7149805622418619,-1.9086712095106924,-9.08301929643136,-5.308145130073497,-3.208902965169475,-4.046224414992754,-3.7931588215641243,-5.019587473332249
116,-3.837043341014401,-6.100893148635319,3.7502231585861554,-4.723767012847536,-2.9364853877992734,3.940361144643494,-0.18274314492262023,-2.206288360978256,-8.672400824581702,-5.871650094337043,-4.092092077268214,-7.057330040267753,-4.356442452229045,-7.403923075949991
117,-3.235931784285299,-4.550344670582937,2.5734172722932263,-1.9830240293837673,-0.06660616348832418,5.143166066542552,0.41197772300253344,-1.7699881234344155,-5.400692270368351,-4.637155283589412,-3.720676886641572,-8.368309994569568,-3.7728882224649136,-7.847041526457478
118,-1.8880574863703043,-2.0066054448734825,0.4831181870202499,1.1059685521537812,2.6039458799696287,4.968984287987572,0.8591339204665,-0.8319872619420815,-0.6135701151138919,-2.1468980649889797,-2.3280475807891823,-7.686777283771947,-2.287523698589439,-6.372252530549348
119,-0.20204140960070371,0.7668873712563247,-1.9003838625787317,3.6732675672656674,4.348472343890871,3.497157519057089,1.0061278399400833,0.2393939515475498,3.941524361863529,0.7028926932994494,-0.44766076312449504,-5.234039258757326,-0.3829671217262113,-3.5080048480919133
120,1.353543470363728,3.0135991774915425,-3.8672139927148605,5.060540798298171,4.7625251052299244,1.1693317401090553,0.806269774429043,1.0776865921883385,6.74595960615751,2.986074847954044,1.2878863542325747,-1.6751695357138274,1.3821495556903332,-0.10140415807470872
121,2.390593980733268,4.204181718252007,-4.851123225346875,5.000494271618807,3.8588396410578794,-1.3558648267841422,0.3298768553396564,1.4402586117071763,7.0106435997874215,4.055052724874609,2.365383224001318,2.072134217111571,2.5480075269403266,2.9443253066597848
122,2.7060552292668483,4.167891571354683,-4.60029393033229,3.6626861027236495,2.0280178322306917,-3.4036609294001225,-0.26382145047722305,1.2743577904564687,4.882270091635639,3.727774912004727,2.5487068842155898,5.0907016267618115,2.8825621111372564,4.9223645399988545
123,2.319984693864459,3.1003482716215345,-3.234516987657565,1.5612199237239743,-0.11284808927382217,-4.474431509724069,-0.7825885022238536,0.7107635591084043,1.307484097388373,2.298324433353643,1.9250201829845677,6.7039383036939375,2.425134019071527,5.490207726477383
124,1.4412048198037055,1.4570271090568676,-1.1803833299246285,-0.634713174077788,-1.9271188730741045,-4.368772618392091,-1.0649222706493038,-0.004454248452194067,-2.367696668505126,0.38343995087470173,0.8335800008101898,6.635703607690093,1.4379794930982508,4.713037985143948
125,0.37956348388492905,-0.2204384409830777,0.9822847610725209,-2.317969767659,-2.951125389676293,-3.2154690660091805,-1.030295238874746,-0.6090824919010258,-4.898797130958554,-1.325051478652082,-0.2851356855376968,5.050844066221856,0.29214592025101555,2.986340397421234
126,-0.5601988887524842,-1.4801154023733578,2.7037729403304627,-3.115962011765138,-3.012753002881443,-1.404226847482022,-0.700367654815213,-0.9164952546761285,-5.55897015539294,-2.304652797576549,-1.0565431373361236,2.474686547381988,-0.6655241476044275,0.8783457471738183
127,-1.1660028134175733,-2.0795471309677644,3.616020035038446,-2.968184016027827,-2.2459357145960515,0.5467041996427736,-0.18618958969046093,-0.8687961794181136,-4.332565891756416,-2.357124918869714,-1.292519106456221,-0.37558322232537206,-1.2160876181572762,-1.0486679612186247
