,AF3,F7,F3,FC5,T7,P7,O1,O2,P8,T8,FC6,F4,F8,AF4
0,0.45522359441062094,0.11802410085596504,0.127834908768315,0.07838182050795393,0.055901533856527075,0.4245679712701419,0.5019424154655331,0.027231548984878996,0.32438622264115274,0.23466930805353553,0.437685599564449,0.4082833855475067,0.40129137262890524,0.6474724175158446
1,-0.7435432275906658,-0.15104271728546698,0.3070945878428538,0.9356640698199209,0.022394340140693452,1.5321146506969399,0.9866803413564103,0.8635449386313593,-2.056648282004785,2.0384662130359783,0.14526427922684831,0.0799885999275036,1.4889463477099985,-0.5340699417881211
2,-1.7293424295360513,-0.42898926718921565,0.5022528342915422,1.591907104314931,0.009236636790064473,2.219351834515006,1.3780439055727018,1.6974047159506396,-3.5101655203905366,3.692176593321171,-0.09394053055353813,-0.10051076675127024,2.3496883061894986,-1.375284177344081
3,-2.2932850097586828,-0.7223892282185147,0.6761849016430315,1.8568255836858696,0.040739980825871394,2.386949787464246,1.7026048979709774,2.4554623334888594,-3.370669569222123,5.010465331404038,-0.2262707114099037,-0.04277123697866127,2.783677590963024,-1.60931848951199
4,-2.349210665503252,-0.9997653639426999,0.7569211231002618,1.6312126157172513,0.1133559390420323,2.071049645294924,1.9082696200668796,2.978762029578543,-1.6049157389055846,5.7283836945637185,-0.2650603222391652,0.20837058764115224,2.636464893918463,-1.2151210482576686
5,-1.9514261359198042,-1.1931185294457654,0.6590896438257442,0.9385349812181574,0.19406866916686105,1.4122249370195912,1.862582200162015,3.049798779425707,1.1530671060878797,5.54745464357446,-0.2834641523225763,0.48707086937411803,1.845598249102962,-0.4216635101389757
6,-1.2663600851502541,-1.219637589094887,0.32428399137882813,-0.07181710161825933,0.23346073438757714,0.5995093738069924,1.4110343103919796,2.4733289260930538,3.823781797404851,4.2476222540550275,-0.37454331154399256,0.5790647512735577,0.4855144571666479,0.3859656934939293
7,-0.5085518041660952,-1.0151774018264208,-0.2357497431769856,-1.1532729650414795,0.18832019384839369,-0.18976748037820196,0.47208627882551635,1.182550788740608,5.2840430145273745,1.8250176307973116,-0.5953176691088804,0.32388602746181006,-1.2097350734953534,0.823520381927858
8,0.13540087278691668,-0.5663190647121404,-0.9142738946462339,-2.01906266593585,0.0442228621774222,-0.8340232938078158,-0.874995444119082,-0.675247410648068,4.802398704537086,-1.406504959776069,-0.9207239752857194,-0.296407239918516,-2.8660456941007473,0.6673102298214498
9,0.5666323304231405,0.07176842381265036,-1.5201332734565995,-2.4157889953994065,-0.17196078301009282,-1.2824435105243346,-2.35553159193431,-2.7188682976435796,2.3451978470088726,-4.809049915707819,-1.2315174356147662,-1.1221591497880472,-4.0406755906800855,-0.04614883548583155
10,0.7952387160645801,0.7793399293079722,-1.8281638755249474,-2.195671625009307,-0.39595179393786734,-1.5398613604170965,-3.545947684511996,-4.404050129666489,-1.3662672616101164,-7.538855193985172,-1.3473082836318029,-1.8550034597765201,-4.33667429033859,-1.0217835678165679
11,0.9154137873448693,1.397974151938589,-1.6571330615367688,-1.3672308119515582,-0.546173545017663,-1.6323175194025605,-3.9973401271386164,-5.175831275828645,-5.078389286545787,-8.771357881614568,-1.0970067840369135,-2.1617125006992337,-3.531676195824768,-1.812216060563327
12,1.0451064173868772,1.7710214502356247,-0.9488030736600475,-0.10746004216859581,-0.5532843319724581,-1.5717535136242697,-3.398605139370113,-4.658258545608374,-7.4361856357193306,-7.969015239246111,-0.40156352668346124,-1.8066697218665355,-1.6794512002458695,-1.9916725415446026
13,1.2554527375879816,1.786680208696397,0.183472867858702,1.2725271870717763,-0.3882123516858108,-1.3384663302114297,-1.7202607887844936,-2.815259263185581,-7.472430395050537,-5.100510896320915,0.6646585894562127,-0.7622439967334529,0.8568055494033807,-1.3331503427710405
14,1.5205148427292936,1.4112256624650035,1.4612079993112155,2.4036707624575127,-0.07781313306733174,-0.8920975377704642,0.7199380165552641,-0.01774937998594515,-4.979005843069744,-0.7248960914248372,1.863144035097408,0.7488267194355951,3.464100214443517,0.07954097393018296
15,1.7112009877172478,0.7031116822378548,2.5090419427595543,2.959177514080594,0.29853550781640376,-0.20861462387377597,3.3056617257676115,3.0213754442115675,-0.6218862654238827,4.10743646079759,2.8437849136322924,2.301877146460995,5.428382731637569,1.851564276889923
16,1.64050009829815,-0.19584055942091438,2.9687135046261783,2.75162559592719,0.6313067043833352,0.6729302807561646,5.282432630545586,5.438379851439621,4.250469896406882,8.124769982550664,3.2501071848741696,3.3991838971830606,6.136906160755775,3.395296821515798
17,1.146215220314315,-1.0900651836533546,2.6232101270222534,1.797610279276837,0.8152030005333376,1.618193708655739,5.986312847650774,6.482959785595922,8.047011885378886,10.201280538646191,2.844860146712603,3.6377009590177796,5.27500849526078,4.1295700735385745
18,0.18017731382377067,-1.7738692025886633,1.4873954093156176,0.3272364365623294,0.7840976292292864,2.4023810421153,5.068834173236504,5.770468974382915,9.473835752178754,9.707198288724522,1.6119592241354717,2.8569078138743405,2.952112526757584,3.6906492348288333
19,-1.1334095256006569,-2.0794560961393262,-0.17118321112705964,-1.269620063039336,0.534588320116099,2.7620521285433886,2.6411518292205236,3.433060002900309,7.986264895035244,6.724567043386214,-0.20563422939128034,1.2118746275533216,-0.29221024459342076,2.078431711881557
20,-2.499805281272238,-1.9189349598165968,-1.895937545354088,-2.5493801117647794,0.1298423881318391,2.484204655321053,-0.7179700276216217,0.10907967869014351,3.992710270780699,2.0492179725890596,-2.1534440096140903,-0.8589528050361771,-3.6162545799436407,-0.31791939364443794
21,-3.5244967409193477,-1.3106910481987835,-3.1748746281897366,-3.1445226105113937,-0.3180829065902306,1.5036642793034876,-4.103666008372953,-3.237209266606025,-1.2657377482904426,-3.0323553523048155,-3.6908207182501447,-2.764984679041562,-6.1087569153723145,-2.828852819967535
22,-3.835460091544638,-0.38278758826112613,-3.6034820547003146,-2.8780066206998,-0.6820943226755896,-0.030715902058906824,-6.540328895668583,-5.61405477120892,-6.123172023616243,-7.126804515627113,-4.3575437038869325,-3.9514772512891225,-7.058811727537473,-4.713783962104978
23,-3.217469467276585,0.650007983553129,-3.0225867414679994,-1.8247489305411189,-0.8593126087186317,-1.75620831432337,-7.27565504489803,-6.322441981355173,-9.045948444271918,-9.157041675326566,-3.9269883155215566,-4.080164831402321,-6.178137602177042,-5.400309931577648
24,-1.7099860959148745,1.5334474081699214,-1.581996346999329,-0.29674263545796,-0.8030399857362257,-3.1778453953986183,-6.021704360092632,-5.188833855741023,-9.146923841241705,-8.68610060956574,-2.4914956762987135,-3.1392481065931332,-3.7008683833122547,-4.671013652005093
25,0.3713366716765102,2.0366724098057594,0.29621932836014886,1.2481310562361236,-0.5370157975967482,-3.816553770769937,-3.06403703182921,-2.626611839315064,-6.478153745037951,-6.033492920912022,-0.4457738058788194,-1.443325667545482,-0.3226876926944317,-2.7333211894329508
26,2.505318591553216,2.016204906224299,2.047183988120725,2.3479955742170384,-0.14721469505354096,-3.379356072692575,0.8012644442636264,0.5008369180700393,-1.9998453912306227,-2.144708560408959,1.631688190710002,0.4774028994298504,3.006852754446418,-0.1487555519776485
27,4.111861039943921,1.4632411847106501,3.1448355133039603,2.685064802939714,0.246257818335833,-1.8905980604576746,4.489826888360824,3.173246508452042,2.7634148262399703,1.7410824109710874,3.1626705451060144,2.059582922096514,5.374961120918109,2.352731755658205
28,4.729750146749679,0.5178224245934319,3.2749247765541805,2.1904309711993055,0.5280595286433122,0.27180956139938905,6.946811981919676,4.563451674471782,6.257853259252528,4.5097041838593865,3.756688655664894,2.8955515514368027,6.18507197249011,4.107697310306732
29,4.166679294853246,-0.5594648400376178,2.439141762248912,1.0680266555161109,0.6245240833488023,2.4631500827918424,7.464396187910796,4.321015789298952,7.437595512160579,5.530863176452299,3.3356022115969988,2.86071783984304,5.332354558424707,4.721618034919502
30,2.5687540260453887,-1.4557244504594424,0.9523282133213229,-0.27373821498872525,0.5263217454597756,3.9665034096297225,5.900059642388034,2.686240137073495,6.1127710659946155,4.8321134315904954,2.1491602054279166,2.1340393421273935,3.2162837635236268,4.17045253069098
31,0.3823661024503691,-1.897778651303693,-0.6683605969919134,-1.3623521437613453,0.28920185397652265,4.236727708507625,2.7252099638055434,0.3898805818255501,2.9847471581919165,3.0293070920649274,0.6736391106742464,1.1058596661645024,0.5867764400375576,2.770995532175183
32,-1.7820275033643467,-1.741096598057714,-1.8846947199863817,-1.8267584173443832,0.012465922268485355,3.109107057709557,-1.1146304407162144,-1.6285537958998337,-0.6429027899212204,1.0439455884921054,-0.5709129822579043,0.20988469755875383,-1.7216561325614994,1.0379993224573343
33,-3.339968520473448,-1.025506411783223,-2.3249352934286405,-1.5300290815183109,-0.1975090979875088,0.8913613682134619,-4.487520843160964,-2.58241668110405,-3.370729672102885,-0.28278664793784014,-1.2171341787859034,-0.25458329369076543,-3.0736957203968616,-0.5133151065511738
34,-3.912820454847111,0.02528415318599431,-1.910022373063358,-0.6203041330397164,-0.2659919967200279,-1.7069955381724,-6.422053804304989,-2.1444116652987733,-4.238704117604968,-0.5296038804408761,-1.1849596996262053,-0.23948118845712396,-3.2345388899215,-1.5430107246914826
35,-3.4362704829539465,1.066488797613776,-0.872192280862053,0.5212359463472249,-0.17709523674276897,-3.7971370869680787,-6.404199039157466,-0.5789447197347418,-3.08861509252554,0.1454515478847202,-0.7000541979506562,0.04387146607171025,-2.418420965603363,-1.9758955433456256
36,-2.161771098569584,1.7417485175062117,0.3407302149214504,1.4196742859843392,0.020462021565461643,-4.616164523296104,-4.529082329907959,1.3565564820076221,-0.613159686175674,1.0915770123321145,-0.18563841496323416,0.23050749596150255,-1.1702785779461415,-1.976618127950535
37,-0.5536709999629796,1.8048571822980182,1.2393132079068854,1.6843484266554405,0.23140175615975653,-3.808981764419593,-1.4586445884870471,2.711426629401124,1.9325637000751854,1.4676393073601937,-0.06783262660943369,-0.019710465107060725,-0.12846252738189445,-1.8289195017675155
38,0.8780903264339813,1.211151436266497,1.4790097073526172,1.1607324426232797,0.3496018529111936,-1.5811339336884707,1.8009204014722717,2.7332212205096824,3.2522079434837408,0.6423458768122265,-0.5718596916049015,-0.8438034115499564,0.23920749073594208,-1.7756286662247796
39,1.7481740387246123,0.14333639457034927,0.9885853414525787,-0.0011436153623554423,0.29894271163920516,1.3423252501424445,4.228785773711922,1.2002327470541312,2.5630287079164207,-1.4710892815284238,-1.5944096503287517,-2.074317685614561,-0.17591079610793317,-1.8903160556422174
40,1.9091090063509817,-1.0419567884385577,-0.007794473416174601,-1.3898757306009333,0.06479192492592728,3.948729329574163,5.117505017845074,-1.4405261820206432,-0.03593466889765199,-4.29138827955625,-2.7111949352570153,-3.2644826916839076,-1.0828086720842036,-2.0365581582802412
41,1.4716597670629756,-1.9320634181605174,-1.0821797534692068,-2.4749743622455576,-0.2952627943029726,5.286163813132571,4.291429442902946,-4.1970128878415895,-3.539949670491924,-6.725651764687754,-3.326955216392966,-3.8406744459815703,-1.9144534025665982,-1.932899980141049
42,0.7323658735084483,-2.2010213069964273,-1.7719108382221147,-2.7987462165443393,-0.6658464637410333,4.807006405250703,2.1445967586755095,-5.8863121714348985,-6.389465809273832,-7.565987045782664,-2.9174589115218303,-3.3309524862860536,-2.0683123758819915,-1.2964550316829515
43,0.042332189957293126,-1.72647520037698,-1.760603236222535,-2.1488189680034036,-0.9094109007048146,2.5815065597829197,-0.5117324371348126,-5.596131367392508,-7.080350443088219,-5.986784018052282,-1.2722429560222597,-1.5837352794411796,-1.1712564531984095,-0.0040348283214870564
44,-0.3294972616180065,-0.6377412751655324,-1.0017405623514517,-0.6480295763007975,-0.9119950321286556,-0.7011314964029851,-2.737329984918769,-3.080772606215819,-4.808369539228714,-1.95188414919576,1.3600441126445948,1.112140926237117,0.7341425003288351,1.7995520183199214
45,-0.28749746595174225,0.7238152267693605,0.261506774360516,1.2726364454827195,-0.6245781174055127,-3.9520080216133695,-3.7869275283144157,1.067388582480166,0.10639842530328979,3.6391852279644743,4.290562038011856,4.063036219835174,3.156810110118301,3.6971550390616
46,0.0748240646152001,1.9191203165741177,1.5863355489741633,3.010624891255359,-0.08647572542753072,-6.0501741854847335,-3.358683104895904,5.554237156593715,6.202256203457143,9.1494061307463,6.581501558247793,6.36330125628924,5.296756591052124,5.109859449860079
47,0.533123319838842,2.5600711983246467,2.4945541661803023,3.991258992361623,0.5776293069460752,-6.231353786877817,-1.6833840420801196,8.799510035878075,11.308903132253063,12.705364930511257,7.352812932391791,7.1875454885306675,6.312742379091887,5.488077174334823
48,0.8353239447355418,2.4396895157488996,2.6481239233729643,3.86100808835877,1.1876812732054172,-4.360442082360377,0.5732952587984377,9.495567221895136,13.30376171922009,12.84231480359832,6.1011099186418205,6.083984398885599,5.626204848549189,4.515748971195295
49,0.8057566160806646,1.5980799262310093,1.9704693187422873,2.6079513137110566,1.5577972765583832,-0.9901509555155074,2.5578867151716467,7.110932925497972,10.930982142054878,9.068860107600967,2.9170063053976345,3.164139574483158,3.1546023894855706,2.2523169441875677
50,0.4102348735464868,0.30252995582494735,0.6702331767584069,0.5688033568523514,1.5516807735473677,2.8166120795115304,3.5364248944170833,2.148704926810102,4.37819835378628,2.1403328782527558,-1.4825202605021945,-0.8843591249398467,-0.6103024953292913,-0.8427664819744739
51,-0.23914341277505727,-1.0484397336713018,-0.8380751735949344,-1.6783312165196707,1.127733757472171,5.839575754967369,3.1530207386238307,-3.9505468963955575,-4.626702891064375,-6.078986847520143,-5.929251368028375,-4.976224472509722,-4.712171673379152,-4.0176722154444855
52,-0.9352824454519628,-2.060353825418049,-2.0836511836483624,-3.49721306495534,0.35975860184474046,7.106713457398934,1.5495917809496853,-9.247566446773963,-13.276082247113953,-13.145492411384433,-9.13856415974887,-7.946798130813592,-7.99808369642481,-6.436699685774221
53,-1.4579694193629937,-2.468290102636859,-2.701798766695716,-4.389897022541991,-0.5746051222308137,6.212965286561814,-0.6929306779704149,-11.946132912661831,-18.57771557477379,-16.799223569463315,-10.100884975703888,-8.909367827848158,-9.462421342726737,-7.423695136205841
54,-1.6517683145517987,-2.2097732172815165,-2.549920877063869,-4.14158380339987,-1.4366022781476824,3.4449489403738918,-2.7677754568403747,-11.019187127188902,-18.39410933525848,-15.712213717016162,-8.405233013839458,-7.535280441137558,-8.558993955927589,-6.663000412631772
55,-1.471003574649717,-1.4239275615951081,-1.7382891199512969,-2.8695956671908207,-1.989843685399027,-0.3258738358968945,-3.931494189399265,-6.597027065891375,-12.263025673852637,-9.967951326335244,-4.389895264244878,-4.1647209275425725,-5.383446390186793,-4.295504347573187
56,-0.9795720360087979,-0.3839541604102971,-0.5706153616810661,-0.966725309411242,-2.067270510018175,-3.9384098461452295,-3.7653162592299716,0.028570558877495978,-1.69128178585428,-1.0995500706394687,0.9308912394015565,0.2886580474094993,-0.6686971912107281,-0.8823272830441183
57,-0.31297059142729017,0.6064280839584625,0.5769512925918397,1.035039964901769,-1.6221704882911387,-6.31973451976425,-2.3169724798206506,6.799269120554338,10.216666569873789,8.341880202743488,6.145146575703771,4.608675660669894,4.406033789472648,2.7492533331480926
58,0.376008922217099,1.3117383584101265,1.389217985490331,2.6300657021313345,-0.7474221696577432,-6.816622503075559,-0.07579892023487773,11.55865090345734,19.705303418054513,15.559769290526793,9.843318269586636,7.636112327194184,8.535807055066392,5.728176306709583
59,0.9633999270738484,1.624074902090519,1.708077249419223,3.4783618888829797,0.3442203986969319,-5.374637633766507,2.205741837708979,12.769370116396793,23.59165840467367,18.37995232439195,11.020267283891183,8.603066553322629,10.646026034546074,7.363917109550212
60,1.375546094315387,1.567438352237482,1.5601882446673534,3.477483841380245,1.3747217087870822,-2.516430161171865,3.7769512507511886,10.032400073651047,20.356047894300676,15.933087792840283,9.359505695877527,7.339780587420102,10.182005646512911,7.311219001066324
61,1.5838644536301212,1.2546771506434482,1.1139706363474884,2.753139592335899,2.075630343003338,0.8587419887609323,4.144583808358895,4.227105320771763,10.718841493061063,8.929860406015376,5.317410798288405,4.29575488261804,7.2525672227035765,5.636331838355467
62,1.5841328161973882,0.822432805283931,0.5910145466441943,1.5837220397097378,2.2621244358554047,3.774877440510936,3.230338035681419,-2.7788672084605257,-2.513474660203014,-0.559522127338731,-0.013510430577697734,0.3780830453979753,2.592550258111683,2.7769790131522063
63,1.377531896029625,0.3748504435302846,0.1720714638860533,0.29421055127765655,1.8848440484625677,5.47368933946659,1.3792578541549394,-8.751533009196113,-15.303769022293682,-9.747998547187416,-5.217519300161272,-3.3331567207337893,-2.639042017805352,-0.5828642562444356
64,0.9669113472939805,-0.041379486375812076,-0.0644902352848949,-0.8402653806563288,1.0442431357062896,5.611413969229523,-0.7771320200283826,-11.830782146076443,-23.669679189791164,-15.987083256672618,-8.950007527572048,-5.898509880385175,-7.164664287173312,-3.683863976722039
65,0.3707558711931649,-0.425257951459061,-0.15120871250111392,-1.6514270372095652,-0.03701548395430124,4.308097620406973,-2.548145231133675,-11.135365986987054,-24.974226122872754,-17.56105463573708,-10.298806936096554,-6.766205801101957,-9.912756087555012,-5.863579992871355
66,-0.35484329125057806,-0.7855623238363453,-0.19055997855946627,-2.0855793031512015,-1.0758611434921113,2.0536847142683174,-3.417801280659011,-7.028555824568922,-18.788577081278333,-14.17251963390341,-9.01253700922368,-5.885983258229685,-10.276622832911695,-6.69277468811543
67,-1.1027045633892694,-1.104023105857317,-0.28836666271481914,-2.17262619201394,-1.8070447351511278,-0.4790806949479572,-3.2035829307048163,-0.9608018344847545,-7.035279388481896,-6.978361785552438,-5.538783980277351,-3.6701000973676807,-8.245614757923157,-6.0522449733485315
68,-1.7236818557755935,-1.3197679926271007,-0.49385405280790684,-1.9796092249400399,-2.0552666713269234,-2.642695732386208,-2.089672852416316,5.046521572560999,6.636911293130307,1.816722211502383,-0.8714185311229462,-0.8300666839792574,-4.383106409357515,-4.14168191886576
69,-2.0618360888642897,-1.3453853514256988,-0.7725259271222085,-1.5729220953583514,-1.7805839591845662,-3.9774635409346004,-0.5317575797798754,9.090036659259201,18.035665131997906,9.662462690744837,3.7405674935405213,1.8489049050820696,0.33440387228618873,-1.4247164596042
70,-2.005236760742394,-1.1082203271651536,-1.0212616626884434,-1.0037649618952063,-1.0844766105791266,-4.289730074780357,0.9237726211562332,10.005839508183783,23.767823650001514,14.42912857901054,7.135499274251112,3.7237949139213256,4.769887876101895,1.4764282405225095
71,-1.531944524680142,-0.5968462761242932,-1.1157216954380278,-0.31691628061784477,-0.17564707359760046,-3.6426882573446586,1.8358390652316448,7.715047101521447,22.296063555167503,14.999448322817543,8.537272853189076,4.44142033141871,7.904114985205836,3.9165917856760193
72,-0.7299115329520032,0.11145103267421373,-0.9668838539113808,0.42932535578101877,0.6934711906460062,-2.2858951391561977,2.0090410765138427,3.188155643989786,14.36729026133773,11.518381629789854,7.732442170571687,3.9879807992551037,9.071992407260204,5.368553049300034
73,0.22099595875707473,0.8588177000632771,-0.5615683595914496,1.1487272053448307,1.299980811544161,-0.5625154874986096,1.5326633017451818,-1.941193257883868,2.6890296842955577,5.2512002153976365,5.087147137329469,2.643137578586336,8.103209461813618,5.5410449483096365
74,1.1008735138311092,1.451425252948221,0.029021314846297153,1.7304564437586765,1.5114947833359196,1.1719537249805345,0.7127025015659705,-5.96310176892546,-9.014639013137577,-1.8747898441284616,1.4105275605926277,0.8667690484844982,5.338789284783504,4.44673824314774
75,1.7167055197796879,1.7244309760189347,0.6735095398827368,2.0619130808878054,1.317021448816477,2.6030546239089074,-0.06918817543184917,-7.667458802680674,-17.23275691446953,-7.87890175218945,-2.288303970654499,-0.8411106335965844,1.5253982960794599,2.4002626569712087
76,1.9585318474714255,1.6010450120227495,1.2241940544529035,2.062014984422701,0.8197628276781864,3.4855256361754683,-0.5113877010730178,-6.7127933018420896,-19.765061395397108,-11.289752165720788,-5.077784896324644,-2.0681276736351895,-2.382394534210874,-0.05912557520525172
77,1.8233952667570232,1.1208130551623365,1.5609281005805995,1.7101410589610366,0.19603740968193564,3.6603177434371412,-0.5027120985671,-3.6743807739798418,-16.332062859697288,-11.499635922028194,-6.340029860178171,-2.5769675570680137,-5.461305129690813,-2.3058906501801553
78,1.3994746602378518,0.4247536212401399,1.6184951935672227,1.0577531090285426,-0.36482373071887303,3.0736635395658682,-0.14847453118833048,0.22408260460808302,-8.523073860615828,-8.829403442187171,-5.90608743988245,-2.3394267791918035,-7.041063510478677,-3.793770792573604
79,0.8199755300900746,-0.2967667899958158,1.391040406545518,0.21772818950863485,-0.7192248862874321,1.8003553305844584,0.2925698693087122,3.581254150219465,0.8600704059298979,-4.320140387818682,-4.061801816138147,-1.518043943396675,-6.855250086979309,-4.2026897771164995
80,0.2090230732067329,-0.8716628265457013,0.9187087633614655,-0.6636639912023834,-0.8077379866774116,0.05950849861155853,0.5308103125511853,5.314068920745191,8.804909253307173,0.6511525976218018,-1.4321225330827663,-0.40636513844448025,-5.0858909543119015,-3.52251405332518
81,-0.35584071709715775,-1.2011046097718956,0.26887127821473017,-1.4403665299134232,-0.6620943665490892,-1.796847460804906,0.37668722399504767,5.004302713662604,13.076119417933322,4.794321132682134,1.2163282226984573,0.6552675429676013,-2.2932501242088885,-2.0456376470766626
82,-0.8490531163288588,-1.2796797701429963,-0.47609443451797917,-1.9933174633505077,-0.3810311470323245,-3.33809745921967,-0.17263282350431686,2.985390076708849,12.858568383042089,7.237783886099832,3.1951248768523692,1.3690764438622198,0.7484374061735971,-0.26811137046819544
83,-1.2712109033346675,-1.1744109887555114,-1.2198067749886805,-2.2434234274359057,-0.08616439689721847,-4.1523235424319775,-0.9247024880913317,0.15825520475628932,8.867185609092141,7.687206042716649,4.074480189624557,1.555096574934877,3.264041004875849,1.2708173500596838
84,-1.6089797104876766,-0.9749663409944145,-1.8469046041514645,-2.1519843505816096,0.12451595044770027,-3.965360724696275,-1.5643004055857213,-2.378306665779044,2.933487020258006,6.394951730537689,3.7767058226836303,1.19549511266563,4.6811773693948,2.15905382766374
85,-1.8057031573284483,-0.7405598713961083,-2.224158846499596,-1.716298530639224,0.20820902117031787,-2.7436230557987824,-1.7786832627036926,-3.7371779146845627,-2.7406826625611167,3.9842562698339576,2.561897780801381,0.43651893145869336,4.76887542843715,2.2352545997177966
86,-1.763443576444639,-0.47058794813783467,-2.2192215308642327,-0.9692644380448507,0.18333110378441386,-0.739277750284786,-1.3872821776223174,-3.542927952258268,-6.3716956340294555,1.2079300873486556,0.9167266463288888,-0.45462673763680467,3.674196511791203,1.6239142495863264
87,-1.3819923622508856,-0.11487317279375203,-1.7400216967795372,0.01322912992247435,0.10994597656150115,1.5498102612755402,-0.4258357200551288,-2.022802410401185,-7.145584636995471,-1.2743153062121262,-0.6149823341179315,-1.1692608184801667,1.8494743060145373,0.6705870589369761
88,-0.6208157231513857,0.3799114352723217,-0.7847850777479378,1.1017913403457342,0.054753571810440826,3.5052318379004794,0.848282798693778,0.12829870557614337,-5.363195742838776,-3.0387654103458948,-1.6051701793144248,-1.4528462123976278,-0.10458683899548621,-0.19860057534019898
89,0.4449137812934198,1.0099485206197374,0.5184591700993528,2.1115659216417306,0.05667568777663434,4.566320296209136,2.0339196466480804,2.042722885274612,-2.171845423538532,-3.9373340615485812,-1.8639158044687791,-1.1889030427596583,-1.629378340100384,-0.6413692488187143
90,1.6054990748297986,1.6720583610783932,1.906831526806584,2.8214053794893412,0.10829750004215755,4.406125285010196,2.721095884427608,3.015128875561405,0.9731455013767565,-4.047871028302356,-1.474704197845547,-0.44355593656685877,-2.3722117533978606,-0.5267687753239307
91,2.5540589868907686,2.1667354894170536,3.027295610304226,3.019761949167318,0.16132315525740687,3.0447474723032824,2.6358553209351503,2.751603643996898,2.8891448332061738,-3.574226124833263,-0.7352077347624102,0.5472036012580472,-2.273042804613994,0.021725303103402357
92,2.9760294998167605,2.2554440060239167,3.5281929814372446,2.5700983775610298,0.1536548484285061,0.8570402698541156,1.7435054359248772,1.4469846055388074,3.068924845769885,-2.7422435571412556,-0.027777071892596095,1.4479898721954447,-1.5499469589826287,0.6835381976496535
93,2.6626829348979797,1.7566000528586234,3.1737757336905847,1.4755580583857633,0.045962682893081586,-1.5337613378508044,0.2727718518916261,-0.32612531720964544,1.7747055542258279,-1.7282060547415088,0.3326695720216957,1.9328217442147808,-0.5934383810394317,1.0768819722786502
94,1.6058221046840067,0.6440188336834947,1.9431234689722148,-0.08421313580641493,-0.14931786049710782,-3.445257990452463,-1.3493133659690202,-1.8620351413059948,-0.17647690531704271,-0.6363778521428946,0.21840812133686935,1.7977300570446442,0.18972210470038586,0.9211555896526314
95,0.03279697562698425,-0.8956774605740896,0.073580677530268,-1.767221578577097,-0.36150016479790126,-4.34665309469676,-2.6310770236900844,-2.59925708754801,-1.8175127534602138,0.4792520467763357,-0.2668383078738668,1.0384991640873145,0.5263234039548548,0.16288586853471118
96,-1.6398007770002052,-2.479580693083956,-1.9764796943650669,-3.1422143289718174,-0.4838608884487001,-4.020862606791042,-3.1740564206944755,-2.3234326605983746,-2.445688297410929,1.56977247085512,-0.8351782513401106,-0.13572174983450916,0.3670282115660475,-0.9849931184422959
97,-2.9256659600958477,-3.6259464158715033,-3.6441627170779607,-3.8068921323557876,-0.4184705063787186,-2.6238054893904974,-2.8023753480908584,-1.2235667465030393,-1.8807002720856292,2.5494122277266817,-1.1360919939997098,-1.3615650638237335,-0.11318891242572741,-2.1086963928934543
98,-3.4245062368281065,-3.9075780665682807,-4.427141238865148,-3.5172291956447017,-0.12657146379343223,-0.622175863321683,-1.62068807025923,0.21069550720273383,-0.4784719170957276,3.2792469403319537,-0.9071673055902666,-2.236868393854377,-0.6014826664043466,-2.742633340589483
99,-2.960376727209943,-3.110492665133606,-4.045788718487551,-2.2838301967082044,0.3374930060898723,1.366941287007355,0.018162480409949267,1.4014807079603062,1.080353586937223,3.5870251343668254,-0.09677889260803266,-2.4551884997117033,-0.7853736619664401,-2.5483067495471694
100,-1.6519241097732955,-1.338794909974367,-2.547044405566953,-0.396814447890911,0.826895295152096,2.777862734294691,1.6245561621329132,1.915921671487404,2.118104077767854,3.318641423458419,1.0902077192022495,-1.9136739801689489,-0.488704266413041,-1.456540725947219
101,0.11408128279704378,0.9796007781754987,-0.3106584914851986,1.6383668383232133,1.1434464475776849,3.2700507400836076,2.725566228645766,1.6277986305126673,2.2558397312444773,2.4037347200660184,2.246010315754158,-0.7558706907363006,0.2476263424337639,0.2819235409944441
102,1.800957727972913,3.199391640459023,2.050507076419685,3.241872276510723,1.1089153929586477,2.816591909569109,3.010486276891903,0.7475166909214451,1.5535646618830363,0.9108018318319078,2.899037586033785,0.6677452819898854,1.1721265356767943,2.1603419011888847
103,2.8942077792886196,4.649419032976451,3.8688096822426323,3.9364238554015283,0.6420906247484278,1.682398429687631,2.422194856973329,-0.2852793687776339,0.44526610720914667,-0.9316487877670525,2.6919185957087075,1.9106306646585869,1.915204299398824,3.5761494707272856
104,3.0695617755929687,4.849230359540055,4.623754241807216,3.503281571306396,-0.18883225640177306,0.30700955761947724,1.166916213407529,-0.9976084728135378,-0.49042078464315747,-2.762145536753594,1.534232704785514,2.576382590824552,2.133434332065804,4.0338467700217855
105,2.299276955450849,3.6772875645144345,4.102707052972631,2.063120336314714,-1.1633928939388223,-0.8603725224651869,-0.3580264121048159,-1.0852314659500495,-0.8143231879095925,-4.160979900511788,-0.3294078846109953,2.450997460077771,1.6507584033604212,3.3202902650389152
106,0.8596986266406191,1.4298931372512322,2.46763497125331,0.04998907786387601,-1.9642455409356345,-1.5120670294963134,-1.6927494955586042,-0.5385209101714736,-0.4363772929853261,-4.75614855430957,-2.3683744019753927,1.5756101538707221,0.5416543779875211,1.590111274621814
107,-0.7629826622861886,-1.2551238247067014,0.20527035654363238,-1.9184885486284398,-2.2779549574874625,-1.5669708091979324,-2.4571394402444358,0.3577608590137138,0.342524182911764,-4.331878541716988,-3.924081034012819,0.2339581531121477,-0.8779088449091466,-0.6708271743444306
108,-2.036652377713472,-3.590058706766956,-2.023728465821233,-3.235595384999469,-1.9093107407780932,-1.164920029370463,-2.461966303401795,1.1491098985456571,0.9749341970105014,-2.906801648310871,-4.428745594161891,-1.1419253564082399,-2.151695532609788,-2.794138588109148
109,-2.5607188950590403,-4.883738514037309,-3.5878904075710585,-3.5015422070590723,-0.8682805443348335,-0.5809073815806095,-1.7556688298044345,1.40861378229723,0.9341177348357413,-0.7544667488223245,-3.6110746557984283,-2.1158119419581847,-2.8416627907861263,-4.141093976408131
110,-2.1965321937187765,-4.761381990668915,-4.074799942178477,-2.654905381898203,0.6056825097827767,-0.09869864695657041,-0.5955475708156464,0.9261654709428555,-0.01380899216250569,1.6463525218471997,-1.6146944229621583,-2.391705749629828,-2.68635225892494,-4.307397033475845
111,-1.1069244049954905,-3.2838513259234827,-3.4074573991644272,-0.9935062904113388,2.097803851519603,0.10425217796224807,0.6435138785175848,-0.18816740151561698,-1.6556279635222764,3.7238902865407586,1.0185212763298228,-1.909033914130433,-1.7007308437285265,-3.2519911836186695
112,0.30716681262169315,-0.925540794858554,-1.8521474664018902,0.9242516192901317,3.139229842733442,0.016737585766078998,1.5906843770246177,-1.5305328883606824,-3.370200804948682,4.960693218892563,3.502972039675749,-0.8564864180139482,-0.17966111796442205,-1.3072581958702476
113,1.5493914492619154,1.5818537604561882,0.08078250872208594,2.4654282946101893,3.3585885639502178,-0.2209194171858915,1.9913113747409534,-2.5521026834894185,-4.356456739781251,5.035486568913258,5.0558530494934155,0.39884283855449737,1.3978920577127614,0.9316570476720207
114,2.1994431449859304,3.4866562176311544,1.8069352233704863,3.1331511173914186,2.613264595872032,-0.3951647420086876,1.775125516376554,-2.7742233202452105,-3.9650125774075278,3.9176484021450797,5.155142069436717,1.440674659997922,2.5305827885686436,2.7999264281322924
115,2.0537819109047346,4.255343345027037,2.8507627827662794,2.7299878724646183,1.0534211211916853,-0.3252711449652118,1.0623318122163323,-1.9865799716584294,-2.0003723100613837,1.8840063235003706,3.720931886397621,1.9448907480976625,2.8649209013187793,3.7730436775333462
116,1.1880613439396608,3.732168054853223,2.982032551002758,1.418557641662832,-0.907390477332967,0.04828099025045394,0.11048239578783688,-0.34992855254795496,1.134283032549324,-0.5503151996007418,1.1553917751725378,1.783732304040967,2.313585493913792,3.6241439865795013
117,-0.07803763004286253,2.1695170756979962,2.2650118494674936,-0.3403150867805566,-2.7099996156048243,0.6298071732945442,-0.7762936819685039,1.6397043756316203,4.520412933462035,-2.7694511722448834,-1.776273729891417,1.05817135264104,1.080426815391191,2.4788027219408213
118,-1.2985129361537715,0.12383436969163054,1.0107303871890716,-1.948988490785552,-3.820036283932163,1.2024292050973577,-1.3439183609914866,3.3160461734956432,7.018340316812776,-4.223887442351821,-4.186927951166859,0.050320030164529,-0.4152736305978302,0.7537692630140136
119,-2.0580006646271936,-1.7419904572488898,-0.3446380007714694,-2.8768594761655017,-3.896072024153101,1.5157306637882941,-1.460072384949,4.078038313945553,7.670871145074642,-4.5785377446682505,-5.351027777470143,-0.8837021766664617,-1.6864926783134635,-0.9941786451203667
120,-2.112388331636864,-2.878657346886887,-1.3893593774458364,-2.83596493410798,-2.8999024370478668,1.3909897143898633,-1.1411058380036256,3.609330808502598,6.067511230387939,-3.7986205391553174,-4.935573361644781,-1.439881309569816,-2.344220022677205,-2.253927346874985
121,-1.4650522225150633,-3.0176444524315347,-1.862062931469661,-1.8690292386181797,-1.1118446727388522,0.8010025716177847,-0.5305091480084395,2.0002910642724103,2.529658652555291,-2.1489872978508484,-3.1012444786896847,-1.4661404407113825,-2.2225290274868446,-2.7162708403547766
122,-0.35493568572784967,-2.232672570467023,-1.7147757005410156,-0.3226454121338458,0.9547140619389453,-0.10812063831980849,0.15900567814412933,-0.273391773292117,-1.9595762246458581,-0.10886644251884997,-0.4411933168359551,-1.0024724532749132,-1.4209187473057086,-2.3507821633056607
123,0.83550317766183,-0.8823846326855441,-1.0988082213797838,1.2810063933061193,2.711787423843393,-1.0625789008115736,0.717665866941334,-2.5086046352344913,-6.0634581019004345,1.7706172581371484,2.21930649212805,-0.2512747039324149,-0.2532952601662631,-1.3841411871810068
124,1.7166941322543692,0.5366974382052502,-0.28703708162751046,2.425786796668826,3.676485247825488,-1.7566859123426355,1.0010206577358023,-4.012292803276048,-8.531514248582937,3.022313296094841,4.092211485108432,0.5065510216824076,0.8731319340617955,-0.19629190846327432
125,2.02307695614566,1.568772795353549,0.4333671878832557,2.7719532956339004,3.613751643850777,-1.9621829491129472,0.9645146725072985,-4.333215667496438,-8.615567295292772,3.3859498969429898,4.673227131349692,1.0157546949638796,1.6020432464552212,0.8219766223225685
126,1.6938220331374092,1.944472221893853,0.8572983840421102,2.2576053109990886,2.5972932779652282,-1.6096159503310612,0.6631972830819967,-3.4062380587452648,-6.314655281008768,2.863637259332443,3.884430708452226,1.1324097436084448,1.7430446363585055,1.3969499816070365
127,0.878435145145558,1.6465808214847675,0.915417490481363,1.1005917977973718,0.9720132227008575,-0.8117421259719189,0.22133569398756153,-1.5609483183214845,-2.3644185413750973,1.6957373829071536,2.07059337888662,0.8621657617516841,1.3194376205635747,1.4428885143543935
