,AF3,F7,F3,FC5,T7,P7,O1,O2,P8,T8,FC6,F4,F8,AF4
0,-0.04905936056720378,0.0012791579216250805,-0.012223203515773644,0.018869825940294623,0.025163950587212814,-0.033692113216719784,-0.03672205349963188,-0.09231280123320929,-0.0386750409844034,-0.06856650906021661,-0.0804451180543841,-0.03442831719463961,-0.09762052969691316,-0.0647377953561424
1,-3.249669865502568,-1.5170403414829248,-4.616928723747811,-0.9451436640225621,1.0457105491264114,-0.29429966136890123,0.542258278662739,3.0826914400876015,0.7889127566971068,0.5183351216579966,-0.13057598986344576,-2.0049465041926386,-1.9339795297922597,-2.5497018172397814
2,0.5221139676632915,-0.5142550831244139,0.04842000963835791,-0.6269933440028844,-0.7169330433190257,-1.509871888284226,-0.6026716206991602,-1.5201398221255167,-1.0246337559450294,-0.9389492209494714,-1.4580384160628714,-0.7050257560738517,0.30043735947053696,-0.2889347367959487
3,3.0380505383565866,1.6973503227891336,4.417799201267638,1.015145230943395,-0.7488249009926227,0.8925045565852054,-0.28837028620247196,-2.2319558670313597,-0.4528478677545948,-0.05136580144321979,0.9765531812051895,2.376281044012272,1.5629835417431408,2.5827693872328807
4,-0.9399503436200936,0.9151631009078954,0.0441537402036009,1.2678232155500766,1.2579174974895413,2.724135181864025,1.1258997330830252,2.654717645996301,1.9256347991059863,1.634841320320385,2.5004127986177855,1.2128393818265149,-0.19262806457678952,0.6786881974919285
5,-2.6830969363545267,-2.025062816800543,-4.169525560327086,-1.2407194624268278,0.202431988952547,-1.9385929537277975,-0.23438215834080503,0.7836532399610407,-0.20394599813470074,-0.7222161266704189,-2.396600001797056,-3.0018929872014746,-1.1131033899071068,-2.7697816251101273
6,1.2846738635778965,-1.0999836565666676,-0.27222398077653,-1.8716194001174087,-1.491511010819619,-3.3386369627941264,-1.3626265593285138,-2.9794306920628797,-2.4758157336376154,-1.8059621876136802,-2.694481872589525,-1.3194276602243338,-0.3000798013701017,-1.0203473026917391
7,2.2206202649229896,2.385143938260812,4.031657698203508,1.6821104541678082,0.45161528050744015,3.134911873110498,0.9254301497170095,0.7751511458723905,1.0250468743943193,1.4906801164020702,3.867508168105707,3.6496527819523683,0.9018968995302108,3.1821493508037797
8,-1.5475104969436644,1.019657668329425,0.5049604291771995,2.2756612149265294,1.3187194938700038,3.245704209177221,1.1616713846953648,2.461422075656774,2.5570076137482007,1.447584756237154,2.014422619287651,0.9951979289813295,1.002547525970863,1.1275676163800419
9,-1.6811528983260533,-2.627753626625993,-4.0767970276179,-2.283031889743404,-0.9946779664644306,-4.118544466191196,-1.577829848665427,-1.9473185312613555,-1.7763290461865748,-1.947774375844861,-4.84836082144147,-4.069490717050538,-1.1232792317387212,-3.7658210989607936
10,1.7179758754696197,-0.7083594232956562,-0.5393531088465816,-2.3150682222551997,-0.7635709364513621,-2.5546743785903567,-0.4717168988704472,-1.3641972460194853,-2.1799349901875327,-0.758380814139124,-0.775434768702577,-0.36408426869126537,-1.5819683371289108,-0.8014537277498739
11,1.0918703737178734,2.6195486923283964,4.220998638911406,2.848181106733437,1.196352815485175,4.588429591340257,1.918055478027074,2.40713351270364,2.2105317689240738,1.9181471585158016,5.0000570304272784,4.0881106212281075,1.7216768527438882,4.2970325463799375
12,-1.774912309433529,0.2819121387107678,0.22451526398432578,1.9436679941442037,0.004519100152989808,1.5684108911530363,-0.5875967061152327,0.13201630690744548,1.5114326806001257,0.05343126898017504,-0.4941630193166037,-0.3423600725446699,1.7392338831818275,-0.027303562012314517
13,-0.4890712848874835,-2.300469259550306,-4.250590291981549,-3.12478275856096,-0.9193725397907994,-4.4320069979149626,-1.7122240539977487,-2.1043045232232696,-2.164832445864488,-1.4250800997193485,-4.32514237427837,-3.6773735236158993,-2.411121972052168,-4.4524709220253085
14,1.6888464746062266,0.10293762780050993,0.4301511017894555,-1.2966901530308492,0.6703884554189686,-0.669713929195024,1.7214639378310088,0.7833388144050759,-0.8376771495488461,0.3644080085305515,1.274384283569756,0.8755586634140545,-1.3892296378957394,1.194524220152764
15,-0.06535762278695342,1.7153827888126132,3.9355713649382253,2.943577181934803,0.20813250135877365,3.7856553174028895,0.8954542854363338,1.2580763529895986,1.6499634222636226,0.6778274908591883,3.164129691208233,2.9661147048546344,2.834721278625916,3.9749818335478095
16,-1.441596786955597,-0.3120291871975694,-1.230330532577682,0.6427541703561127,-0.9819012109265182,0.15564595505693943,-2.551715166903849,-1.0814146348025577,0.4585334152674422,-0.32237947517239723,-1.274348231818913,-1.0689676678026214,0.7207285036067463,-2.319764401259947
17,0.4786359454358693,-1.002116548028299,-3.1671176856260126,-2.329182236465088,0.7002889948665149,-2.982883107555659,0.34878392621441795,-0.25688509453204655,-0.8771249870976491,0.0113972430397134,-2.046182271848055,-2.187904748060872,-2.774840430284652,-2.845950772557644
18,1.0566876966523027,0.2892715866258689,1.8754908799380001,-0.24563550120812064,0.7975419443559786,-0.09807394702100238,2.7795033855593028,0.7021692580924285,-0.5496437179346271,-0.15809274020708747,0.5549909426746823,0.9030963383960606,-0.09390330995175267,2.9616403433010317
19,-0.6468740589382851,0.3415119122882096,2.040947186785411,1.5041223846801668,-1.4660711649665166,2.3996605092836534,-1.6212626180020429,-0.48808745063096504,0.18919039718865652,-0.3469490691442409,1.4571296347022873,1.5856406924966675,2.2884392808375895,1.3538120710101151
20,-0.6213177232902695,-0.07992598699588005,-2.1023765001201506,0.21775545585521994,-0.21302878422473687,0.3079991396727816,-2.342997888843769,0.1745309666657937,1.0595832900938593,0.8715071570346373,0.501612732854935,-0.508024119441211,-0.16963277578238078,-2.8399857818352463
21,0.4994927547763034,0.10829163689800758,-0.8369490421523742,-0.7756708454229565,1.8034208204772695,-2.2662654552011103,2.4611084424332046,0.681065134512022,0.08953756060631873,0.16232440713051458,-1.6250353624031513,-1.3134645834512968,-1.6810277501192208,0.0026216172825278402
22,0.2788450756478818,-0.18496711162195179,1.8183485670522865,-0.4575239193939742,-0.4767313516925054,-0.43371404392770374,1.4790195537554032,-1.2054647397833345,-1.7064352716896634,-1.5068389825351332,-1.3650748696433421,0.10247893005659517,-0.019355588647440317,2.0000673385229923
23,-0.04876727658782756,-0.2692426003704328,-0.09834601235320155,0.36955405324180796,-1.626055819652016,2.5428016817479264,-2.559961261561561,-0.23137591527591597,0.18057065945673842,0.5142319414271291,2.417480212586508,1.3779875500087375,1.3279006527735304,-0.7407745256201592
24,-0.18395146231181925,0.3354618693641711,-1.1541846314070734,0.7133904197274755,0.9143924525575561,0.15199125208502368,-0.6356513085986386,2.004621537318033,2.0948728667441885,1.7657300513031002,1.5988778676275621,0.10370706445205931,0.45922028730130915,-0.8161627275828524
25,-0.5855036331883687,0.17413797163934983,0.5067696529920048,-0.31225453744448467,1.099217131668392,-2.931458638132855,1.9246084821732363,-0.7259005222238348,-0.8617041024443971,-1.4664917796591042,-3.4000424756260634,-1.6443861432573244,-1.4467330538652148,0.6316384928388594
26,0.43428606951066084,-0.22593105109517747,0.4090071263000808,-0.737102395469375,-0.8595782312516055,0.6442825848203692,0.26289392930776384,-2.270401943660985,-1.9088410443141002,-1.4762733536781818,-1.0659164397654939,-0.000594939822209142,-0.7740842182600279,-0.17816294566094218
27,1.1997661930618935,0.04072719598251224,-0.33112097822827885,0.43654996876893415,-0.5599101425545264,3.0302976563444495,-0.8872504816741608,1.8815773511083962,1.5826869791636047,2.369834730367418,4.038308966657642,1.9053485935040315,1.9602375103468859,0.18529672139210593
28,-1.010724728389483,-0.20525037527971898,0.08198279783875997,0.4283343407464825,0.31317263878849616,-1.7663816672093413,-0.5874728949221187,1.8822217977942435,1.082591458011562,0.6570713305918252,-0.0005015786199625673,-0.37921143392831713,0.6378460382083647,0.5435470940753029
29,-1.579644144273166,-0.1826764867457893,-0.26897872578793997,-0.5050008785423314,0.34122062348843646,-2.5538251307567927,-0.057127337590815036,-2.861317930106525,-1.912937920681848,-2.913774749853256,-3.957655509250895,-1.9815120633897987,-2.5350121923384954,-1.2733181547624406
30,1.7625219454941596,0.9024004263996926,-0.08695451564579561,0.12372201135448016,0.4882566611927094,2.8111468227994396,1.501116814856225,-0.9343157802469093,0.14922065875390578,0.49600901135850084,1.1054569485347299,0.8878487011126085,0.030401557783810165,-0.13451154483604374
31,1.593209391497894,0.0756334581171934,0.9965734877673301,0.3649601566204621,-0.5987084704903471,1.499896063650154,0.5001417803348001,3.355978793564188,1.580309687261743,2.9154483819016495,3.1349014078060784,1.8034586572961908,2.773365952846744,2.111667620345814
32,-2.456975897483808,-1.7028748751680107,-0.442895777060113,-0.7252729110728433,-1.2083920263970467,-3.367826808320876,-2.6311990449186498,-0.307972754248244,-1.3612399473660615,-1.694189394144,-1.7409966621772193,-1.3470489766748224,-1.0183799676396847,-0.8560709944001151
33,-1.2563133894610408,0.3696797856551644,-1.5411317470175336,-0.026643964761950325,1.241902521368544,-0.16397955176589707,-0.3109865500033142,-3.223600076822505,-0.6107304127148133,-2.373823396584333,-1.9142641782210612,-1.430830277757153,-2.43961519489824,-2.330258066548216
34,2.8785909520553012,2.390394901287613,1.3789370838684631,1.2212853519806395,1.5955617716079962,3.2370792167994726,3.5493645497690847,1.512529684432305,2.1516469203016384,2.6701763093064206,1.6521460135279318,1.6448164459596117,1.9454798255677033,2.015305856423638
35,0.7285162883217493,-1.1188429001048852,1.6829485293255995,-0.38577337059815836,-2.009841388872229,-1.0131648253752905,-0.33959760988812365,2.5218065992471783,-0.6936738275726188,1.443440639281948,0.8249583986088851,0.9971771327121275,1.5838876966848414,1.846762937349468
36,-2.9281066571803165,-2.7687679506031095,-2.482257236014301,-1.5862820344174655,-1.6013169387821147,-2.534515597159123,-3.9855626788883276,-2.3985365710623365,-2.3375782752562095,-3.266300804604335,-0.9711960092007014,-1.7866578694243647,-2.477185876601418,-2.9104143259680213
37,-0.23424012389838622,2.024654814565222,-1.3415111119442522,0.7622116952622977,2.6360182413685798,1.6776869046001452,1.1201809921475518,-1.4627011253219355,1.924784077153019,-0.3485871315993342,-0.2929237892144203,-0.6144222066136168,-0.49583913720406325,-0.8558502945790828
38,2.6634916452153807,2.7234767606767627,3.4859532605857564,1.8941753619439774,1.3641704401761097,1.6174240061049543,3.9183636686272862,2.816055996304905,2.017087549778403,3.456489768736739,0.13412826455581825,1.868516128971005,2.494189878328735,3.260206164961296
39,-0.049508706965492914,-2.8757368582374805,0.5715641087825288,-1.104415980447725,-2.991499253521696,-1.7376306438984095,-1.736265142118327,0.32139655516651483,-2.7813973336806432,-0.7104642387662108,0.4129766949371666,0.2992539921083038,-0.4697793090694755,-0.29407049099442545
40,-2.256096301176557,-2.2490301215142425,-4.159263389028319,-2.1968570098155267,-1.0823100236444867,-0.8822792194631052,-3.5058551461652976,-2.761435098487398,-1.468107210529324,-3.302527914861644,0.3778084320242271,-1.9889199692446422,-2.1194576958602758,-3.0058439195394877
41,0.07295897812393316,3.456834013109087,0.4671301232486788,1.5087734966432103,3.1168638513812987,1.3806631854516809,2.051768980669263,0.6532840975152622,3.195206913132526,1.6078989581868148,-0.9203770993473128,0.02803514195920265,1.0775602075548143,1.2529418693968875
42,1.8890426775661442,1.4425589240715802,4.34921336634307,2.4182190457439625,0.872215658134311,0.5597354576200764,2.9337308365463386,2.3418161104633923,0.9596276207357866,2.884975018034547,-0.31411224226410983,2.1611330651633525,1.6052313506925218,2.2791795230778424
43,0.08559057192677601,-3.598427720066442,-1.5471359151908692,-2.0433300895038307,-3.136338149544501,-0.9362090276991927,-2.0720110647889567,-1.2925498534767081,-3.3019239592555034,-2.2810772395661503,1.3778203436260605,-0.4704751787933572,-1.2937224431082535,-1.77667311498432
44,-1.6631896608717462,-0.48014848642980373,-4.011156899421662,-2.3637794104444914,-0.7114196053914006,-0.6280758695083668,-2.3045182289296213,-1.7233361496211697,-0.60202746804006,-2.2614764750054936,-0.22387380569688992,-2.2888892371740743,-1.171490256442557,-1.3187672522728315
45,-0.29191625623990375,3.21038734586871,2.41835016191841,2.6180630361345054,3.129023229626061,0.6803362438349994,1.834806528656907,1.523911637387466,3.2935020117890255,2.6835900057815234,-1.4542636767049861,1.0583225313742395,1.2334606797287417,1.7653707726098586
46,1.5683363764879459,-0.4110409446685796,3.230149217306391,1.8581675235570274,0.4959543222641976,0.8814025824311585,1.6429439192056332,1.088175288987258,0.3281223250739907,1.4793969942040506,0.8871077720614925,2.2256169594294684,0.9069889223223071,0.38865018032232623
47,0.44696364364071345,-2.3074436537354437,-2.868991928146368,-2.963605789384015,-3.0551133294707555,-0.7075067102253306,-1.3205033088107425,-1.368107076188816,-3.2620647257445494,-2.7535247670062835,1.1140031232449243,-1.6993047370246384,-1.0346202098474655,-1.2526767479234162
48,-1.5290966163209827,0.9883743691851061,-2.215855752106125,-0.9190312236545867,-0.1594578405348545,-1.0875975761157477,-0.9904419027127698,-0.6015166911890386,-0.0026448601266822963,-0.6233601380170564,-1.3285678508737866,-1.877340262436401,-0.7853786802002946,0.2759018201753996
49,-0.5349326970352819,1.0293298915047757,2.7962868325922012,2.760896602275148,2.787866877194298,0.9350744222858696,0.46453287793736703,0.9294892227414986,3.142778124006131,2.432749925380021,-0.6002435095321182,2.2128520144705024,0.7608131864646098,0.37952481388059184
50,1.4836317623666402,-1.0495167458066734,1.2508684538362336,-0.16486684910470945,-0.23838821478253283,1.123439233664596,0.48826849094334923,0.3779078857927766,-0.42783576147061037,-0.15307250779347426,1.4275865961343013,1.2784292962196273,0.76003708402399,-0.5037702858322128
51,0.6029220976704431,0.3602456053251309,-2.257153671753101,-1.8528736768983909,-2.2232835067806063,-1.2114341524319827,0.7376289609078426,-0.3742899294644574,-2.7878912460369403,-1.7274950226614025,0.23902380000785473,-2.4270906986089416,-0.40043412798503414,0.6327461832554051
52,-1.4365352350334601,0.5072449358713382,-0.5957835726884914,0.9287784209648934,0.5186160355351013,-1.0064739303427581,-0.3597665807421952,-0.44792103658939614,0.8540686640186774,0.6530498760433966,-1.3461829511167487,-0.5894216703563092,-0.8481825072045767,0.22022055794632878
53,-0.6970785938032581,-1.5216618285032575,1.462707262766955,0.3995528472852069,1.3862988008268229,1.4354615934616144,-2.1265706526754355,-0.11473290993027202,2.1122116215696076,0.7604609604120883,-0.20481981089589948,2.2753172976571845,-0.05381644052732306,-1.5184875259203703
54,1.452588357799688,0.5465586945303538,0.387578425329683,-0.9633064539167837,-0.48043938508049944,0.8242536708995138,0.7869025105646502,0.7450408029374325,-1.0490920858640789,-0.7164990442871663,1.3951247518126437,0.01989141849390422,1.1332695843957092,0.5242321989312282
55,0.806175933263025,2.1418775667863783,-0.7038395885633845,1.1377514379788578,-0.4587684789727733,-1.602186180883878,3.3758759758789956,0.40097276264730053,-1.2042333455875935,0.23615543418844498,0.4014836079692498,-1.8327336461718795,0.5225308171738395,2.0256219871782895
56,-1.6022735768970777,-1.834506151816628,-0.5828255492761412,0.14938463612126435,0.024886826252652768,-0.6319728554619872,-1.7660559392193196,-1.1343039045984298,0.8080114048837647,0.3061775531889167,-1.8106759734305615,0.27373460081129797,-1.6852520789501961,-1.547515356528374
57,-0.8509610006224241,-2.0580526006757593,0.23493896432722905,-2.19278283136777,-0.29025311807774956,1.7542163780704298,-4.115188557925136,-0.44273846545415935,0.3247075667285772,-0.9968988850458054,-0.5240395629327468,1.2765387539019095,-0.8298612500133469,-1.9899669640914017
58,1.8999107961526518,2.973246807699441,0.9795580977412013,1.246494524977289,0.7734828722831274,0.40386509645413887,3.052286359419278,1.4792998501892336,-0.08944990058908008,0.45939491204144506,2.5880318511260825,-0.25583614631924734,2.4643666368482973,2.573432080012021
59,0.7227504342767542,1.338400565324739,-0.17044233069784598,2.3673898453389146,0.6291282134380843,-1.8911121487806997,4.109476978823662,0.2928931822524269,0.20809430262192313,1.3281571446487541,0.2486902008781309,-0.799287337491716,0.7827090496431383,1.3981654653179951
60,-2.274130313385371,-3.6179103114861673,-1.3111834385085714,-2.679120802029277,-1.6889194852961982,-0.07639387543910155,-4.242203772168639,-1.7109658150355886,-0.931508363171858,-1.3519797468562473,-3.466735280296819,0.01283791091575273,-3.286885068842669,-3.314624667616637
61,-0.3449941914941629,-0.26644911794882137,0.44529442358658927,-1.629887366540607,-0.47044527927781277,1.9199388063553426,-3.3812298679938935,-0.0423754670368848,-0.17517417334218116,-1.1794094394803176,0.5711068413712161,0.5267859445850582,-0.2869881261549556,-0.40404760784589006
62,2.5858178228335436,3.603719980444383,1.3677343892584748,3.5777048958506668,2.445161856591132,-0.3530773153743303,4.950339630516107,1.850757423340132,1.9289706687695365,2.132056295569651,4.063973745756596,0.30270066928164785,3.885727538809542,3.574182642566579
63,-0.2769730133805237,-0.774742859157301,-0.8584486219381019,0.3321765060219125,-0.09704782776501364,-1.699162272819685,2.199972457881589,-0.2574800581772648,-0.4360610327491513,0.6398459778464535,-1.8126301218472154,-0.4806108971342577,-0.5781114500423112,-0.7209859789333511
64,-2.681680514800381,-3.009686057402856,-1.0856921473122432,-3.6099690035234917,-2.8357366752391666,0.7569641894592787,-4.973931664742543,-1.967277250420696,-2.568343771984719,-2.639756875459829,-4.071055227940149,-0.5478531172197594,-4.032502127658302,-3.3203323162553695
65,1.041538183101102,1.4636569911736101,1.1767698478636368,0.9585249306196968,0.8623223859715835,1.1551794241200102,-0.9504820188966326,0.6371365629244046,1.4287661486100738,0.13082291133861043,3.135832613036343,0.5948197992303375,1.577817641785697,1.6906740563129303
66,2.457646023512324,2.109812429176499,0.5640310211412279,2.8237592752954557,2.799843588860434,-0.907817073287175,4.355366590424837,2.0934507216183023,2.644357775067546,2.826817713871796,3.4068089202583995,0.6450638226527533,3.648017074656844,2.6940697173579196
67,-1.7763257524838538,-1.664732508264072,-1.2465653119465232,-1.721488912598462,-1.5952698747211125,-0.3869464331520138,-0.03613449022092004,-1.1783827798436972,-2.4885721849707356,-0.9867815146132255,-4.140713600505373,-0.7669859782336452,-2.421092137611325,-2.3152097287047524
68,-1.906785204236881,-1.2396459402701072,-0.0017447822833435134,-1.6044590563271417,-2.4203616608966914,0.6070559741688355,-3.3224471120176187,-2.1652402861273723,-2.1470336729968937,-2.720555883245117,-2.256582564203444,-0.5961878667459403,-2.8388899613431016,-1.9398599338018252
69,2.292973363676055,1.4555561612358827,1.0569555671042892,1.7064323391421594,2.1401152531162864,-0.3305794583021678,0.593166376041268,1.9250660259207708,3.312677783815713,1.8397977114045472,4.5458701950403135,0.9109268269520925,2.8831263144249166,2.565801235999684
70,1.1347342184538074,0.6510229333881361,-0.40763402773595203,0.48127538981526324,1.8561717146513157,0.16823184301600944,2.1606998409448024,2.0350805049856255,1.2356933022202543,2.3575769167838616,0.987912225411427,0.45869748658099685,1.8462034400163116,1.290892299982712
71,-2.4530194055787846,-1.052402495769675,-0.726012841889739,-1.0173574286282265,-2.4522607218367503,0.6682060847373429,-0.7260411977537797,-2.7965001955567486,-3.7091311629137955,-2.6398247459470965,-4.30464304217604,-0.9860741469723107,-2.8863192721751494,-2.558042611243805
72,-0.33579642257658526,-0.4292743662561738,0.5671913640019176,0.11518084668069574,-1.2556715124970206,-1.2063238919550552,-1.1009898401431073,-1.565120703263752,-0.15225419904095536,-1.744048328694169,0.0089085391448169,-0.3061510385454687,-0.9429316580908568,-0.8691511394829597
73,2.2242779688246057,0.6860502517890777,0.42351295784583287,0.02949929647968594,2.5697744715751782,-0.42192099203687783,0.5429863991708275,3.573663566081299,3.628300702862499,3.3190962434523197,3.612885420734681,0.9979709973261928,2.5085649608831044,2.464728313108255
74,-0.2668222794445145,0.505337236229625,-0.5068191201644682,-0.02716726356595699,0.7032092292185074,2.1429451691985126,0.2770638087169245,0.7468754086074406,-0.8701611228096904,0.8770782848054163,-0.4787890354103619,0.19640026453754925,0.33713989009971324,0.6550509822799669
75,-1.70703250459326,-0.502199220118869,-0.27851550128461544,0.805486371828631,-2.5511825218471973,-0.36588907499663054,-0.17534089186080107,-3.9872095553996405,-3.1337506760732783,-3.7564991605468734,-2.8153421966450076,-0.9816577228321901,-1.9326808864581824,-2.4118116641195475
76,0.5019143414086581,-0.7364387270807888,0.3440953071357585,-0.5976987146234534,-0.22276424345213303,-2.641710304124212,0.25183558909927634,0.2356096623984006,1.6602905438492574,0.18834915274511616,0.3911576612784252,-0.15734988041344072,-0.11964182812682941,-0.539247601846898
77,1.1134863915847446,0.5357065243458978,0.32386947470259037,-1.1627871343017266,2.4286866490836063,1.4245360974078727,-0.25870216293646925,3.8681348603128765,2.351023886007285,3.8071930439336774,2.2609318204811313,0.983509716385706,1.3753589535367752,2.4217158731620025
78,-0.32557022415470993,0.9912923046473293,-0.20832566705556418,1.4130895722236483,-0.1788126066986939,2.5618005882001733,-0.46279838178170923,-1.0578570812963946,-2.1180728558610773,-1.2855154566875446,0.06783217871000619,0.18465483603595464,0.258880130863963,0.41581937753144915
79,-0.696520320174157,-0.7524665783156321,-0.5009917197653238,0.9611861795429911,-2.208263127659058,-2.4006562983251167,0.6435407768743147,-3.2704267358440715,-1.4304719891222397,-3.392920435787708,-2.1717571402084994,-1.047439870142209,-1.0265010426400958,-2.434509820260096
80,-0.14335033127811458,-1.1848952679130889,0.1757075868266805,-2.0500451821522594,0.47382635053190036,-2.0115405037861063,0.3629411782484067,1.4111281048267612,2.206049059685869,2.1553769736780084,-0.5835521865160386,-0.2424710597632784,-0.6235384457539784,-0.25028470383450835
81,0.6460111350217536,1.106574710769074,0.7088823299383968,-0.35455874323717845,1.907446651115538,3.0379700025081227,-0.8503307265235741,2.4783294377272194,0.5305546386509357,2.5940914422129877,2.573358609777166,1.20035826747535,1.0059998922672009,2.381144363511311
82,0.6551549214238429,1.2567669728838458,-0.24647866117031553,2.2708565537720604,-0.6172120451224502,1.264650229497411,-0.019074518733191943,-1.17729094558571,-1.9483355124896775,-2.5518381818490274,0.8371098171027623,0.2680418021232487,1.0180311366657668,0.07931774365097857
83,-0.9949076463984834,-1.5582026441101438,-0.8601653966950948,-0.37353772483305314,-1.5892089584876519,-3.284624337622386,0.759778005775606,-1.8752571059594079,0.1991296738015724,-1.6675269735582605,-3.300222606663023,-1.4326886027394818,-1.3318855207608788,-2.2467734064243654
84,-0.929427104091908,-1.1362011844508793,0.3634234449022148,-2.0379744794608055,0.589278455987092,-0.6020353215368992,-0.4179130442244375,0.5115758522681302,1.4354629044525746,2.3789178079851787,-0.6189120699636846,-0.1897098315732402,-1.2320852027375009,0.04572777784052046
85,1.586275070414836,2.041130443216552,0.9146867370122175,0.945583855675718,1.3532001636862605,3.278352295456297,-0.32574024607081997,1.740874518020392,-0.6526402584356849,0.9537942563822446,4.062903857098089,1.6828151716593773,1.9028934623804685,2.075710207054
86,0.7853505619272483,0.7479626621803325,-0.4500758250644044,1.4884169864825083,-0.4384641858299157,0.1763472088930775,0.7412486914947023,0.22882633908819722,-0.8103695386384894,-1.7694866519310755,-0.10075199046494952,-0.03778016413193868,1.107993432042259,-0.11659011381473701
87,-2.1314737947336435,-2.4221118292243062,-0.8835180289358594,-1.1938211456261463,-1.282393766294838,-3.2379058323938468,-0.3670510772330425,-2.097009829674947,0.8079352479235643,-0.7130324541973175,-4.551070467043444,-1.8442793783078026,-2.5143558593070283,-1.9213631104418447
88,-0.2371452543808538,-0.07247558189537928,0.4461119168022321,-0.8468566190409855,0.28057721192192886,0.034601790447073684,-0.7748855800746738,-0.6761201319092949,0.21949728752901493,1.0410896342696034,1.1604667699123354,0.3950541853877699,-0.6105631946942028,0.1766189724903279
89,2.34163481921,2.511127828699629,0.8120939965155477,1.1002423629625757,1.3833869699666757,3.334181938415993,1.1085636313614,2.6991983016959984,-0.7370562004383909,0.9852034103385373,4.543578749439993,1.8057981848440385,2.9233275400034775,1.7903095996978868
90,-0.5019917099095744,-0.7824062969672672,-0.32785144915025505,0.32518767394041875,-0.24421857995445467,-0.18165314038962843,0.46977464945183733,0.6501587123073603,0.2522561161884931,-0.5405336496494151,-2.2599096534647773,-0.7842726448242764,-0.1362943183923529,-0.27558589849218024
91,-2.0671843468450124,-2.144659966254285,-0.7539926716060423,-0.7732270213470581,-1.568304967890338,-3.606274686648484,-1.6487077130482775,-3.1803301104523802,0.5632618407408961,-1.5653630326930785,-3.993154822585794,-1.509231011922231,-2.9502075273403316,-1.6313468496632109
92,1.1165900920810574,1.5670044914494028,0.11048367847212935,-0.04818820152624653,0.3955996565546599,0.44723364591737486,0.05821645565971209,-0.24531951965017318,-0.6181268258024878,0.4642912714601475,3.065177762415284,1.0579892020132298,0.8802556421283146,0.41302384198057884
93,1.3685908361419916,1.3006556326652647,0.7447689942861303,0.3820821750324584,1.697149239997783,3.9479683719962058,1.8178483063324775,3.2573701188254636,-0.3833268592079118,2.115667297310071,3.0519366253569777,0.9906669994215317,2.5707325034056656,1.37913925526251
94,-1.3359477425135593,-1.9713521918461512,0.16708369510995452,0.02699849425512239,-0.6940958426041631,-0.9469637878170775,-0.5815557423589252,-0.24011649223371984,0.9650187066651065,-0.7621568266766593,-3.3354858521848114,-1.0807944189838177,-1.3399470721361733,-0.5202019082561385
95,-0.4796802577145578,-0.1650687138148946,-0.7859195054332663,-0.08073149578361603,-1.6555615809688153,-4.155280628584454,-1.6083747126028425,-2.877201523606946,0.20610319289405954,-2.3491154923288757,-2.017291997926483,-0.3755153000254048,-1.9441570357578344,-1.0160139303742317
96,1.0506937191385577,1.7736735575162044,-0.46847050477480556,-0.18205289635040572,1.008939785278306,1.6626686431545386,0.876261035973723,0.4803147829189384,-1.3782645983497033,1.1808282683526923,3.0203941698565044,0.7888793081273567,1.3313224365311052,0.49683963068013487
97,-0.31041673403518333,-0.9105576866400116,0.8490518274435629,-0.04750951421092628,1.4191042754361014,4.013183658248676,1.1685297745759569,2.2240572168115613,0.04821773622081634,2.175637119465762,1.2103840969004662,-0.17121526032555373,1.352624109525597,0.603392036617721
98,-0.33926007383716844,-0.971887392969188,0.7830125933257259,0.397954934342861,-1.185860908585308,-2.424333848200372,-0.8299050462191354,-0.2948050098527023,1.864298627119418,-1.4166703180788067,-2.278559417475378,-0.21314766477191152,-0.8568299129195559,-0.27529511878639773
99,0.7845483883201033,1.5541832552555035,-0.9015053975732251,0.0033180148948103788,-1.0670073118580174,-3.3984317043598304,-0.7178758708032288,-1.6009592088107498,-0.48561931964830013,-1.7285821694825279,-0.8383963814087573,0.5079599690488952,-1.0760794181233373,-0.261333370879922
100,-0.5974021615803212,-0.18612743146914082,-1.1288390541998143,-0.5803061982053733,1.1228859790487613,2.953534388870476,0.4830112024440147,-0.2755898559855203,-2.323006994427625,1.2824473953422442,1.401372397465883,-0.5420522124815884,0.10861301848791774,-0.13217234535302047
101,-0.8655945754897921,-1.5471926085811654,0.9385031668029185,0.1557345100795877,0.7422771105297901,2.366856513053222,0.4391598776250499,1.2674587242798634,1.1531701179695453,1.2670697040023022,0.9081911017773617,-0.5569091354746589,1.2643862270820834,0.11258274984303278
102,1.541365565208891,1.3011152626803584,1.5289093873308583,0.6867374123189479,-0.8151997365792244,-2.9705486643685983,0.009282380837526243,1.014481291498558,2.588212818086101,-0.7923913476924469,-0.6743619231929547,1.3429941335351459,0.6179509359567117,0.6304792711787205
103,0.6030200288325663,0.9309740932260124,-0.997117669859797,-0.35982076650603795,-0.5842729156999265,-1.179872403565644,-0.40565409210121295,-1.3251559934114785,-1.9846057938924553,-1.022917856346913,-1.2376674350826495,0.30839771355204537,-1.8704902649412631,-0.2261746311844093
104,-2.338901340743106,-2.0015242013011068,-1.9732803252151545,-0.7226246702196601,0.35207355080095126,2.336544029850192,-0.4624245895270572,-1.6512987174391462,-2.511434671955094,0.12827995962497188,0.24586852996248568,-2.0638242074549242,-1.0567355942978367,-1.0798492948973901
105,-0.1074541122914643,0.013654400415429202,1.1361866943234746,0.5602758004105521,0.668346300939508,0.23179116647321485,0.5726700323875561,1.6976022407967895,2.807398889367615,1.0844349590828535,1.5603784588773075,0.1967151025942895,2.675914967254069,0.5886428828332377
106,2.92210984241044,2.108116775420463,2.3957614443834547,0.714561413162046,0.12579230469745784,-1.1636721770079441,0.7439865212384854,1.983200146227727,2.040809232660369,0.4772333911296201,-0.07150596396369137,2.603350538011336,1.0832725160590062,1.3511823694300926
107,-0.5151045434789744,-0.9033759707662131,-1.390635307854046,-0.7372554334363141,-0.9778710480921362,0.11470620623079668,-0.8236071850679646,-2.191876626043616,-3.4048537310598626,-1.3752442525934792,-1.6685907603037415,-0.8849918689088501,-3.392649540292071,-1.1120937982303931
108,-3.2800149228869935,-1.6984718508915224,-2.6879425047181034,-0.6847746183206684,-0.4853410578569533,-0.18282770932488737,-0.8142617500140887,-1.9420281414393412,-1.2551206723057171,-0.862367123711094,-0.036962627831445355,-2.8883948327652313,-0.7541814041306316,-1.3718225242774909
109,1.1933036651753313,1.4322058582822421,1.7304495677324876,0.8884311019579614,1.4174427194112273,0.2873718888717945,1.0374056284298672,2.593830067644776,3.5996342860591075,1.723383323792242,1.5191083720871528,1.6597879586257078,3.7889903040311146,1.6717032284829603
110,3.414816266266792,1.042381101705383,2.7491315691513387,0.6409562939736867,0.6498500894995375,1.2195211397382462,0.7168547224124179,1.5934023375918005,0.34090608973823394,0.9959563160238967,0.28594756843573704,2.8771084777762623,0.26004678868219505,1.1429996313164401
111,-1.8815280983488458,-1.5000312051707638,-2.0557620080273975,-1.0154745609487665,-1.858324432559181,-1.2715678801910568,-1.1422826853519392,-2.749629946969284,-3.320333019789808,-1.9658897634609176,-1.2458883266114398,-2.4085733062149774,-3.7783400591488205,-2.1541793005456955
112,-3.3159128212790048,-0.4492334588963429,-2.544203707651356,-0.5791244059585869,-0.6160453193194817,-1.5623409395455372,-0.534962413346685,-1.0880243075301683,0.47170271185519447,-0.9556115136881539,-0.7665302650178395,-2.5666362795316036,0.178309379983345,-0.7232906250134541
113,2.5330969333125632,1.2266820464193564,2.237471221827062,1.1180331153481737,2.1921013101969664,2.41699590917085,1.1342279949973955,2.60827226744522,2.6265235210126066,2.024399369096424,1.07272381195112,3.0173797313078454,3.4320043151488937,2.4935734237053366
114,2.9627026341807317,0.11357623395802206,2.132449749121647,0.488974356680426,0.4340245169169645,1.1101251915958674,0.3406968032500401,0.5948620038220497,-0.9848943170808774,0.8546921154035135,1.3868602588265044,1.9981652731789121,-0.41436691432891704,0.18857784639390313
115,-3.0797616391820455,-0.8532804884787569,-2.1824155851021834,-1.1923040262498354,-2.363712907010757,-3.244288076290464,-1.0582437555484487,-2.2215137932701223,-1.6883081122116048,-1.9167714216946963,-1.1726178357148378,-3.3922184754015294,-2.9176163912119457,-2.6757657450944152
116,-2.346817973313272,-0.04107680435599868,-1.6463021009982886,-0.3569057817139764,-0.166041612145368,-0.08642842212333067,-0.16284875825228806,-0.24044557200323668,1.0929463834187993,-0.7711338715196548,-1.9099778807532295,-1.2503858530952636,0.4295069492485309,0.406964356752918
117,3.429799353519913,0.5944742473317511,1.884172641989696,1.2276037849767323,2.3678852024231154,3.442338493257303,0.9675735899354251,1.709361125272081,0.7327252478368497,1.7136854129908965,1.5505866020817531,3.4775645343650936,2.402563217048992,2.7109205688859466
118,1.4970311606905773,0.0867505425652403,1.2292356014006756,0.1708330699194082,-0.1462678731799438,-1.0871835240065735,-0.013430339744463024,0.07134333710737828,-0.8092664510603573,0.7180951276065397,2.0802359827844596,0.4203965723283726,-0.31510934721142553,-1.0432875046481278
119,-3.48360429546995,-0.5278874270108821,-1.4273839403942574,-1.2015437650423306,-2.2184842357535524,-2.9974937576705187,-0.8854160182662537,-1.2053286637693015,0.02324778924887756,-1.4785856462777582,-2.016949420875078,-3.261252578485611,-1.9761353718239028,-2.5956851888617174
120,-0.4941548418330961,-0.0708076023164935,-0.9677857524741643,0.06917083436025143,0.48468792433751173,2.011899176880842,0.2187700762420465,-0.05067745963181067,0.25750552844589986,-0.6625269030249987,-1.771657006383628,0.39875819617556607,0.203030160253373,1.7124654967289799
121,3.159551758833779,0.5780532560227639,0.9413868366508531,1.0819676432046033,1.9194657125545795,2.1555168595959193,0.7911158741062126,0.8020274569595339,-0.4335450396844355,1.2300751534480985,2.2715844824720577,2.7638832398758346,1.6275219895436175,2.296180669088785
122,-0.5292604955337733,-0.10403923048796104,0.8573934704692505,-0.33893599355136533,-0.8310907607470385,-2.4965708966792084,-0.4628476462083776,0.0890227557411928,0.36708688319329996,0.5683224021963779,1.0759300871780957,-1.1310488269021965,-0.1895932007775823,-2.380532015473936
123,-2.4231591901517264,-0.5912625923447065,-0.5304377290997527,-0.84134745156994,-1.462027045132132,-1.2489286102970163,-0.6382569181016925,-0.5201231344782916,0.46219387144609964,-0.9439394983216481,-2.058882026976045,-2.022137396799151,-1.2808069405260027,-1.7682510796744744
124,1.404984212862809,0.40192326518215926,-0.8221744562023159,0.5878106638019696,1.1431038369295847,2.602742553998821,0.7132124427977445,-0.09494678226604183,-0.8556287882546765,-0.43241992054776784,-0.27752266330942404,1.7144268045408435,0.29379879551387805,2.9650692175101616
125,1.3131772937542625,0.44499221228385377,0.22275196355256474,0.47810174099330033,0.8484428342695366,0.5026678067995127,0.39202334445909437,0.3139168202108205,-0.1907660795243888,0.5852686400894584,1.3109807526242505,1.080373278010918,0.8566698597678944,1.002376451690983
126,-1.960000029385631,-0.6897423737823811,0.7758732053602152,-0.752595997801083,-1.3528907416499958,-2.536209243453747,-0.9039656830293703,0.02029378330701756,1.0494211234046402,0.2938629316882109,-0.275684541930666,-2.0881288065279375,-0.46320971366544994,-3.349648059947339
127,0.04383773434587096,-0.12291360510384298,0.030696717979604903,-0.030406487290995474,-0.12026286808428802,0.0617049196267729,-0.06047759535355225,-0.10725720107261567,-0.20953406256068974,-0.14593932489714898,-0.19921553635929298,0.0011251181871479827,-0.3225209854970132,-0.060431629958928305
