,AF3,F7,F3,FC5,T7,P7,O1,O2,P8,T8,FC6,F4,F8,AF4
0,0.07459461343799165,-0.05592424254510994,0.09642324424273085,-0.019318566657956518,0.00011838174112607531,0.005296798155541438,0.04793870583568399,-0.008655260808864074,0.007088417004328525,-0.05831498791864231,0.044807508384507214,0.05503688042224938,0.005556509667104282,0.03126388921850556
1,-1.2520735675956896,-1.6367519175196674,-0.9773930859425686,-3.5583356313325303,-1.2196910580184235,-1.9266000823280884,-0.7896819638521448,0.24129045924125925,1.6711889944529905,-3.5103654049130455,-0.1463898990366317,-1.2872994109767604,-0.03592637107981836,-3.1286498963288087
2,0.13310481459510556,-0.0505074445006245,0.5919172537054828,0.3860951803302825,-0.776454812559435,0.43321384623952763,0.2151454705374908,0.4417333205334947,-0.18344793066251214,1.0181955220686913,-0.09211759245231124,-0.009001589642991064,0.20405164473083345,0.7652963571620096
3,1.0693993158342305,1.6556709456402172,0.6643945541575267,3.3616692916028126,1.5153556080684563,1.8488870572973513,0.649528739412416,-0.43937463342134225,-1.79000120163276,3.0253176234495447,0.052578440394991,1.1590590753059427,-0.04839233207071919,2.8174216577888647
4,-0.19620355768323283,0.2047279192421191,-1.1025940111161434,-0.6649448613918802,1.365073598394573,-0.8759860172017261,-0.3903980654486048,-0.7416304853013651,0.4833261654407181,-1.7310237837119893,0.22032361573954742,0.005507549887523959,-0.3545522780588499,-1.4136540585350255
5,-0.7755187221241716,-1.7298905334774957,-0.11402381744154841,-3.0091207878587367,-1.9866984061132853,-1.622273571853679,-0.37187766408833317,0.7499280917052584,1.9315468519711216,-2.208810659190855,0.04878878403937,-0.8992767498686286,0.17265055496526802,-2.2066568663571795
6,0.03338322924650542,-0.4126785678292938,1.295875731878951,0.8048066764922935,-1.6595829373747826,1.244963514103166,0.37159108349109304,0.8349568485067553,-0.9615957229073131,2.052592219241798,-0.4492451636859818,-0.10078711919019821,0.4311744731406706,1.7629816062512036
7,0.5499832316346971,1.9164090296668792,-0.4831773464014194,2.5976039452239066,2.4790841314062377,1.2270005617787598,0.078226592660196,-1.0422788432356553,-1.8976538680297672,1.3020739109889325,-0.05115602795272346,0.5788598509989851,-0.26026697798229176,1.4439536305418756
8,0.2965442565598794,0.6293973921739974,-1.1561776469161371,-0.8200254461186975,1.648265596947195,-1.4187671697752815,-0.11610963943439133,-0.7372458320148215,1.5122133445748331,-1.9928332707703529,0.7144652621831472,0.3167376191291943,-0.493448062178519,-1.7391541746389412
9,-0.5254326562992574,-2.2453920538336796,0.9320222897034861,-2.1972607373715785,-2.840371376791945,-0.7338025604991069,0.0651008802387933,1.202341777171442,1.5468204700671269,-0.5205927169622349,-0.11829820001100157,-0.2911456014206667,0.2883165667848574,-0.7176431754425535
10,-0.6360450605457559,-0.7733239884994257,0.7945740547426386,0.7583505061711715,-1.4135398114499613,1.3063728270604469,-0.3157627470373003,0.5396489063898487,-1.9032929848797844,1.6889284380121548,-0.8891384697053699,-0.6253612827050165,0.631413572358477,1.3733560522432982
11,0.7157314399611305,2.6890933522705502,-1.1155973305906524,1.825702802552675,2.9804796582602346,0.3026732747836632,0.09206322797151388,-1.1839085168835357,-0.9031388765787104,-0.0352478624810392,0.44886661710083986,0.11861345433396328,-0.32292551762094374,0.19602955738069713
12,0.8222091620124158,0.7643806818842811,-0.39590824552847464,-0.6493968369517465,1.0926120562644321,-0.9278314380077698,0.7542019833385946,-0.36005882723369015,1.8967644712991203,-1.3153971270878884,0.842579603031636,0.9524350056124745,-0.8878564946759961,-0.7945696697920829
13,-1.0202000246925762,-3.1575572063046544,1.0411566285974483,-1.47138587795822,-2.908282399372074,-0.10780362788786065,-0.6053872431050915,1.024525559059158,0.1776383767900503,0.39893215625080314,-0.8379431937248217,-0.10048457302442212,0.48613080117558366,0.030132348672660115
14,-0.7676253764404314,-0.567094517380383,0.13698701704011362,0.4792955710996095,-0.8101547178586327,0.4376036741361779,-0.9671313254196654,0.2844999086194021,-1.3885501223370071,0.9858496962271652,-0.5057000130651237,-1.2005208756711647,1.2048634584021691,0.18562699519155101
15,1.28554042648512,3.5247723673059075,-0.8312188830329057,1.142011372629192,2.721804328089514,0.233460888989886,1.378264929874084,-0.81989856554474,0.3161107945023253,-0.6825545485832447,1.1278063145432833,0.21409335854461384,-0.8749085891073992,0.021031836515868506
16,0.4856457498345956,0.21760675282109812,-0.11322146705968124,-0.21558092679620047,0.6140077643295347,-0.06325184590383659,0.755598814551897,-0.328175528892386,0.4915032414311356,-0.7013705784022725,-0.08832883150765287,1.2829721704776622,-1.435498752900172,0.2810323063734315
17,-1.3748199670427208,-3.6748569507370084,0.6683665128881904,-0.8901897157888105,-2.5476162585077122,-0.6097100863796177,-2.164540944946266,0.6717289985182131,-0.31086264091958127,0.9860648675920799,-1.1698896040106896,-0.3765153524085618,1.487859838991152,-0.22805030133207424
18,-0.0645439041969035,0.1788970635803274,0.3018804518049559,-0.13932335134106336,-0.4542308126353006,-0.010820694391752782,-0.059242163052803276,0.43410881760597053,0.4853334765113751,0.368156579594161,0.8065542199349012,-1.158988199372915,1.4136523928275722,-0.5067898006459159
19,1.2046615259204467,3.549474753025664,-0.7192260993311292,0.7873510202778645,2.4593571542619777,1.0342170259834838,2.647060937933994,-0.6360976796283779,-0.27629939197930165,-1.32351098562394,0.8883814085189513,0.4677099173793719,-2.20666002802909,0.4072012654058709
20,-0.3729305479023237,-0.48122995262037155,-0.5711519820834332,0.5168883936446639,0.22670116543554372,-0.2527070444390975,-0.9817895567203887,-0.5078405097800144,-1.153042346052447,0.13276843367337984,-1.461456906811062,0.8602013662130191,-1.0366769450165276,0.5109001885275807
21,-0.7495070423187,-3.176613921753716,1.0650265784131419,-0.8640743500375325,-2.428539811575588,-1.2746598898948416,-2.567977418165258,0.6976210217225134,1.28292376207222,1.601669905630119,-0.3163023960105772,-0.3737377135056376,2.838592004272709,-0.38191736615478716
22,0.6948063703719399,0.5643794556936638,0.7289521077636819,-0.8083340794073482,0.14143060228967624,0.7161473434953973,2.04924055799358,0.46934930060858,1.202288010580958,-0.8630180902443318,1.8816612309266951,-0.4958233363197305,0.3147354550109609,-0.4372145325775164
23,0.03824728825691533,2.6667037860581204,-1.6597622779201957,1.068646227484368,2.3466039329262367,1.1968843499782253,1.8545860673046486,-0.7807291576510009,-2.3434153910555997,-1.6563344428192512,-0.4126735337826464,0.04111755627009294,-3.189499271668326,0.0651680235783776
24,-0.771480743323388,-0.3707801760077117,-0.5974025732265646,0.9331823846589561,-0.6235662843167576,-1.1372537509670602,-2.7571264220233473,-0.29609165432469436,-0.53918588003343,1.769058078968766,-1.9794030851889457,0.22200492102217514,0.6293631529962892,0.5075539166726063
25,0.8382231493439389,-2.174185685823996,2.330543526673321,-1.2844942268808346,-2.107450483247651,-0.8444939260505099,-0.6782394909617425,0.7910179162794005,3.0174565243680376,1.328011994837041,1.1163338303914363,0.48110662632649503,3.129827269354361,0.47617811429562484
26,0.49666902118597495,-0.06153075511687901,0.09250488764995171,-0.8969382511580682,1.0958152697854642,1.304154318351663,2.8098077863296185,0.036339078037588256,-0.6554479921081909,-2.6723998618762836,1.783763439948026,-0.1744764457275731,-1.5968589552179855,-0.9223141434042396
27,-1.718489888169448,1.8380603507788427,-2.827495868704642,1.3996336943083212,1.691504819340263,0.4183948752600631,-0.5910989250587756,-0.6654475002340355,-2.9584608403331942,-0.5477734256799701,-1.638965908702748,-1.0433720958291073,-2.634720705950241,-1.016612967567052
28,0.16914514052623422,0.6087042654116693,0.7192099335401086,0.7895642946071797,-1.4119952479746931,-1.160098273064078,-2.138723918309222,0.21315003797669108,1.9680898445902797,3.3151787460003193,-1.4209627639227012,0.39159631299827025,2.3666035332208133,1.742290103594617
29,2.3899333201912913,-1.726450482559593,2.916072931934536,-1.3774384625612708,-1.1878714685848895,-0.1603154404938903,1.5257240973268271,0.4065212622950774,2.0635471651831034,-0.5992670765036134,1.9134650986252155,1.4582129465870861,1.7970306429277778,1.253077629861526
30,-1.1510766028452057,-1.1075912282161933,-1.6176824992552923,-0.7222253152937524,1.4978676395036623,0.8428425011064602,0.9508540421178953,-0.3537440630110196,-2.888395224370772,-3.452373688074546,1.0490518341009814,-0.7764351772880079,-2.755339903065659,-2.8150189904412164
31,-2.6519598281643466,1.8103344315717882,-2.482309603228586,1.2744824913713226,0.737347536791292,0.2030092066350667,-1.8202292363501689,-0.08390009930688697,-0.5483268560110028,1.863200768722866,-1.977830755027382,-1.601458735138837,-0.8135923320083528,-0.9526193830829545
32,2.2484116999190626,1.4205393044703032,2.296938647940186,0.7488472294281273,-1.3959196293555964,-0.6081847203587497,0.3429093524653238,0.3329470578905151,3.000624204499834,2.9630528299790306,-0.7808334603829667,1.1361520878495959,2.678737384445094,3.804594975810691
33,2.4025756611515514,-1.9791094730684038,1.6031374674380885,-1.1911789492552418,-0.43873954640627433,-0.4761273262829353,1.4293159419528771,-0.19710145192217068,-1.09304625488674,-2.8892722387572256,1.937744678148102,1.4935719968172096,-0.061254525697987186,0.09635950733171762
34,-3.1878613754813974,-1.4910712440105804,-2.48808235446009,-0.8318366528879537,1.2300523927921336,0.6752358635021332,-1.2961685082985799,-0.17059168633903166,-2.165705580215783,-1.9361148577420608,0.6366686315942583,-1.2914104579413002,-2.1966011331200623,-4.334909514786819
35,-1.6980126453003195,2.0923933817479217,-0.537199518014798,1.1928082073669235,0.2859602699976417,0.7302582222999696,-0.5947655823906208,0.34493642540009234,2.246864941167934,3.340247206612872,-1.8989010233415895,-1.3009262472936272,0.5956366942933907,1.068648888208786
36,3.72788803917467,1.3661237944771283,2.085685016137714,0.877368814924528,-1.118169935878615,-1.0825724675109536,1.6188934505017003,-0.04946167530228055,0.6173089667446852,0.6834646729813861,-0.5498568972038393,1.1957049277698883,1.5139878754628457,4.18519729158344
37,0.7405048849752948,-2.047419757218565,-0.37481720584598244,-1.2612773482614665,-0.177301844009805,-0.6735557552080857,-0.25772853834733,-0.32560760598561,-2.4134790418890715,-3.040172414950379,1.9094033801267027,1.240606671384427,-0.6719632214331803,-2.120285812017519
38,-3.759440467905286,-1.1729332453081145,-1.210098281015375,-0.8118390392051115,1.093724602917782,1.6444176597928024,-1.302147422936265,0.21858406122516158,1.0862411440590312,0.3442767299098513,0.4144666072617102,-0.9848546676868473,-0.9184566234074031,-3.4295076599337553
39,0.20877478030633193,1.833881175836485,0.860420819665775,1.3135446388419096,-0.013367729479655416,0.14557663544869745,0.7074296786970761,0.17959662287676537,1.427019483367205,2.0768689427729825,-1.9412231438441436,-1.4371207012698977,0.34709083882651975,2.66488728865432
40,3.3424040474896413,1.0560015918953753,0.16304067292221458,0.6401356841708803,-1.0848936244091485,-2.0395199022147783,0.6141543728286929,-0.2552440122213307,-2.2581034110935962,-0.720984017730809,-0.14351705556245062,0.9119085811394346,0.6664085501148628,2.4272990998660675
41,-0.9443873747859544,-1.5490522934440891,-0.8395856931234985,-1.2705389865904748,0.3509474304358575,0.773746955834062,-0.5243083706017314,-0.0028794734884089357,0.43995833357484765,-0.8069044693134959,1.9111292693880029,1.8200273771288138,0.1601291816602151,-2.5469485366705644
42,-2.6548150319857666,-1.0981793394791064,0.7084616791002248,-0.4421881265990626,0.9594757551913338,1.9854584536124207,0.03080150632760499,0.14422212998274797,2.3593147891131654,0.2243254117514874,-0.29113758488801383,-1.1943535829162337,-0.8680636284891207,-1.6522789271369074
43,1.3907895539195918,1.358127883035554,0.4536332939709277,1.122302010922127,-0.7886542485352631,-1.786337218996709,-0.23638892456798333,-0.09962204354364446,-2.5509335344305533,-0.2551109460733109,-1.720383990028209,-2.1352927678464284,-0.5614096344789271,1.9402974153803227
44,1.8886447306832792,1.2637161727386002,-1.1690275296194104,0.3128423678107295,-0.6065108700199661,-1.3987789518205092,-0.26600756758450184,0.05697224268826701,-1.2368601682595879,1.0497541611000858,0.8459249681052871,1.861716423047792,1.432969325536515,1.4465640741135883
45,-1.5945066196638256,-1.4097324578403052,0.017854526009142082,-0.9406334998840402,1.1776792934645752,2.5190416950029695,1.2725772902281203,0.06500563904493774,4.144394637326311,0.6269694356524689,1.2932741003761858,2.0761569910812074,0.6325677458687848,-1.2580244992310285
46,-1.1608447072804615,-1.3995099126523831,1.1875545359813922,-0.29228384999982565,0.010955969593518612,0.44994210242088334,-0.0651722615200699,-0.24830202884588784,-0.7908683692166618,-2.6952326595700558,-1.4139315146107514,-2.699527357522583,-2.1125579006763364,-1.8413079184707573
47,1.6497274401757982,1.7458901776296802,-0.3026252259475912,0.8330978575423791,-1.3305738586821825,-2.7078631282827232,-2.182478098609382,0.09881705070096297,-4.64043241190141,-0.051993403295992946,-0.6076713232499522,-1.4637765344792124,-0.3188233716433785,0.9281383011974713
48,0.4942978232071218,1.3054294774637158,-0.9196294191499513,0.33764734109961236,0.7149069965833668,0.515992566555545,0.852362244992199,0.3379941826554987,3.051246251487972,4.130718356760903,1.8502329967018822,3.33227428972934,2.6239680125075715,2.550477165470299
49,-1.6180861273800722,-2.2591067107513303,0.25983950209447476,-0.8759897600959907,1.1088231967783975,2.323118007250853,2.6452899299318857,-0.32136688047124157,3.8780331884373704,-1.3864406708264154,-0.2840049448544878,0.3732329133532656,-0.24880981893730594,-1.1677997720182465
50,0.1307658627184834,-0.8432873266699004,0.6010386933545466,-0.3511529398142868,-1.3591366836864793,-1.146656501740115,-1.7861029330763536,-0.2863320314970598,-4.792634641103631,-4.80888458253006,-2.0150906483535946,-3.4061603805512473,-2.7895038003943307,-3.1376282805923146
51,1.5022758895307935,2.7297836779898765,0.08163684934585912,1.0744572137958295,-0.495288010072743,-1.5718998536225766,-2.5493609524296232,0.5087913524745814,-2.1729438731258712,3.276318218226432,1.2529602823425088,0.8706784762729393,0.8388163942408365,1.8892278445013004
52,-0.7074301568075422,0.023511591625865857,-0.42326146741227616,0.237075540205679,1.6869644060032842,1.245798121487257,2.5085927116176627,0.1194680969222425,5.495380422353648,4.419633803826157,1.8277954607642943,2.7733146989675235,2.6112698001525856,3.247143217050623
53,-1.2857520359136785,-2.9306197842966792,-0.5767169467447447,-1.3703169798754824,-0.3821021902734894,0.7833928204693325,2.014125779095643,-0.5906367727841626,0.1680141694275723,-5.010430895987974,-2.1248762542502826,-1.8296089896042895,-1.2566247624850475,-2.78112134088761
54,1.17734252669668,0.9847974757969841,0.46203253165897856,0.05567363733185418,-1.5340909680344739,-0.8477885221284635,-2.7689324201937207,0.09146780786798414,-5.075789934148939,-3.0120524146733025,-1.3057878935681053,-1.5784132740978716,-2.236438290109326,-2.7584689368557784
55,0.9948841589103294,2.7408364870311983,1.0599205796552735,1.6789002914043247,1.2877643910695438,-0.2453787009374274,-1.3087223427243688,0.5480885186677803,1.4542255951479663,5.9942624182204876,2.7405235631204716,2.148825091822157,1.448490532923539,3.494091429701844
56,-1.4715925365555012,-1.9300641033012855,-0.6849926224698109,-0.5269228457444137,0.8747275265208639,0.17128808945317375,2.5107895861125025,-0.2703707679387418,3.88980934974086,0.9918890816718291,0.5595689457033783,0.2044933090539413,1.8383370269512422,1.7876191598072355
57,-0.7216707840764903,-2.2043017485474117,-1.4185432677747332,-1.920103687121789,-1.9602110235029913,0.08294579445557516,0.720079182834655,-0.41067157195449117,-2.260852505822162,-5.857386060635214,-3.0153845001193362,-1.7156506271159966,-1.505827430687349,-3.802273770438114
58,1.5796459721731173,2.5967926879837595,1.0093879162927148,1.1408408818484792,0.1649077008266744,0.5105788762530447,-1.8632533894041408,0.3700602054362399,-2.5402998859465113,1.0067233071050357,0.2604901357330081,0.8896832282984374,-1.4960159072547987,-0.5714369233141523
59,0.5798554538563738,1.4998022183575992,1.60875475658823,2.0270830624981238,2.200528790831872,-0.2396110158793502,-0.43959556140577594,0.22858214159354673,2.224013801360647,4.595683908522323,2.958041298204767,0.706499070899802,1.5713729488161046,3.653803559332861
60,-1.5825243483327722,-2.8977187807913753,-1.3558561263918179,-1.835827413679805,-1.3485880450218093,-1.001684048607148,1.0583368768742991,-0.3815988473207714,1.5876753543620152,-2.335955888782923,-1.0309165826627331,-1.3583801449453747,1.155843420048841,-0.6613038153687724
61,-0.6255093412479087,-0.8454313324269921,-1.629105522055316,-1.946589764180144,-1.9311309397458913,0.5550326738026875,0.5146340314142214,-0.04197925394160436,-1.6762519820817043,-2.5904847699091538,-2.633734979661814,0.48997134042810264,-1.7171905980338626,-3.118822167115128
62,1.6148304925666541,2.891050187601928,1.6641542634752358,2.5199063352478617,2.402772111244989,1.242566155416153,-0.329510825956938,0.318561499800245,-1.307853543806484,2.565270673547463,1.6863958814127193,1.100212933175567,-0.698647625859457,1.7498320557006117
63,0.8058222176746167,0.39589590315552803,1.4934565590975322,1.6540097224680388,1.209399054737667,-0.8760309521355986,-0.8681113243733639,-0.13224619967308426,1.102165962946021,0.48866148062736275,2.104246274356924,-1.4301271062182557,1.8835300119485672,2.3121126949563835
64,-1.7786692168789593,-2.723072050948595,-1.8793617420114694,-3.0719684703646504,-3.08873113929074,-1.2795725841069872,-0.15996534275203103,-0.19261390439594994,1.6103394397970747,-1.646610117419063,-2.1945516238767246,-0.2858581220054235,0.05861047297203649,-2.590159540729024
65,-0.9800311963639525,-0.18887304917842293,-1.2319916773153725,-1.1831702283799068,-0.20429539970692115,1.127510945996945,1.3558736864090148,0.2902514196930746,-0.8826957288677415,1.0229287863331225,-1.3973825426195083,1.7842700215952898,-1.9218716759345449,-1.3573869544150514
66,2.0718739361855403,2.539061376212091,1.9437480571241146,3.3732980803972383,3.255466405625845,1.1850849799243928,0.34071796644532976,0.0011099072768146671,-2.140958841671421,-0.05317324206327154,2.503338954594056,-0.7167228930418333,0.6967379978449076,3.1107462230298357
67,1.0013538982583967,0.16031438275441248,0.911064991355115,0.6411752389950469,-0.8470961154486752,-1.309608070451771,-1.8249187938487563,-0.41937157495722266,1.122670491858374,-1.471187565917276,0.5345811558844303,-1.4559670308531871,1.7084323821797307,0.3946623563011309
68,-2.38233933765865,-2.4161408777889566,-1.818209314055756,-3.364276026302809,-2.8704440138033176,-0.9935136997570891,-0.22440894088965177,0.2631816591092776,2.4986941680308363,1.876082035237082,-2.518320073847221,1.4843357203815593,-1.3859696824960275,-3.2844307411128297
69,-0.8041045692950677,-0.20625482592811245,-0.637339060204653,-0.17755831831571184,1.6923673279795153,1.4428493670334812,2.1512720153653935,0.4849980870922602,-1.6375877398010357,0.7819464071537113,0.408610844881591,0.615935403951904,-1.2429461716964756,0.4195248231656071
70,2.551031723570343,2.348843350347994,1.5209982754953386,3.0866464274533394,2.029206624691121,0.6930658616995744,-0.12335945701687646,-0.5878888277500441,-2.4461721925282074,-3.116255511435662,2.145223628435174,-1.698249857393563,1.8191853724571778,3.167476423696182
71,0.44020849875126555,0.24760481589681382,0.5230535556212514,-0.08757405193759737,-2.1222045877900135,-1.5135281646989576,-2.255979473416702,-0.44012268661115556,2.086904121379258,0.6819704936222153,-1.2708433554884777,0.358071506805651,0.6592996580038711,-0.9589421070612674
72,-2.4593826956061635,-2.2815650091091335,-1.1454511444501336,-2.6696371935829695,-0.9390452540182813,-0.26660179830363245,0.6089393905701819,0.9224352308041944,2.0108784840433893,3.2931136100560843,-1.3753389158579028,1.2711660115686492,-1.9122736995104128,-2.9102371097510753
73,-0.04924648957531828,-0.26358909319437396,-0.626851306641557,0.1306992424440006,2.0268386453014218,1.460598896439239,2.1068290766778413,0.2543871330081781,-2.1692968609865075,-2.254639811596958,1.8483699755699348,-1.020021013817494,-0.14051525904755535,1.2034148096064168
74,2.08729902870919,2.1574744759568834,0.8283406855981658,2.256822638863227,-0.1293975793675271,-0.2580619547716771,-1.1308163032956564,-1.1829724289536685,-1.441897981651117,-2.344507027850282,0.3446680536125413,-0.3972229381691895,1.7262117318685404,2.6960932715644956
75,-0.20988980382106473,0.2866359861058244,0.9138482140126439,-0.0345680020455914,-1.4326406713381903,-1.2087780795888912,-1.712122368391441,0.05616564877889467,1.7761979460380972,3.2275216815735974,-2.0002855711790817,1.0341225774629248,-0.19772678869922816,-1.2776276998706386
76,-1.5170661739746667,-1.9542612947778857,-0.6802250184062586,-1.9196998816685142,0.9164282812905147,0.7882219223924847,1.5939018711680388,1.282993636685548,1.0627919502698426,0.6561711691593746,0.6953774669332413,-0.5046327401387077,-1.4038812528354416,-2.627681481492917
77,0.222759699465656,-0.37450491579861045,-1.271692460572718,-0.07449648920091309,0.4993882912179674,0.719885393624799,1.1104025430927542,-0.41997012584752974,-1.0349819922431256,-3.1340749519135103,1.7441318650828894,-0.3310908712467396,0.36668222306193915,1.3970707348185656
78,0.8963530455136959,1.6960524067209204,0.7253604738501798,1.6213161042174522,-1.2495810117465735,-1.1900148360261655,-1.9168148237580143,-1.1733560074684084,-1.1048322993668214,1.0911692235332668,-1.4963193241073827,0.9524337985481142,1.0551511412322532,2.63847489293922
79,0.046704495252913925,0.5795782827447925,1.5784891294039378,0.12175068371281944,0.5263894676122145,-0.026606042319016896,-0.3619755433522138,0.7295743843995125,0.23511888283104046,1.9394391741179056,-1.2630368326807426,-0.8303172051732931,-0.4622656574748413,-1.7313090630586796
80,-0.3894994636004018,-1.4482050823143544,-0.8985578743099774,-1.2612273771017697,1.091962901543272,1.3383858723623054,2.0331136168155752,0.8684973659816516,1.6007208271825664,-2.198018643111659,1.9484016939508766,-0.6181674831372898,-0.6815632162717317,-2.5092902481159673
81,-0.5505944020780701,-0.9238885320808787,-1.7751431500357815,-0.14319132688565622,-1.3848354754923557,-0.7698442325039504,-0.4506045856001343,-0.8791176000734049,0.3151297768100663,-0.05174750186748178,0.8020543093738504,1.946554217023142,0.5559126532491159,2.2673039933206858
82,0.13513533184352688,1.3034186363992706,1.105377106705951,0.77356462536741,-0.5460742770968154,-1.162677080053446,-1.8950238448412415,-0.44582632252308635,-2.380283162399908,2.230219333864025,-2.1371892443174163,-0.4952000702584584,0.20146423385540774,2.0029580760169754
83,1.167397715110489,1.3780950011544526,1.8858253864397887,0.2621556992990896,1.8747932644799867,1.5311703053359074,1.2137267870814268,0.7991991518178854,-0.42919881039937324,-1.8521142870070075,-0.5137986738530187,-2.484736429906608,-0.6085227815729346,-2.7742616292148425
84,-0.2102248742543689,-1.3574089656368429,-1.3004253251730338,-0.2079489520921162,-0.18157833621980562,0.6670978815278243,1.4920537248188208,0.023681401927452925,3.1611578787777943,-1.188186859910471,2.271815117724992,2.017292373975088,0.4436902070589984,-1.0413614233353021
85,-1.724724647151382,-1.8462489505699993,-1.967978196013385,-0.5947209247327885,-1.9033770595791792,-2.1217063946256034,-1.7817626838355884,-0.47570872824750216,0.11580130465102399,3.109862901839736,0.3591213907533387,2.1396366958333664,0.4824023745693394,2.9135890891933056
86,0.5976796326405911,1.6675072138868843,1.5192910569963156,-0.26851552958902253,0.8370981159212326,0.07451551161313927,-0.8855272462146315,0.26645229422405814,-3.687456991989487,-0.5115862855141498,-2.525420742609651,-3.358003916172413,-1.188604259161035,-0.19402116144344594
87,2.041631529193925,2.1715196759893547,2.0309978312674604,1.147186155007253,1.5075492389037135,2.439997554310809,2.00768775356425,-0.045665493747138935,0.445810803401184,-3.339913499379888,-0.13870411041830405,-0.9986407234553429,-0.050426364199989054,-2.4396419436125543
88,-1.1683151212967786,-2.2007531984870674,-1.8332725446819538,0.45593581754467194,-1.1823037706496617,-0.9380906011843014,0.23585870825110947,-0.3036658906626755,3.848344718880625,2.229116266585749,2.8948675329760696,3.98272625020089,1.8363305473657678,1.3163120516916167
89,-1.9927213712160432,-2.1819830854598172,-1.993058849085564,-1.7767482185986074,-0.8504723934471932,-2.438767762440676,-1.8124904667337463,0.660051621685111,-1.014723529380439,2.5745903443860403,-0.3566025984862498,-0.4861202579248693,-0.676895768858724,1.3696590724555338
90,1.69994541141198,2.8017612786042054,2.2592093663981667,-0.24072138783054547,1.0585937114868489,1.77383883485992,0.21623235580709363,0.0008938756279579102,-3.7156799828134255,-3.374337963026895,-3.179766259066811,-3.6754722061040406,-2.1623461980208534,-1.9218917563973974
91,1.575076077862022,1.7748568238012705,1.7196146453863315,2.2447131517069203,0.19127904237518628,2.1365943796039146,1.263723330254984,-1.2073098729337082,1.4240743926592347,-1.2112821019199023,1.173061571626265,1.7177264396067562,1.5058184600315785,-0.014145049606120307
92,-1.9479758008295167,-3.2196299510556914,-2.6976910615121534,-0.32624554863776395,-0.44575656405904146,-2.435174569017612,-0.23664799631923622,0.6641690675093741,3.4788795218541195,3.6369733176631645,3.103362705021984,2.644175577323328,2.0640648110875777,1.8062993040785866
93,-0.9399243623885533,-1.00041254509936,-1.1224843592984743,-2.330916216169078,0.17911232312174163,-1.620860711828523,-0.6046670402848853,1.4906004181456027,-1.6676262753934323,-0.18197284973183075,-2.1157068894140885,-2.2540360329598017,-2.139852270728438,-1.1574405502042884
94,1.7517308480852931,3.2072326134801665,2.9553790569690443,1.0395884181757606,-0.5025220894900233,2.8129581144743723,-0.27327865065692064,-1.6138761018105134,-3.3121852623959764,-3.078828300732608,-2.5029797410517474,-1.405831803602028,-1.6512732142327704,-1.0825494348453024
95,0.3544351158949853,0.08470127164269678,0.2474739977313213,1.9411725232513055,-0.03584275088272939,1.0354187143026266,0.18683106364299354,-1.3233527176834947,1.884637566698479,1.1101893941355196,2.8236847724825003,2.0245212978414515,2.342401017187908,1.7439577621174467
96,-1.127788723087403,-2.654165790775047,-2.843694974292836,-1.6285526618505042,1.4762390620647063,-2.8688326938540145,1.1788853351989206,2.6524106176046995,3.2527877555726015,2.06422269812579,1.4689515275015237,0.5132236420776819,1.2092433460637444,0.13425147501419424
97,-0.09145795932125446,0.6477668316222467,0.7162243450025607,-1.1491448783567177,-0.6737302341018937,-0.5480869535830001,-0.3146056559114616,0.6022847843458886,-2.2496907317576342,-1.3390273823143681,-2.9619918391188915,-1.3479288083754875,-2.0795817614412297,-1.6104255874680067
98,0.2916270718453108,1.674754380588091,2.288252605670291,1.8715859346566979,-2.1009072341432122,2.654028250075398,-2.1208755932046985,-3.4922034658063263,-3.166794724050893,-1.0747721274196318,-0.3390054022464168,-0.2727671970011049,-1.0488939553079655,0.5730103414234555
99,0.29136410136471713,-0.9284023724211077,-1.514821227613016,0.15818818698633044,1.767358260642888,0.30349725568518454,1.076863490322991,0.6212869065315144,2.83472070528767,0.9567791804660551,2.4179845958353163,0.7471908613222642,1.5519949627571077,0.9524884375989495
100,0.4234881507860439,-0.5829953280378486,-1.376575350125586,-1.6763216668665049,2.088903088704613,-2.3012719092489045,2.652451589260058,3.836328542513356,2.8287802782269726,0.4958126442000055,-0.45851674841231244,0.6025843506115284,1.3300425727806038,-0.7253321484865156
101,-0.8707045274941052,0.6930918252334315,1.945407589000193,0.7858778972186147,-2.8619843368139177,-0.3771606439521281,-2.2656447184774535,-2.1146345696835844,-3.5314415502655807,-0.29835134255715395,-1.3838464179712284,-0.6678748503111384,-1.0918348104811844,-0.19363857401643703
102,-0.7251652263655104,-0.2502406248736793,0.31741877528373375,1.094193920431689,-1.3888728581661567,1.98798134209951,-2.447356154849903,-3.4944905833396263,-2.069127676964842,-0.4634391122201741,0.6269746446303467,-1.0967392117384167,-1.960581868165907,0.32031182084570187
103,1.5410923899931206,-0.1316801278076704,-1.936963963265953,-1.481822381968266,3.519002443895378,0.7485584318619609,3.442432998786562,3.5130159027251264,4.086908804289947,-0.22712691572332414,0.27065687574701064,1.2504207273369206,0.9803463261269553,-0.23469543527867204
104,0.5193031412341605,0.5860914677771248,0.6557731991432252,-0.27855594929516986,0.24815762482753298,-1.8818322633523783,1.4700178755217552,2.479794693905091,0.8978504808517422,0.8298591375369938,-0.16108417677826053,1.2494976918426555,2.6312408671971634,0.33015451610079755
105,-1.9458865307157647,-0.4022781497868424,1.556534917826032,1.8239817655875452,-3.4492970592232917,-1.3041418692420268,-4.130451668609161,-4.440296572778653,-4.23436660485541,0.3287301344006037,0.5013390182305322,-2.266689551403957,-1.2848438604914378,0.12066616376717273
106,0.0263173009934842,-0.4449008896618918,-1.3756399701426756,-0.5812058028389113,0.8691615278436708,2.0875010564332204,-0.011589489386437335,-1.0299218201721463,0.47425595749131405,-1.2549517716685414,-0.6503490806539282,-0.7164872443162523,-2.9714950409420173,-0.7604930072984505
107,1.850300230279943,0.5789081680009778,-0.9518399037058245,-1.808957603322362,2.6745573620472083,1.8703551431146557,4.03826150289492,4.652647855466172,3.8412097783006414,0.036176622266082835,-0.7173127200390305,3.239193033416444,1.803976572729726,0.40940164899653353
108,-0.5610592915593312,0.09427651650333536,1.779550246725775,1.3181412191844226,-1.4906425286841474,-2.6127743913662824,-1.43435892948216,-0.47105621534628367,-1.7320428062709816,1.3808542546343496,1.3814124451025704,-0.5162719426424797,2.748075790037336,0.598950206634149
109,-1.2785039635087554,-0.27339904094219425,0.27566258733504556,1.5106619381666473,-1.5456596921247538,-2.266571991643472,-3.1993340648266635,-4.135425505471727,-2.984897035682008,-0.6507172462712294,0.46514053000227806,-3.671418462602355,-2.1539799119022884,-0.9462415808515775
110,0.7398258677219063,0.10062974104644419,-1.8903443510168345,-1.8226913304019756,1.3714196043966225,3.3649573538920867,2.3967346761263433,1.640237215399078,2.6104839472411396,-1.0113992906797573,-1.6953018741563592,2.1266352960650896,-2.0046913156568573,0.22208938151562851
111,0.5124683482144771,-0.3622245822715415,0.36411918830745826,-1.0420438218397448,0.5895363916068062,2.360972523636255,1.9548034169889894,3.101533571896672,1.913424812485646,1.1516742816959475,-0.06382129288806464,3.2740079453809336,1.9569995083514784,1.0043360667712455
112,-0.41744379047379954,0.1166128677836647,1.7676629983321543,2.0523085066871505,-0.6288581069874418,-4.178428904643625,-2.639172157615341,-2.2410570207372884,-3.0134870870916513,0.21360388456419935,1.5117214410651514,-3.6018674104696915,1.0695808693123061,-1.4020209330776998
113,0.05512953978632728,0.9809212884801985,-0.9121165853241348,0.5184288563988309,-0.25452266319614897,-2.1114370825925413,-0.7879275004657889,-1.89142541393028,-0.9196917060966139,-1.215174284874504,-0.12915562871768646,-2.08680147913494,-1.040267291165192,-0.2792038147732149
114,-0.26406366647652274,-0.746566030200615,-1.4663092133137654,-2.0210156346224255,-0.30420559715015,4.864765941759311,2.2537022188722537,2.2538499856204037,3.031636574363462,0.7094333827216968,-1.0266564490942363,4.4577366017631315,-0.4219804605937147,2.391220476660334
115,-0.13472121055501451,-1.2340476302670886,1.3427881004914473,-0.032962973480308,0.6869007776786175,1.5789147305935702,0.0950837086959394,0.8292927344730635,0.20964995180604976,0.72521631041061,-0.08264473657938572,0.45353489785997214,-0.45282534219889453,-1.1733080671052687
116,0.94792982105921,1.5307510143473884,1.0219735533648195,1.7777054764060332,0.8873836593386891,-5.270400953728161,-1.5923910324386612,-1.8433731819362698,-2.8618881550846225,-1.3645659124401142,0.5839706896783811,-4.430801987785971,0.47813743564098976,-2.6387985421916382
117,-0.2995516353966598,0.9695324987537778,-1.6324608168812202,-0.3503974810323358,-1.6560341630571973,-0.9093808186538168,-0.009249408194423398,-0.11087215158405386,0.16125337988786517,0.1603525413740608,0.6379471185855241,1.1262838302863771,2.097196358394664,2.9260120581957034
118,-1.2549812678042191,-2.09754334426009,-0.4621123689107689,-1.3851037913630742,-0.7334858222157246,5.324619719657437,1.0768510613255744,1.254423182822011,2.6913779327369,1.4622949830935446,-0.48031442455306267,3.566065810212475,-1.398051184717851,1.8505995135770807
119,0.9920338139770603,-0.32135350832544873,1.7454794047139253,0.5896202930688167,2.663213352520273,0.28908606515590035,0.36256665915772196,-0.22814107378770185,-0.2620661789403568,-1.0813203867911738,-1.267126259254155,-2.1935731632125153,-3.352004230440029,-4.344170653141576
120,0.9892233017194845,2.1767772892309583,-0.17304384798944186,0.9103247146626602,-0.20909575052165286,-5.063068341173724,-0.9862969755669441,-0.701741880353623,-2.6181929320463433,-0.9592283865755035,0.8139329053655566,-2.1753449826948077,3.0044074333604813,-0.13597364729330286
121,-1.5393684655899502,-0.36451353501657097,-1.6403382985707566,-0.6555491553260565,-3.173674943734053,0.11478566488621793,-0.8013608456955503,0.26748271477125957,0.20793492288163357,1.6464653113601087,1.6462894107911783,2.4862200485303205,3.7790782013509636,4.846267936976351
122,-0.2455354707302028,-1.7597585770514412,0.8145560046876839,-0.4284370354097043,1.6352838895487944,4.618136160881814,1.3330482264055254,0.30970977499621966,2.6437276542115993,0.0775282858035288,-1.4519752612570604,0.7014513476188206,-4.848513084231491,-2.021253937120057
123,1.6021758139623004,0.7284728190157469,1.290445470157729,0.5343833609569962,2.8564768134710823,-0.21059737475795084,0.9876444807677505,-0.1274786004485701,-0.08943365531929026,-1.6152983259348899,-1.5632647743475427,-1.9980520634897836,-3.2124688715004686,-4.142515307844029
124,-0.6365808916158688,1.1086225423647362,-1.3635561270637024,0.02732115872757452,-3.0232718183835523,-4.176670498963426,-1.886626656434401,-0.11459729656171135,-2.719040290324263,0.8025444783559021,2.1170410001268367,0.43921804597811115,6.384824893848223,3.947523749185438
125,-1.081105371726644,-0.6050745136021596,-0.7089878112594553,-0.24361671964896245,-1.7237147972517999,0.01728176903374592,-0.7759869575387235,-0.08650987375387383,-0.05132670316353118,1.000903200626174,1.0098659898409499,0.9386362535513987,1.8096542141079537,2.350663796353937
126,1.2467977916444684,-0.6058490940327086,1.7083967032621306,0.2020423014789171,3.862946342519154,3.9158282065591896,2.326729935570801,0.10221401427723464,2.799612457659947,-1.31556488777576,-2.530647528374418,-0.9691168690306049,-7.168905343752384,-5.03313859108021
127,0.16504255898809905,0.11571357588397889,-0.03379834151808565,-0.1520290049269191,0.11441740799010862,0.3362972248827197,0.2692746288612366,0.2996930147293447,0.1998911882288114,-0.05271760374658447,-0.16769058081615468,0.36049477254313317,0.021754687817584658,0.04917042280327567
