,AF3,F7,F3,FC5,T7,P7,O1,O2,P8,T8,FC6,F4,F8,AF4
0,0.01857025711476846,0.012609306060378238,-0.03288126774871869,-0.024405427106240454,0.06192089828621154,-0.045962852186065585,-0.022562557089798305,0.04680425587070496,-0.062394420795417585,0.04643995408667505,-0.06046908130630315,-0.00901885952692924,0.08283738269614836,-0.030345008240230623
1,0.2147996006069932,0.4706399100029372,-0.5729235463353246,1.1193148365507055,-1.588542683351265,-3.369268982243416,-3.2211058564424175,0.45694125267341656,-4.848188992178364,-3.671071368969492,-2.1001776027972414,-2.099208376873814,-1.901600958129852,0.49968435771039915
2,-1.5583891636833163,-0.90537854307119,-1.4768368014547595,-0.07496617547516059,-0.9766302506274938,1.0017410181230895,1.5762443043724452,-0.38370794477959685,3.4478878510717186,-0.12115435987442286,0.009821989165548857,0.23538938396663242,0.25409853927995707,-1.1014610297365222
3,0.4376554453987168,-0.21782332170979038,1.2495305180015042,-0.9538027126732311,2.0561069019022424,2.898105258426931,2.3859372216380073,-0.2174102592317026,2.848099414194122,3.436771533445344,2.1313405449095257,1.9746584291659064,1.9443964771463051,-0.09968401257756723
4,2.63249148555502,1.5575269575892983,2.497495654848929,-0.03352785399801695,1.5632417707862534,-1.6660598868039223,-2.646091624724918,0.4882611154972903,-5.6768237175413825,0.22885256846552812,-0.09401752309013743,-0.5230098788378218,-0.7863199367661755,1.9014439022236622
5,-1.49753921396535,-0.19747189997440995,-2.3051659635655923,0.7532891236685969,-2.8208471857956465,-2.182906123965069,-1.0856209022253283,-0.10667530220251095,0.374223159430883,-3.0208927451773846,-2.16781837087424,-1.6751088815278778,-1.8510526534974805,-0.4980698066496346
6,-2.9496461649818437,-1.817175000817806,-2.7592580930078348,0.4498026599059337,-1.6021489287399184,1.9234120544781663,2.998117492560615,-0.262567676075206,6.102301367506234,-0.36154037856995924,0.4283650093935707,0.8637955722519599,1.5399911201582672,-2.1998505969567828
7,2.50177647868571,0.5507901366938386,3.251114266386845,-0.7817935154053359,3.6075078918531203,1.5173480328610849,-0.207260294312323,0.2995484757423707,-3.6910370503447,2.4424174186867735,2.0267070927765887,1.1024114550610404,1.398114994949006,0.9937277872796217
8,2.536186889181402,1.6982262673531523,2.3449456467109586,-1.0550871389999268,1.0317180001433777,-1.8679281803453502,-2.715827560071436,-0.22550767909770414,-4.7917788147518365,0.49767272816427344,-0.999131366578023,-1.132284410535829,-2.3328411971266325,2.0709678658076123
9,-3.025125338709941,-0.6522190538833801,-3.6813070515381887,1.2380816089070268,-4.109468796938711,-1.1181237326089302,1.0983517634826119,-0.2087872170600983,6.067709133452558,-1.6940419433474003,-1.5109023975366183,-0.24084766217318251,-0.47214777206638026,-1.1751299224985106
10,-1.7098771576251035,-1.3529144723910644,-1.6249686809541177,1.5451710586556453,0.027388283070676315,1.742560252820396,2.1336967370850637,0.7919627800441786,2.4319704682930086,-0.6344303287864372,1.6367143249418061,1.135543819794821,2.8348939844931023,-1.7617550353250393
11,2.8725010653616505,0.4319171693805526,3.4675686751181547,-2.1128552464524604,4.084000070254993,1.0108579502480266,-1.4474563849799544,-0.17709152116372154,-6.965947323195872,0.7441688214191414,0.508728233796195,-0.7759355046754616,-0.8018517968824825,1.0311364348919285
12,0.9205074466888528,0.9846765372144048,1.0528831841131567,-1.5723264893481663,-1.3010864784279041,-1.7924974210498106,-1.6456719931439254,-1.24388178591844,0.03311414975836595,0.8280078350649752,-2.0492722026958705,-0.7229773059341182,-2.737055824811676,1.5307536663692398
13,-2.1585314646983864,0.04244359743993936,-2.8025713443859197,3.1420101451722804,-3.4385453961899177,-1.02605670040158,1.4024023082623251,0.7369543123974923,6.4829114499993965,0.42194080687919394,0.914818530028561,1.68238343719279,2.0503957219105207,-0.7361489319363643
14,-0.5360503101780099,-0.7540413108268014,-0.9358591962893523,0.9312111046370406,2.4456919208954617,2.1153211406401593,1.4949819970862321,1.4755727811576211,-1.8360594307396203,-1.2054880891198037,1.9226971445514078,-0.10745046177387048,1.9463421170893958,-1.5026619964985668
15,1.2383119647333407,-0.6142876997135993,2.07836919670929,-3.8916511576084036,2.2730789651668273,0.9088853621952121,-1.2792011395546858,-1.2965475483097868,-5.184626214052951,-1.7361228387466363,-2.4793790142242984,-2.1822819338411077,-2.7894162234951203,0.5266073800417267
16,0.6792233026545091,0.7255945375611814,1.2991507891970433,0.30469794980141823,-3.1649977560957914,-2.5952555585501993,-1.6593571549423138,-1.49921666390725,2.673884539767927,1.9180436728955848,-1.06319369970327,1.171181467132361,-0.6962259484457878,1.6238429231361908
17,-0.529392316402336,1.1135988338304128,-1.6763296050232017,3.9443428255586754,-0.8513509350412156,-0.48083799469061256,1.3604861711334306,1.7219401296803458,3.7507610870991073,3.001450741480444,3.7403676818543614,2.08216164776338,2.6566590433237423,-0.5563996663651134
18,-1.1899356879643583,-0.8703677276093368,-1.9040477308570383,-1.771768285797887,3.315069830570836,2.963057373656702,1.8906340529291075,1.4040893941244572,-2.725397996471114,-3.0400338318990365,-0.4738076204834157,-2.153563169575049,-0.5078329877483996,-1.730728424577217
19,0.31772001552298007,-1.4134789537871322,1.784094519018531,-3.099624012177444,-0.49603251283203775,-0.24087271297563675,-1.7263639893674605,-1.9698937212284353,-2.6345333503052135,-3.918390518411785,-4.233843813162062,-1.385195412293241,-1.619137731847915,0.821027834556269
20,1.7211737954915216,1.10138028064937,2.392789753448587,2.9453758851501246,-2.9475450003616284,-2.9508133156051493,-1.8814824096873954,-1.2838311453928606,2.4274317041716467,4.466158067442625,2.337565491023697,2.733650534583981,1.101445204729542,1.6714406989485218
21,-0.6400539347217765,1.4476797871571467,-2.328400409415404,1.488852076937898,1.4955465204870517,1.0386970447592143,2.210702994801054,2.0754323478632837,1.9120358827405826,4.199636990250296,3.6689465890269974,0.2967314892965931,0.03316719714252733,-1.1849296673314302
22,-1.91037507094881,-1.3074757167994182,-2.471482551931985,-3.3529255723269213,2.269558298791443,2.4534114498822466,1.462394976686825,1.1824321577512065,-2.1657183986053177,-5.883162356798454,-3.9630381927772182,-2.7123718481918058,-0.7314479904785328,-1.39839690130156
23,1.2875017646647826,-1.2033422974962207,3.0408071570800788,0.45447313923399446,-2.021926438780056,-1.611684670576145,-2.5044931311573495,-2.099412512217301,-1.371748599304406,-3.7264373211349517,-2.083032889374649,0.8581468258712899,1.493153875373767,1.4777774270470672
24,1.5412743767379002,1.3683864390849303,2.0353903668144118,2.7711846544620755,-1.5433159405364554,-1.6009391110116147,-0.7167361598225226,-1.085836941462189,2.065620135607351,6.862589376541703,4.7646005426122455,2.083975502987317,-0.5628338450503887,0.9828551206407372
25,-1.9130468069805504,0.7174937380566812,-3.602339481794002,-2.155494675333495,2.1151419241942824,1.748113258353054,2.345723195883632,2.0770306127513978,0.7525445239680305,2.6526361732817807,-0.12283028358914043,-1.76033441285887,-2.373638170014863,-1.5912135056762553
26,-0.6295336458660764,-1.1634650968091385,-1.1868490104311393,-1.3188142080619252,0.980466947003907,0.696246788678776,-0.0514635613431104,0.9520063594028395,-1.9879336914349994,-7.0450424095456095,-4.3662787709956925,-1.0240435902001253,2.3620756360208888,-0.5590528274090386
27,2.1852346849379845,-0.08944586157099196,3.782832053957932,3.114970259980282,-1.926234502537456,-1.4522237089108998,-1.6868592178512054,-1.9965234096552875,0.03757759891847557,-1.3782127427899733,2.2996207812873366,2.2061073187351434,2.3095342809421933,1.5224008131166251
28,-0.591680029691427,0.5994381415216669,0.1606705611807752,-0.5906939938766873,-0.6829372037007047,-0.05165791413566472,0.4789424020919805,-0.7527018321223679,1.69887964290586,6.3173091895940745,2.766049124720978,-0.18961686299714986,-4.069659417951072,0.244644182441041
29,-1.9235103928538313,-0.5098695479915013,-3.5121385315049314,-3.088740716107715,1.6339133409714515,0.9483654570113361,0.7435640545968243,1.812319910541551,-0.8563929064595242,0.3910283651858273,-3.776053532743073,-2.1582281621600927,-1.403837600789585,-1.353841680140853
30,1.7696157766392293,0.33556226720515336,0.785356362248207,2.406571066092904,0.6467117632796996,-0.18017849500140276,-0.34249371055548544,0.5019565989331493,-1.0793679020277325,-4.878238666782441,-0.35900634706351525,1.2803523013801241,5.191165699649784,-0.08563916120666046
31,1.1678823915240433,0.8658900959142478,2.8710328155418536,2.162235729220203,-1.3806455415960905,-0.5582616401832864,0.10380021811613863,-1.478087555676212,1.4359857916412675,-0.059784787674776546,4.100220084584675,1.7300906196844579,0.06996060095549836,1.196159880327763
32,-2.5721426015844426,-1.5202030488047062,-1.4573088061185702,-3.639030523536475,-0.8056179503203097,0.08261609855341065,-0.3160825184710648,-0.2599172194178896,0.23168566890702239,3.1560391057516117,-2.1908925491171467,-2.0571859859437653,-5.536580333857683,0.04761831010595992
33,-0.1609831725263903,-0.7997606067944245,-2.032441816425661,-0.7013734632495335,1.2520268883590429,0.5229011538546279,-0.4997259039752668,0.9803213651382081,-1.5710257886593428,0.4894694317827119,-3.1988596878280844,-1.1219031532820887,1.1997921013392323,-1.1314656398239293
34,2.818308064841393,2.699411937023019,1.7638067502919952,4.022276981519955,1.0760897010827266,0.083884643177146,1.2064828464250466,0.11407223374190346,0.5726072772467967,-1.6287719603041848,4.175241338130253,2.454795513767301,5.24546908716794,-0.04534863949971223
35,-0.7519220905985775,0.26797734343951213,1.194116221117522,-0.7927449369056246,-1.2896174785733976,-0.8722032820518415,0.288084421395439,-0.3583593770768314,1.254979062667636,-1.505275705948576,1.3967639659011661,0.5395047834674533,-2.066990504241958,1.1822465102046469
36,-2.5476606341807253,-3.5639515786416047,-1.7146357260784322,-3.586437957268971,-1.3772175846698171,-0.037802852231011354,-1.9318990239113103,-0.14680929096575343,-1.0496776974556095,0.646786237363312,-5.072682615466732,-2.523633386436435,-4.646055774817328,-0.011766981276195406
37,1.2689841080459183,0.5817897039885715,-0.5263382127017924,1.867403992040846,1.5094698053102842,1.4141900697414422,0.41924664033757714,-0.29582042293370236,-0.6860856509421511,2.751941334900461,0.7015812487642514,-0.12542784449543873,2.4587019766330975,-1.3113131810252479
38,1.9938325915261297,3.885394609566826,1.3990953025030683,2.6170080593248346,1.6270958862256368,-0.36250598497946734,2.1730063391894756,0.4000744345904236,1.0539984222303571,-0.33576728418052815,4.70585668779088,2.3806470730679887,4.051364591831177,0.17961370193704215
39,-1.2610355799420148,-1.450501943783809,0.1371865858822756,-2.2701622191728874,-1.9039613685512355,-1.8432149425623447,-1.3037269208631803,0.8592949467135007,0.16002433873191435,-3.840613543460869,-2.416502646921644,-0.074663972157826,-2.522499806406761,1.446118324428027
40,-1.467634825350743,-3.6338013052177733,-0.9550325140849781,-1.521839445262914,-1.735941862150165,1.0413740025378282,-1.8193460306004254,-0.8488871466593434,-0.6363478084106912,0.5995362589639279,-3.278017912318949,-2.1430510891350254,-3.6130281063497147,-0.4583307114980197
41,0.8178927236503755,2.018465354926152,-0.05225137794690905,2.009846885847199,2.4245847694540683,1.9006818935591214,1.984779678857836,-1.2179580947199309,0.06836164288625353,4.473155509077902,3.209064489099752,0.09854193140858834,2.482768446571783,-1.5163814220551775
42,1.205505915783952,3.0032534054606166,0.5296230406573708,0.6648364128101982,1.6181489071726123,-1.7455265869900904,0.9971955476710079,1.396782171559575,-0.0013933920850404086,-1.1905787624040918,1.2877881841527767,1.875853079227267,3.296701344803952,0.7977661121379069
43,-0.18262658358576397,-2.1002624689009317,0.21264608404495122,-1.3054022922093529,-2.9639327212750035,-1.5006041907482526,-2.170403931022536,1.3133913302441202,0.12593049576235915,-4.5091898724727315,-2.8383577932668875,-0.015088900310018484,-2.497553221480239,1.4900908492166007
44,-1.267546596676824,-2.3211049317049204,-0.23589702329805678,-0.2431259826345118,-1.2301108246561832,2.1675723680835026,-0.0031242580135844387,-1.9032083735967533,0.6015001173500659,1.8019542324388171,0.6413389098302116,-1.5811652698403014,-2.961755987870836,-1.1298758664964779
45,-0.3892592564744766,1.7356620669922453,-0.49815396230767817,0.45671769902699677,3.3639468596726823,0.7629544459111836,1.7542879353302492,-1.17652266324064,-0.7251121757625832,3.978638199102726,1.4155371861234916,-0.13567357826711843,2.590461506009593,-1.3883199300732085
46,1.545263901188683,1.8870822497587965,0.11932823980311794,0.2616286730317666,0.6165370936858617,-2.0821042098775306,-0.8113719161213172,2.240053881787683,-0.9325534267914029,-2.150843772518928,-1.9564796415748016,1.2362695010283122,2.4767089774764575,1.4152262460747531
47,0.7575258868956053,-1.1636393415253474,0.7722777447178546,0.2866745998482625,-3.4664461199349392,0.04587380874316794,-0.8395850202649644,0.9248024969949801,1.6037186606453593,-3.0578839498107424,0.6534788737700278,0.3688810183956312,-2.6724616288686973,1.2632255338617286
48,-1.8683229584738306,-1.830713564712374,-0.15113252087471396,-0.6003120353111676,0.0701751827234275,1.4315190229702548,1.158162272263325,-2.3545584956121464,0.8323498637439602,2.045565146413016,2.3323244477789418,-0.8542716595443599,-1.80219318410324,-1.6750528861785396
49,-0.9307440895758244,0.6948300869742081,-0.9310199429567252,-0.7882756505507138,3.192542659785311,-0.621492666472031,-0.3012669293979802,-0.7124397638773647,-2.569240496327684,2.0218508556676253,-2.8088191680982395,-0.7242024315465461,2.6181300496089905,-1.1443650646728751
50,2.130208781405688,2.0632875862314854,0.252435815296489,1.112011791023968,-0.6082569502436811,-0.33822944766505514,-0.9048470253087494,2.3021171888802425,-0.22728915360488394,-1.4348687395497428,-1.7446655986636945,0.5186751718761046,1.0088741977252942,1.9779813402585156
51,0.9926348439305024,-0.554259485645615,0.9326074511028989,1.0027089298107046,-2.60696678406423,0.7253335734312012,1.3133057592593662,0.6509017154822982,3.3927298382317015,-1.174360919554113,4.510275590091718,1.1964715015670035,-2.3443289007887973,0.9878867921410028
52,-2.3401277239054177,-2.3440829601041253,-0.3348414196999594,-1.6773633329839077,0.8006004967004766,-0.9409306983448734,0.12406065181386934,-2.220048937155559,-0.8475462778456235,0.43142583066453793,0.447780066701313,-0.3538820329289021,-0.2376535240824527,-2.3744611847282497
53,-0.9880956396070982,0.7780345382496043,-0.7969432618842535,-0.9180823220717554,1.9175293316881892,-0.25218103616457976,-1.8754808042140458,-0.7432209991248306,-3.8465767199061567,0.7602639885584733,-5.389814957181109,-1.6820898827223674,1.852880865938886,-0.6764826382052045
54,2.567119015315365,2.417305414872969,0.3338281315871718,2.1903135428682887,-0.5797487084807337,2.0876204302720334,0.9168345680435449,2.245940344874414,2.2303029197474813,0.7061394691204075,1.1267130236144767,0.4381583030067747,-0.36647905943768394,2.814627571140579
55,0.8647665759552962,-1.2122896158059255,0.5828189291014988,0.5331722184681638,-1.3921984079275258,-0.7420302336500488,1.8218412809886855,0.8785199374287868,3.7679632773526626,-0.8766554286732121,5.341973290644008,1.9952737367036621,-1.2252569993238371,0.0941425929088237
56,-2.8287209514824325,-2.1435679467559656,-0.22024583161143318,-2.5157812175391383,0.05894623394074352,-2.8013795630767966,-1.839038603368744,-2.425033478630572,-3.6477091305102585,-1.6447397630833154,-2.5143283273168406,-0.7156793443147043,0.7107958085597075,-3.1162959115671365
57,-0.5198503747766532,1.604930029831462,-0.36302990997801116,0.10120931930684768,1.230077064212539,2.0449308121164345,-1.2250671325068074,-0.9020413809274167,-3.1335962004191953,1.41642488143497,-4.531021919390248,-1.9639712171314794,0.5817250131779439,0.7553452845944904
58,3.022116450275948,1.5616818822813678,-0.005186372833332467,2.4914573657288193,0.5116452629543827,2.878604945981234,2.299745236523211,2.669835247156347,4.789995564863124,2.094936720548338,3.363736800111183,0.9799052195263435,-0.7758209076979656,3.035431777966453
59,-0.08381739435737366,-1.7349463382185957,0.21264730809848567,-0.8177588027619728,-1.4596999663863786,-3.3261596646304774,0.39171152090240896,0.7247580800445456,2.097784506908966,-2.0810170901977574,3.3151089336390025,1.5544786528125676,-0.03225473179074131,-1.667285438175454
60,-2.9634604817196717,-0.8589728831445453,0.31634370311324067,-2.0087006934084433,-0.8671348306331363,-2.283261784770809,-2.154674166874887,-2.8100032891853792,-5.429433380921995,-1.9393715835305054,-3.540908483554954,-0.9622236227712005,0.5969556590616714,-2.4258364920888336
61,0.8273588327002003,1.512813869345002,-0.2070227499215437,1.3255080754725923,1.9281537819287802,4.217911481328774,0.2577518023860388,-0.4001349615804144,-0.9494715015039888,2.4803834075327034,-2.11032559375607,-0.9400644459182759,-0.3521409671942374,2.274749288115793
62,2.516268860103512,0.27477121928052956,-0.6530023018391358,1.1305906924745373,0.8598346325738828,1.185930853953727,1.5540058434194277,2.7109396496817433,5.5220200148241005,1.311309142366639,3.154432330065231,0.488677967744904,-0.22669209602079976,1.3965124507112903
63,-1.4527420014747372,-1.008525607212194,0.4103957365664886,-1.3106088552188973,-2.390557320970292,-4.43255414240281,-0.39276310662482516,0.10642942690628664,-0.00973619865436211,-2.2971496120711414,1.2400123940489587,0.4511936249312171,0.5330826381574922,-2.2247285202783775
64,-1.7178586634006312,0.009687720155563975,0.9079394330676713,-0.15202828560393372,-0.522924295745247,0.06189707483390031,-0.89910424928514,-2.385270753341384,-5.2253890410535435,-0.5672273739631605,-2.4886301719293016,0.3873531935476275,-0.29041239832778354,-0.34641912053320656
65,1.6924507844823868,0.4039510667415928,-0.84109357703499,0.613796983640455,2.646861843162228,3.881955684698846,-0.03396131339342266,-0.03235192755615997,0.6077576884444963,1.4464030829661663,-0.8263460936653082,-0.4149986647363006,-0.4740326207029922,1.410678393975212
66,0.8071641323349416,0.058655415609711326,-0.9359932070611678,-0.4752614686894867,0.0294645946457685,-1.0342507071057105,0.6510284716250565,2.0151533795843886,4.809289339021348,0.14179004703548778,1.8691439054580798,-1.366835519973981,0.9076360798592102,-0.18631982168577244
67,-1.4341184696111333,0.09734953754991144,1.4256008278950663,0.6205765487427969,-2.6438694838193966,-2.7410281313509266,0.718809110792491,0.2340685761367043,-0.8819453618739383,-0.14390608875601138,0.769306945357546,0.9662893471594245,0.11661821971598046,-0.11666461153956056
68,-0.12074805020574636,-0.4021700768296158,0.6050993527581425,0.34707254655569825,0.42468051270736507,1.391437536882336,-1.0718380247713328,-1.8561612451995815,-4.501131946559869,-0.3415999703655347,-1.5184667523067907,2.0297637546777154,-1.536300833153545,-0.1935339647247346
69,0.8116105589133045,-0.3532857573484249,-1.979210095594001,-1.9362783900285176,2.483727996180727,1.4086466332416085,-1.130342804531053,-0.5609969652072812,1.0433814698029045,-1.1709342000840395,-0.8214566546205592,-1.941319095414544,0.6045330545815517,-1.0429076077016026
70,-0.08855333050821296,0.8668083901823911,0.12200143865418774,0.6586344659209545,-0.7401146126928213,-1.0282630301211608,2.0389245261806495,2.0729361410449823,4.353875067079822,1.182726661914415,1.4650843390608894,-2.0462796324888135,2.009645593217721,1.4784418861735995
71,-0.1565272111964425,0.320922090983476,2.2490079472307567,2.7380454140635364,-2.3393843991730163,-0.36448443745428954,0.7836084314140929,0.7113810384087361,-1.3382111767664382,2.034087084138483,0.7231644475132856,2.9263214859007545,-1.7025535969396668,1.3889936399170713
72,-0.1972934863244804,-1.2939769279203155,-1.1213871937418127,-2.2556740622520866,0.9638250593788579,0.13525108165390257,-3.0534059717715007,-2.608715777192747,-4.216933399880843,-2.366492857889757,-1.54489243941134,1.3611237062453019,-2.0915247012135074,-3.1814197845278684
73,-0.1700868050085231,-0.04210214584722376,-2.0192115232847874,-2.5766983173994866,2.3334168854516077,-0.02424931102901429,0.4721747789327235,-0.3972962980964172,1.8819163490746122,-2.180178895424565,-0.33631665603089916,-3.446992832517937,3.064451728942137,-0.5218746822189197
74,0.7340035221125065,1.569696053820408,2.110657878897309,3.8264447014405554,-1.2440445589230078,0.866537091966917,3.464799231351611,3.1778976210494654,3.834649755863825,3.4165022132421967,1.49168679980463,-0.2460791541637382,1.5501052298467521,4.508663522919062
75,-0.027551558217192615,-0.39828644597673973,1.2315338173009296,1.398714779289772,-2.4548599096230888,-0.3394292169758996,-2.3168882885978634,-0.47457612454967135,-2.5642695860198685,1.6714951024456577,-0.28251862168558484,3.2034756108784896,-4.4142686658902015,-1.439955542143597
76,-1.1329985796279718,-1.6355817920179703,-2.742016901602711,-4.687502941953697,1.72254699302586,-1.4968327906598526,-2.808415933686874,-3.398439513858989,-3.021662892967019,-3.909723399741048,-1.0757230161968245,-0.8158208231354479,-0.2767784994974137,-4.7097048372943595
77,0.6693824958804562,0.9077424495877888,-0.04974362421514929,0.38488958509716115,2.5610173054305765,1.2342716692976459,4.066895076878724,1.7166269615134,3.0876074395025497,-0.8633207355261207,0.9011996737651795,-2.2259748737771567,5.3567504794574266,3.8595038652174507
78,1.0628869112950747,1.4761225019226663,2.751652200248705,4.418220545339855,-2.4313186746054263,1.4215299378494786,1.0759700383524269,2.994288233026746,1.8137645407328353,3.6823256110586877,0.23003933529626766,1.3589485418953227,-1.60588323336386,3.4363185151989946
79,-1.4359323354434665,-1.3987351456777046,-1.1804042516246156,-2.0660779816521146,-2.4584751293701332,-2.209025110169669,-4.986509179831155,-2.925979328727143,-3.1260695975229775,0.22423566799440806,-1.2170022539410916,0.8664045547025955,-5.507165943276947,-5.83163543197125
80,-0.4247333522110586,-1.107878431876864,-2.089845476739216,-3.078751501956658,3.2531178808426016,-0.6019564750424872,1.2347740877771072,-1.9527617466991416,-0.4998201762909499,-2.9063936501987193,0.892241454506011,-1.1584416308601764,3.714040090527031,-0.9347824373884991
81,1.9315580496560756,1.7876353277600487,2.0671632458935028,2.9695076981102586,2.0131176722805826,2.773313333655805,4.645932548958307,3.6700603168394363,2.5201502785046395,-0.10346844643814666,1.005027115478847,0.3706044875089053,4.662678884695155,6.572360047309238
82,-0.5930826609020322,0.5824716836662212,0.958756591396614,1.1933098643941642,-3.9647815649233453,-0.6798026736794458,-3.3285332918593027,0.5471250836987241,-0.49450727766367014,2.0015366238908148,-1.9612927517310794,0.3316487279615974,-5.4915461265771865,-2.0253627003213084
83,-1.8848697929281508,-2.0007094933967315,-2.339152628468524,-2.774661332599436,-1.2276277807785299,-2.611353408954764,-3.1370630853082475,-3.690118272644743,-1.3938981797147534,0.5593117382633132,-0.24493966848242088,-1.0676503640536688,-2.9345655703960385,-5.768393461942557
84,1.6063147377570817,0.007347060370745432,0.2670594864967845,0.4996294973600631,4.3351624156743815,1.9359283754187953,4.475165700916958,0.7865265988704674,0.8136743070094076,-1.4249061720193565,2.6046741633801545,0.7327219186508751,6.403112951392438,4.461213261624581
85,1.2806244706140957,1.9967905909850967,1.9573387790851295,1.6592278276716708,0.24905764534592145,1.7244806402919715,1.0340130678109622,3.0137226745643915,0.12200263891694765,-1.330656170125759,-0.8369119870477859,1.0799862883064433,0.762437139620916,3.72407487517721
86,-2.2188634721613156,-0.5388616580136578,-1.1979611678709223,-1.3986134985443575,-4.2237694011699976,-2.68358462214967,-4.339644762674799,-1.6474093264359557,-0.35610609156759204,1.4384852783588975,-2.5777530768551813,-1.5744710632501182,-6.155765659900831,-5.588971240457583
87,-0.360924693746389,-1.7945000520979706,-1.1184659350365467,-0.19076033995736044,0.6898353302198733,-0.43412692183894064,0.8770352244626336,-1.924001777633198,0.8399309902168249,1.9689969176158852,1.8402814438769077,-0.5754712656550691,1.2206738814153375,-1.2331835016399169
88,2.202049086764025,0.8968064421711048,1.5847518520467774,1.3055083974368555,3.63360930104706,2.6595313639629006,3.11478558718428,1.837271073588345,-0.6683143399905606,-1.9656938224909586,1.8913581150545107,1.8813623616302908,4.842698881190817,5.151069874084759
89,-0.49378108501022616,1.479539662875261,0.15557341723283033,-0.9660736499021674,-1.3593741493415852,-0.7627679408142507,-1.9543155243377763,0.814282488550484,-1.1689646000719314,-2.075692428901518,-2.3553627881998396,-0.07957646798637164,-2.4285669489986055,-0.7690013805415847
90,-1.5855576382390435,-1.02378448512399,-1.4001632772536623,-0.47479113815573953,-2.7029167820503677,-1.9379309004661673,-1.4026617417703788,-1.4175837217899807,1.837550742551934,2.6152586737250485,-0.8306161804304951,-1.6172502158342528,-2.929437120531885,-3.5059193116741887
91,0.9366889446011726,-1.1751098848905392,0.6077666685896955,1.3630293790030823,1.6089151874266228,1.4223421899526905,1.9642762822898616,-0.012373339962937387,0.8163359525058435,1.533484452180392,2.146961482161674,0.5174542717601949,2.562521303119788,1.6118762687182124
92,0.6300492917085333,0.9540426146361339,0.8194965282521584,-0.5590718271762871,1.6525036374319408,0.8921925700312848,-0.07781892272340965,0.643741190494923,-2.7137487173346413,-2.8757758817765495,-0.15232296826013697,1.005736110278531,1.0755723659068355,1.4403990064680445
93,-0.7992122770816775,0.9813153741840518,-0.9792306309326912,-0.9431074658689497,-1.4044760454546013,-1.3576304426386623,-1.136965594109191,-0.33804597634084604,-0.008240451431492561,-0.6099980164956003,-1.2715835924332113,-0.5445106302201135,-1.7384961243894939,-1.163725721696942
94,0.2925972348372051,-0.8026180077452942,-0.1250308041039932,1.263378188208956,-0.7192226427771781,-0.017706377792010102,0.8021587154071095,0.1734559576848107,3.0274671214936024,2.3963955883960897,0.628495905283675,-0.3933334104708863,0.13333192681138714,0.2009310245401084
95,0.15297272453691943,-0.9139509870311835,0.9495722403233674,0.009717346425056402,0.827763675108699,0.7195097907409601,0.013068626545261957,0.2936276952413457,-0.878597490559397,-0.1380324195768421,0.06855401730146708,0.21348384045878113,0.43767382066022875,-0.14990038335610092
96,-0.8539457106266786,0.703890802795787,-0.413282351603989,-1.345550202538947,0.09878684418783173,-0.29843420625669703,-0.6278085764395506,-0.8020533186561286,-2.76107873706403,-1.2123343539845957,-0.3808801502810313,0.07025628506322813,-0.42433040241661535,-0.8904408744187619
97,0.7262908295962741,0.8834682645418339,-0.6682584831300266,0.9623940885809151,-0.05097706640922801,0.08079087419766429,0.8195041883967752,-0.037212589068741656,1.4869563986585708,0.13241988624750858,0.9765376434228152,0.23092446968468427,0.7011058555971988,1.581809992396863
98,0.8973419092191838,-0.7267262941504548,0.6316376234672556,0.8435630939317013,0.09480612870392804,-0.04874619130992515,-0.20392896000223054,1.1587978737657347,2.1108998258662286,-0.2135291738662905,-0.49503299038837945,-0.13804417175021017,-0.06056692691947504,0.6212748816241448
99,-1.4732819828243742,-0.7391772865085093,0.3673523947777359,-1.5590004924574261,-0.7003591075114197,-0.5655596701839779,-0.969501581303314,-0.23451165788053951,-1.608349126689494,0.9116419570135635,-1.4388376998592294,-0.49603454865821767,-1.157130175275732,-2.43151838696291
100,-0.4931097700377237,0.8175402877825246,-0.5138207715911342,-0.054874250700646506,0.14463400695090978,0.8422021878504607,1.2211733982065218,-1.2966731998314645,-1.372041984854673,1.1769275970794018,1.6286682256268417,0.48435376350372883,0.8451433605569175,0.14723789288169467
101,1.7815012766097995,0.36430833486521796,-0.2692330974011995,1.5893179659661993,1.1942538683738946,0.407601428729644,0.3703189893992185,0.40279282993522425,1.226757956811238,-2.788804515351251,1.1393161831165346,0.3977678464904056,0.7507322029197749,2.3673534580166553
102,-0.10036156072213191,-0.8162936357704448,0.1775188581298731,-0.6330222172562351,-0.7051557318794023,-1.6490040585391574,-1.9422145708723995,1.3328606247058943,0.8130771839144039,-1.071095299178706,-2.5382743675202377,-0.8714406748795098,-1.3497432764610888,-0.7663665682729792
103,-1.5271399249275768,0.23252386568096617,0.5094297351379359,-1.123381199471576,-1.2499700185673572,0.42732123615739387,0.739038621847438,-0.4604063105874049,-0.4832536769629061,4.844328492959839,-0.21995377953149492,0.05185809651340969,0.2884164384276385,-1.5490220311092284
104,0.5556751708778415,0.5491224580216311,0.18112972778202466,0.9175681855761182,1.3722299512956673,2.0192821908003404,2.0671540459330524,-1.3610850217226513,-0.5904150918428249,-0.2895531563096674,2.847967360145386,1.0871230179952036,1.169731644982284,0.7546390896183508
105,0.8146483626303536,-0.8933502197670653,-1.095326577652335,0.4146463571303583,0.7982123610121518,-1.6722360755160863,-1.9498417413627342,0.4807788742619727,-0.4033398244016925,-6.253268655276018,-0.9315802560027178,-0.6734774797243724,-1.4445653118360964,0.49422870400712876
106,-0.6253760813998492,0.05206896747031919,-0.3633373364080269,-0.6869199944496208,-1.8807668587013453,-1.685946348139644,-1.5709851018981595,1.392076524355614,0.720695631117226,2.537819265128596,-2.451952837699173,-1.0710221925667798,-0.2698457137078625,-0.05054042903384865
107,0.08034200163770469,1.382668626535381,1.910153368395087,0.2342396271549628,0.0793570666280309,2.882815345058573,2.8675765297598734,-0.5439875956266804,1.222002550367568,6.40499131954101,1.8729012115333539,1.2491986229949084,2.1779603662337297,0.23842329248511232
108,0.2506324981239358,-0.8803231437693312,0.23871197634225458,0.02855244168565242,1.9988503790989718,0.6754961496738588,0.6740237826153267,-1.3511228565023103,-1.1054948032252103,-4.8973161336016515,1.541338161720938,0.9375813742721922,-1.0061227208307484,-0.9743295408848228
109,-0.8460323050812929,-1.5210073767299752,-2.7591420401468083,-0.5937098373883309,-1.1585317204504997,-3.631678722639567,-3.2649235012365825,0.6596275662300217,-1.8335592699097822,-5.191008126904535,-2.3133968587023888,-1.672867854885989,-2.1977089253363586,-0.37736971868026
110,0.4261998408078241,1.688965799742769,0.21311074336472374,0.8388029408629076,-1.6152878117494465,0.7159243702648518,0.28499632299873817,1.1371186349944353,1.5906266091418562,6.532572942850754,-0.482285427044962,-0.8752606183995953,2.1225637836993725,1.7526904050963124
111,1.2787618782838253,1.298756084144903,3.440466665426273,0.5720960728969228,2.139972942339287,3.6812349490304492,3.143824813819324,-0.7324182757207515,2.1969092383464766,3.0425589280265948,2.2257121891378757,2.0214908719821483,1.6016311738702957,0.08976988462324807
112,-1.1519037037110484,-2.2215466885631283,-0.905853187953145,-1.6625100776678454,0.7897562586576298,-2.060859053573193,-1.0090738071857033,-0.7155929700861409,-2.036138942593337,-6.919458120011136,-0.3808014697117452,0.9816645509606298,-2.6421006688843454,-1.8786019818967017
113,-1.3594297288235921,-0.8923520838664926,-3.812608457945714,-0.21606814576811512,-2.756158124459279,-3.0591696529334405,-2.6898629457635437,0.6015441596327294,-2.3530571655981936,-0.7064661404211514,-1.809841977920045,-2.490419145930397,-0.8035516589677818,0.13754750305036534
114,1.7034268547955542,2.360812732646166,1.6916542303716873,2.238466588484416,0.2656445496552689,2.979362728073018,1.3610135178320377,0.19010998519117805,2.3698166338939943,6.043022201886813,0.8831870273220227,-1.1462034247247572,2.460375774021746,1.374460060354278
115,1.2233073997511252,0.5629914483069928,3.8306191715754982,-0.3310845177481366,2.8719465527186823,2.015259357795656,2.1528185735217895,-0.14549112334972755,2.3774315631082654,-1.1067181344758683,1.346965493097178,3.2239394309071194,0.28558372664032544,0.175064585974344
116,-1.9966813029546995,-2.200346467843743,-2.4244457106067636,-2.4572580778925524,-1.2726692523859382,-3.274022132363683,-1.3894524492128402,0.20554089380172336,-2.601739236911397,-4.336482121565552,-1.077562890985264,1.0723938775601318,-1.851238511039183,-0.6997635463815783
117,-1.0491693758057976,-0.4960295176320117,-3.5393718299006407,0.8846732296068215,-2.52926803424117,-0.8982628112582023,-1.7202717796224263,-0.6039517628659744,-2.32549078369983,2.00968847272888,-1.039597497794424,-4.150569761325204,-0.31677581474056504,-1.16050279458231
118,2.1016298775198288,1.9864587384100196,3.010917001866506,2.315574162324003,2.003166904138156,2.9722341211327548,1.2635366215986379,-0.21287748664046904,2.794967308292933,2.423575904774257,1.1506206684649576,-0.444466717104209,1.294805751790886,0.4835273482158903
119,0.9423396517080173,0.6843134329195382,3.033751942722132,-1.2694855264613525,1.911912059119361,0.020743891436420584,1.4473039059500923,1.4180124353255374,2.2008070318506716,-2.024591146879649,0.9273872080111609,4.94094300026883,0.803610000067763,2.4673967886432338
120,-2.163939410973759,-1.9624320110669122,-3.4286424638664665,-1.9039452045263192,-2.3681957197807724,-2.280233375089139,-1.1639044316647056,-0.29492771893747066,-3.011467317053713,-0.8247152611859471,-1.2872139560540838,-0.8559994708327867,-1.1904872789350749,-1.134920077045556
121,-0.8850159463985452,-0.9351728196990239,-2.409630902798976,1.3612418594202376,-1.248261945020115,0.4338016587683519,-1.267280538525191,-1.9478219701016228,-1.9619213554028598,1.4596518444612046,-0.9080905371827637,-5.133882246136118,-1.3606029040993186,-3.422853153601235
122,2.293268909471092,2.215425927119653,3.7101439371990574,1.3787210711679478,2.435814906584685,1.4893641506868684,1.1931883436599258,1.2010641464045495,3.2667056379756545,-0.21709238744958054,1.5667127284486273,2.6184338215885945,1.6279690532838607,2.5698361938843157
123,0.7769934526777378,0.9993985654660227,1.7283878083092468,-1.1175321992955214,0.7030524275683591,-0.4431074146142207,1.0614275614610316,1.8981825975180089,1.560342076333842,-0.6829333483738301,0.8284798853473632,4.370040967445844,1.554445199777086,3.4077339373730333
124,-2.494437198607016,-2.6277028136436336,-3.9065795431522137,-0.9208302778727402,-2.371973729337878,-0.8780193547976961,-1.3470556055791059,-2.1616613549362373,-3.5188458903625146,0.7267772425925214,-1.9390592926278467,-4.345286656521688,-2.3528388705564844,-4.224856074459186
125,-0.527338487058095,-0.7364080723726383,-1.0068890507662278,0.5929214183330899,-0.31337740839732786,0.12749064535575175,-0.7379810829905156,-1.2024047526057609,-0.983213552234678,-0.06215796375964991,-0.5810048658857899,-2.603273957761381,-1.1680864445783752,-2.2214354253422752
126,2.680785252642483,2.9634589836588483,4.049591262643597,0.6849361380862987,2.3395158679668406,0.6349896921247524,1.545574713485789,2.7612446687280245,3.694101140207679,-0.8550199961560254,2.2735885204742536,5.454974739610993,2.940561029119749,5.354195746473017
127,0.12738759784194503,0.20409403523781453,0.23313729755609516,0.07092395192640115,-0.002106118113120798,0.3020530825465646,0.27779486533290376,0.08667177515005434,0.2735922717511262,0.7066757188490519,0.1559923864518326,0.1702719127818349,0.32200274247918204,0.21760957420102311
