,AF3,F7,F3,FC5,T7,P7,O1,O2,P8,T8,FC6,F4,F8,AF4
0,-0.10119514527405897,-0.03907011057296809,0.008445627301608591,-0.03159563080103198,0.0769951446111752,0.06001493109795582,0.07212826149288758,0.0433286681907534,0.03772539929189301,0.08738999482875887,0.0013383388960214687,0.08062475343874605,0.05152095759019121,0.0022249940825926386
1,-7.410316598180473,-6.322137698167292,0.8938172060986243,-3.375262260893841,-0.15342712057852026,-5.335706420874336,-2.580008782631646,-2.776360474899856,-1.0318193820661812,0.2689343862234968,2.303994316125962,-0.41848074360297577,-1.9696788133502756,-3.0343877157255386
2,0.396773161778686,0.8067280774119211,-0.12959717854191827,0.47630220624485564,-0.40463612600417226,0.9925308751408006,-0.21157760759296043,0.1592205184652617,0.8481173666321672,-0.982922757141266,-1.8898316890101847,-0.8054583081782374,-0.952999964337904,-1.3352904147289737
3,7.499167861008605,5.953652995933335,-0.8494204319437879,3.233562517400925,0.28811087769982824,4.9643307555887715,2.727521864400176,2.6732346717486215,0.5282689212212149,0.1553473707910102,-1.5328276826147493,0.7078523019231959,2.1931941587369863,3.5548890449731347
4,-0.9031922439288876,-1.5406328866022827,0.2125585675728212,-0.9398464553258686,0.5463797593012543,-2.0014732882541955,0.1345374270953835,-0.45353079540215185,-1.4448815203780678,1.5840580176698218,3.258517723803633,1.2706531933883645,1.6573226319229695,2.3117645833024785
5,-7.512979968635888,-5.1827526999844205,0.775785896675359,-2.92132843487434,-0.4090853058483506,-4.238689759263411,-2.8806384665341094,-2.4100721860325796,0.2633432770482449,-0.8195382391109033,0.313055146953962,-1.0879449507056185,-2.5207359088376182,-4.406949963708422
6,1.7360982857549372,2.172464519001187,-0.23482670921909626,1.427921032666551,-0.4511983229169493,2.866370699404391,0.24369542906732444,0.837024285753007,1.6084985606320124,-1.7117749180407953,-3.81286448400061,-1.3841366467161673,-2.042427039275523,-2.672746311605609
7,7.173102574343211,4.0094373671287675,-0.6990803457054954,2.371560073358763,0.3318823997750969,3.172349725239027,2.834420756553434,1.870469582761442,-1.0719367194601175,1.4179496091077934,0.8237165050029919,1.2985706475573595,2.7671853228972005,5.245519959895169
8,-2.7939732529853547,-2.5830609185747293,0.1935300540770322,-1.873680528445793,0.2285254154953375,-3.4394039752997734,-0.8539289205494865,-1.175583009411509,-1.3772875664381088,1.386509222022096,3.641051734307154,1.2699211991389858,2.123987834356949,2.376752705937131
9,-6.243138228964569,-2.4942821968875992,0.6437356713164715,-1.5409756330741555,0.04257369725852548,-1.876895152475256,-2.4397401221778763,-1.040221836957139,1.6817661919226303,-1.6566755004895513,-1.4432501539827707,-1.188779821359469,-2.780580735312927,-5.711304173339188
10,3.7701606604570865,2.6237227210867764,-0.10438919897255816,2.1385315771321696,-0.08902542924760443,3.590503244115337,1.5109580659802075,1.27938788841289,0.9144924200962208,-0.8243207017350592,-3.133425497952246,-1.1807044074418147,-2.028140618944862,-1.6103037412862586
11,4.679117473057114,0.7996473749591048,-0.621996606014455,0.4706058545823294,-0.6451029861105061,0.5720473486043814,1.6793199811467512,0.059456721777014034,-2.0128039893142446,1.3846147826392239,1.4236530905536016,0.8201858660551344,2.514600394125513,5.5680857185285495
12,-4.270302272313692,-2.174780423706195,-0.006667714248684964,-2.059013171020083,0.21691472754730576,-3.2951717491450863,-2.00462495686153,-1.0275258821539577,-0.39401000809435044,0.34467927055989345,2.744259453312425,1.3265130262137823,1.912795551571198,0.7132271130933481
13,-2.7062583818221437,0.8058146777070183,0.6293642446843583,0.6795582918226566,1.2530038542848474,0.4798219118920823,-0.6755708669418871,0.8266998253164464,2.1038889395987006,-0.6680554755261595,-0.9886443967305074,-0.435063260751411,-2.0415912792980304,-4.794877451670686
14,3.9915398209004733,1.2210384782371828,0.11455516315843445,1.5278464729341714,-0.648309670465173,2.683246635748036,2.1949795157085368,0.4583452153953352,-0.08785814803831184,-0.2233512079577665,-2.735292954306042,-1.7281627463512537,-1.88344793060498,-0.0456239256275027
15,0.7756323592758254,-1.9970171208202232,-0.6465110586842622,-1.649784921645562,-1.5994969921171183,-1.0877423196148146,-0.36864218948985633,-1.3924852315825909,-2.0269903205584745,-0.2333877464464912,0.5467432847174051,0.30841828188207027,1.505889010640291,3.5967065924422044
16,-2.8862592503306264,0.08932868458230084,-0.2049106286010531,-0.5761360321204505,1.2286353112517778,-2.003578689145455,-2.063776626622378,0.2371542203813605,0.5176368192145225,0.556636406862762,3.0484782440180416,2.1861655078846,1.9449876635088132,-0.15595802608064843
17,0.5971502717124898,2.4952440076484157,0.6464655416914544,2.1626547023496494,1.5188499495724643,1.2264934609603364,1.2606228309061591,1.5525330418902183,1.8084482475308203,0.9878649093073284,-0.4387314113483485,-0.57335260828099,-1.0454222066338852,-2.324220018489388
18,1.2275405876719838,-1.4420787136143085,0.28042149148318063,-0.5889426743898409,-1.6780033853012795,1.5129093963692495,1.7006999150878648,-0.8184576320573297,-0.8977446885304556,-1.2077123242935202,-3.3738717678721164,-2.3848227097363224,-2.009236673345811,-0.12392882664699521
19,-1.049710546867105,-2.1924814435408604,-0.6060277195203095,-2.0439445633342785,-1.0452756961518774,-1.0455312889487531,-1.8898801243446626,-1.3991214908063756,-1.4200672623740107,-1.3549361900167256,0.7475638710368036,1.1245040018263754,0.7219760437526709,1.3281643007895299
20,0.4705976651675612,2.4372393550765836,-0.3609019846338779,1.62670333348672,1.7320894969225262,-1.3531079753235071,-1.239785504340366,1.128276877349685,1.1743584441104602,1.870147796669774,3.356347688047269,2.0712293939198143,1.950125725794987,0.6742743305577268
21,0.5460156218148905,1.2370929811636682,0.5192491224370361,1.3273513234048755,0.4078974177470162,0.7791169552416745,2.245209636343806,1.1293570474006849,0.8418225940075825,1.3079373830129162,-1.2769561720763152,-1.6580856878705394,-0.493749830507032,-0.8078613363001276
22,-1.6552162661790057,-2.7396511382680035,0.47402999954751407,-2.1848858925301946,-1.2823992753629276,1.496112249895577,0.7891586696946512,-1.1647817480753828,-1.2275586644679162,-2.2220835837359765,-2.802799463752812,-1.2049575582316694,-1.6751738730793093,-1.1535127056883676
23,0.5849518097588806,-0.01997225744049514,-0.40706875656876096,-0.2826347645210189,0.07808963581164236,-0.6130867172910736,-2.3756671291628186,-0.9133486754686856,-0.13872012205867615,-1.0485374211683236,1.6890822821157094,1.8259299391232107,0.24003404457753236,0.7221709794147382
24,1.9692116405268054,2.237311228062662,-0.6369233093311879,2.0541674417818334,0.4390914997916841,-1.7928596543182063,-0.3980057913300732,1.0447728328677843,0.9384099951393307,2.0934605383593987,1.7666125576699312,-0.008180592522624203,1.1756146376112173,1.247525475988094
25,-1.7709333849909472,-0.9565962389320405,0.31456843410602836,-0.6626433389859899,-0.16581966191144065,0.5967275812598913,2.330581982142426,0.7983587468495318,-0.5175655627057245,0.9033562879829322,-1.692105599054624,-1.4131681381370347,0.18055876084439587,-0.8058931938121178
26,-1.4093125808007185,-1.1229473488909398,0.8360676327235106,-1.282324796412889,0.5172983479758027,2.089204600996435,0.07607082216143483,-0.8899598422757699,-0.2854228849140966,-1.5603955495143258,-0.48406403061453845,1.2143858492133517,-0.5340091530772659,-0.8191353759411206
27,2.4252270802143516,1.278114023769844,-0.2912463062082319,1.0855669610830927,-0.20599244956058335,-0.6566918224430435,-2.1261843982296162,-0.7170685674895951,0.91005465802235,-1.1540964360004864,1.1562595945249454,0.4378135600952979,-0.8712050008843417,0.6859708091571326
28,0.3372161389339355,-0.1550811477240948,-1.01911538947937,0.1868947566530079,-1.2668085492245171,-2.3236381354898232,0.1589926431383396,0.7278654824690297,-0.6015039358914386,0.919311375616276,-0.7602504347115903,-2.0780369797053617,-0.10384132908704968,-0.01698342444367049
29,-2.1824453328316946,-0.7909489389173403,0.3605826174933056,-0.7479754824674295,0.8924494122524493,0.6950579922219768,1.7636838791474163,0.5871049376268768,-0.8872296852136831,1.884744408918432,-0.11322470142766602,0.8761613340729237,1.8614408896073351,-0.047310566332191654
30,0.6558823595099786,1.057156277822805,1.1096214651936287,0.7507615171849649,1.5912968303168489,2.5370097239800615,-0.25292634957941346,-0.48746687233494257,1.4734201027023124,-0.5536939102067483,1.7333202483488916,2.415309953945927,0.5687693543192242,0.9247312939408743
31,1.047166027939859,-0.3338835309117984,-0.49592591405775194,-0.2859137883159459,-1.6219248582709145,-0.6917462537037915,-1.2804117192034208,-0.4159657423001977,0.45332756859938894,-2.9187825735320696,-1.3122839514508349,-2.219132973006332,-3.0977841292398898,-1.2208242718681557
32,-0.972403426370142,-1.1548667355319753,-1.0431157482097335,-1.0731959738339725,-1.4536531985363286,-2.7926605544187937,0.13658432258040393,0.09313880068191312,-2.067309349318193,0.7555858476499977,-2.2713247902446527,-2.2270155149088375,-0.7017050379736802,-1.4687958027907828
33,0.5952446868680181,1.6699481439790549,0.6209619480734183,1.6516731729582999,2.124749240973855,0.7297463596071743,0.7850702885392132,0.3196214532762402,0.2196580008919967,3.876427024420587,2.9549957575315213,3.323919198617692,4.448748052704976,2.95601873926639
34,0.23558288170374295,0.28047685697589564,0.8071124403592866,0.5402153643476075,0.9840997505863929,3.0745887615156446,0.21204808005511375,0.42126646191303446,2.2233085724629813,-1.582179126289064,2.251348488374262,1.6369030320170592,0.3805107076841634,1.2809592698854309
35,-2.104455628779417,-2.6939313072509843,-0.640921367683733,-2.814280361902381,-2.24039639118307,-0.921680176587642,-0.43619994172664006,-0.43161451737171896,-0.8668122952148766,-4.328565064793318,-4.605381558041558,-4.027603982556727,-5.715680287439354,-4.758087222798118
36,1.557177729634568,1.4301197481591907,-0.4605350466954959,0.7564372021956289,-0.39667938608613534,-3.2493453888481802,-0.7125104764884638,-0.8775602036856582,-1.9471329805809974,2.8120808240059225,-1.5884588939490338,-0.8010968627218629,0.45041746662392174,-0.20741750206225926
37,2.8035122382716295,2.9563316289289587,0.4913682249474796,3.2765816632026836,1.9557528691335506,1.293174612594652,0.36546841460430346,0.769639022782809,1.24802324711245,3.9819707406085434,5.982313919439426,4.254279587477398,6.653468902853965,6.11551242001938
38,-4.007595754188426,-3.595912687004988,0.11687861400151595,-2.411832692073463,-0.10862256938173971,3.1308652214370802,1.1824753132426271,1.0396035065938305,1.38648149410361,-4.0237063929635015,0.29168845443503544,-0.14233978522628046,-1.7458055224688305,-1.6188276184726895
39,-2.2170224683436275,-2.2016922620908166,-0.17791685966248305,-2.780223283940781,-1.3738120934853097,-1.7150486468766633,-0.5918837712464875,-1.1670559266699685,-1.242152930885049,-2.8153230290841815,-6.7496130079144,-3.966036056113035,-7.011909421380799,-6.575233101986676
40,6.429271341691025,5.7043868626037115,0.10383677085368766,3.8570026457345277,0.40828153260338107,-2.61017737368362,-1.4081265797327898,-0.7701841238586543,-0.7432238799394559,4.765102945205524,1.4567989696032617,1.0616496810242664,3.3336062544116953,3.806467769902442
41,0.24772562358481565,0.41906898314015123,-0.2170411530561753,1.4133581566531874,0.6494588040443965,1.9450647664420133,0.9855055021818716,1.334953729348009,0.8708896741405168,1.1043979753246407,6.613384338006655,3.143980835802367,6.601393141515441,5.892813066105165
42,-8.06465762278448,-7.2308639207849215,-0.1300298175851529,-4.576221905267778,-0.4658419374315611,1.759703480377366,1.2504250985694456,0.1493242350807585,0.1782832341573109,-4.741971498638979,-3.2744952765744624,-1.7910895469214707,-4.91903790287883,-5.8195537133779975
43,2.7715634308341786,2.1595492010723882,0.5663268577778349,0.41952058587902674,0.0650250970254081,-1.7628260394751154,-1.3109731684725092,-1.0270117274542951,-0.2517886113398112,0.677925302537428,-5.468817980981909,-1.8253522745807302,-5.369778111917772,-4.112790758562747
44,8.33180645958368,7.7420902957926625,-0.028666826382973704,4.301038745004684,0.30933053193519405,-0.8326753552956491,-0.7270659167525001,0.5350960227824089,0.2375211585446624,3.9395086382289297,4.6576403251399086,2.119440129670286,6.134468680865531,7.129616758549641
45,-6.169981933645269,-5.090034052751952,-0.7524656638287869,-2.1498977522801384,-0.6449816844080104,1.1130378368569314,1.3330617766863615,0.20320375863783527,-0.47907754348221265,-2.044657890221297,3.513046872527702,0.16919931345629438,3.461558060850174,1.5620753490857666
46,-7.015369452269792,-6.990878526166416,0.2873270632784398,-3.104253233083526,-0.0065949637027863245,0.1459563128672877,0.021761978598232465,-0.9293363684996736,-0.5091382402190571,-2.6222046059493818,-5.156726462407964,-1.8437155838158228,-6.634040610152793,-7.356195880692344
47,9.142534326635488,7.777700177393593,0.7166700969181791,3.2551431541671976,0.9990004759042874,-0.16112559342395208,-0.9303163709430589,0.916313654970628,1.224281685944354,2.679172869547471,-1.241993023709015,1.5092386784244676,-1.2257971766949878,1.2294204016081913
48,4.338243656505113,5.006446998171449,-0.5254657015170437,1.3624004528313116,-0.3453427540742064,0.0866588350538903,0.5871146461535356,0.8045175628148927,0.6630336332598353,1.2127660587692244,4.573867447571999,0.8759555183502709,6.210372147545302,6.364680595831262
49,-10.996248247896679,-9.593570918392132,-0.4790778014885517,-3.4435463215600457,-1.0778082064863599,-0.78055742572012,0.1588048903688617,-1.9467280922671972,-1.9335977476507271,-2.5380190988701794,-0.6962340458836648,-2.7863333127461485,-0.8487735993399984,-3.654023268846135
50,-0.8927950306091768,-2.1504117873770388,0.6389344989266336,0.39354599631303416,0.6269971746913501,0.13210235161992795,-0.843504517582555,-0.17970245957117092,-0.6973201526891949,-0.11001448295442819,-3.081136884856657,0.6544581955676159,-4.892684321799104,-4.309422902439598
51,11.357114431352928,10.05355495719619,0.12383199874915743,2.7452937898055034,0.8954312055142098,1.4144009240255426,0.7646782779555998,2.5284387989137778,2.5705206650281642,1.8281841959694056,1.7418153358602289,3.2661047197009916,2.2662693419118396,5.172723143635384
52,-2.5437266419672655,-0.9224019249688498,-0.5790718614324847,-1.6800045410243467,-0.7212094293662887,-0.5931665126707645,0.6198678735865306,-0.6948109541798505,0.5722490050784583,-0.4640757338909442,1.18704686646038,-2.3751891975978388,2.9803533476113526,1.6146690554581933
53,-10.27054048462431,-9.012431999456336,0.23972726580318618,-1.475616561778741,-0.5450800434363553,-1.6090682550678914,-1.5492973778745889,-2.4987420099011586,-3.068676207939314,-0.8780028154422057,-1.6507502160326126,-2.753797593722289,-2.6863747493884094,-5.458202220165655
54,5.248541792221145,3.4397037631900145,0.36402150023452023,2.2354497296750853,0.562187601660519,1.0067671513196594,0.03444256025240205,1.4774437226841355,-0.24853263553963909,0.5143919604040835,0.4503994086803974,3.7651610085801717,-0.9809955413211553,1.115444181812837
55,8.162734732203363,6.771445649650849,-0.519678037060756,0.08521532677941322,0.17943345916095785,1.450725338955648,1.9436858916181277,1.9484469111563452,3.3145695285267864,-0.0236426008328288,0.5980776349060665,1.37914521787617,2.056769780780523,4.499564393020687
56,-6.767573244751116,-4.787628064586869,-0.06224780365887959,-2.0943644247188726,-0.18314172773470574,-1.164112361461657,-0.9184550416664906,-1.9088029087506455,-0.2505865471356135,-0.20397574791761713,-1.2859109604914587,-4.348698783001786,-0.542010775305629,-3.2541005575995547
57,-5.677113920848891,-4.006407043441084,0.6703430140421912,1.0369518030022002,0.05581971026189791,-1.1693341220067108,-1.826018736279214,-1.1423127342386303,-3.1776360306317053,0.7299869110826028,0.8991380004068861,0.4100680717790579,-0.6544965409274943,-2.6250608835658147
58,7.030727548275995,4.7639868115935124,-0.24020317169453573,1.526841169995289,-0.28067439857608817,1.0382278090528148,1.760104591623176,1.917115185003028,0.795687883222559,-0.28006075768801797,1.1020732664042678,3.9053173049167675,1.1635737185632666,4.340482222654708
59,3.4451316956168374,1.5100616854338176,-0.6990264652177456,-1.715665565460626,-0.10503152416779211,0.9927346490003428,1.238392944190419,0.36588387671744255,2.5805474096452805,-1.2302250913437118,-2.205709110437864,-2.004984463407414,-0.9950922328593005,0.4129795280642868
60,-6.328023329634439,-3.663835618126287,0.4734314076411222,-0.8748614327469948,0.6565810747307503,-0.7713222548311155,-2.3140704360981728,-1.6066531790427894,-1.1630431259126297,0.8351245301993676,-0.07554049983349181,-2.585829308780888,-0.7541586747397365,-4.231949283633797
61,-1.8774476059227694,0.1402749781865765,0.6521626088018372,2.0216120005559564,0.04377101366946665,-1.0193428822176385,-0.3614373392111341,0.2028820333612691,-1.5742388225445327,1.5571638777982364,2.8315279291211177,2.882058318758009,2.301337957774646,1.4956581186524656
62,5.158816059242607,2.128211245331877,-0.605819227187656,0.3725724538106274,-0.8399583420736987,0.5678269083756927,2.4401437938700217,1.157958727479793,1.111675300022092,-1.4573127404493618,-1.3311631248435882,0.8630507384309059,-0.4713952907876364,3.1490821835816356
63,1.0551482409998287,-0.8141828641563761,-0.5892393405038824,-2.1725720859108515,-0.03562595860448214,1.1792094750564723,-0.5536481208094435,-0.5308517102520061,0.3687998539889499,-1.6902739006711633,-2.6102929920500553,-2.8204526234017075,-2.822312579480188,-2.6161393297767006
64,-4.017379202548481,-0.8227549385517838,0.6478721878508422,-0.04762659307467021,0.8725229591411487,-0.5637093259339742,-2.13964520705642,-0.7175681072938125,-0.4970975613879815,2.1629435531719436,2.589446002945248,0.6690918680530432,2.039771905038313,-1.5831342561551391
65,-0.7605056449636057,0.8259588487051465,0.5563039946818275,2.366221078877447,0.21869836886041522,-1.2944314267204076,1.2699661798152588,0.679633905318133,0.7140218925309808,1.535645131155666,1.7199624490461565,1.9794477826949268,2.4196533434397853,2.778255002684754
66,3.20506627499809,0.1213178958986518,-0.6384646092278534,-0.24684957191618337,-0.9308530664885333,0.7461877074321717,1.5430827349821934,0.3442499338326621,-0.6360931469675637,-2.8900755963447797,-3.3243931988216486,-1.5499984842033543,-3.403968720795678,0.10072717967317843
67,0.627196048837109,-0.6995011130600067,-0.5704318774702092,-2.6447132902615986,-0.5921686278728947,1.1951405919030167,-1.6400726795195433,-0.7250209601287639,-1.35959856640473,-1.001127523036953,-0.5545388644181103,-0.7977737143936031,-1.290004387294348,-2.1544993090696822
68,-2.7479462500537934,0.02592619621694496,0.6219279774981674,0.6965133487754818,1.2185272502405529,-0.9608987611264531,-0.8549636424715031,-0.024670075857565407,2.0407962648860036,3.4693110743901427,3.43594300980237,1.6321929721526949,4.146560358283986,0.8676784906695953
69,-0.33655807425362033,0.843012570995536,0.6209527381856734,2.8694457915489955,0.9835318205959404,-0.8260469303288562,1.646564590351002,0.7035219170017267,1.3964161204707577,0.10466149333795513,-0.47547154945150855,-0.22788805001825288,-0.13394931941422403,1.1515417057704953
70,2.4498592335100184,0.028650295066633857,-0.6290179304652701,-1.3723684624797379,-1.823726043444274,0.9952140503920934,0.27447389200025246,-0.2771932974142476,-3.35420548824839,-3.6989054921697813,-3.081910427312716,-1.101624398300163,-4.117250321847812,-1.1632552510537775
71,-0.23419892552027832,-1.3318989505226393,-0.6834594890329808,-2.8176233589258897,-1.128909670086376,0.2924179131339381,-1.3916658842224199,-0.6043018975557767,-0.8746344097374837,0.9792211508373154,1.1159120282021562,0.7679725263018696,1.3638014277429182,-0.22262952249165902
72,-2.0439089964559907,0.08643194267171803,0.6716962563226652,2.1544867654633486,2.6344107076110537,-0.6933360462180119,0.07705174585354799,0.5790337887388701,4.247816569239774,3.4733539129721476,2.5509087129499695,0.34222616775401704,3.455553444843127,0.9085957116979321
73,0.978889883457228,1.9246341448989301,0.734496500261121,2.339453801461175,0.8241178528760732,0.17351099481834956,1.0391697505691035,0.38835694451246666,0.038393826210082596,-1.9855723797039575,-1.3435028651452114,-0.7796164918430081,-2.0402303142806675,-0.31161267737966064
74,1.356063651619294,-0.5074974136461382,-0.750790427279132,-2.7817629210920347,-3.3710357321053555,0.05006034779719771,-0.18932362919350632,-0.8623613628737219,-4.561553362069641,-2.8658032510326326,-2.0977727963730763,0.2724217750535113,-2.5006695396152465,-0.40510682001463416
75,-1.646774629565767,-2.279353993598327,-0.7557379783808277,-1.47677102729938,-0.054922908635182455,-0.31140722906193247,-0.7365939572208567,-0.012226639146071019,0.7960352846914633,2.7000143720432237,1.3229922816455404,0.47689585954602953,2.052558626929192,0.36308804513063136
76,-0.39549688048734105,1.0721272581778905,0.8647313849507359,2.999943354382091,3.7228468452930823,0.7591981920731481,0.1422944000102029,1.0687820180538696,4.349263025732416,2.0949926049181276,1.8216163499518148,-0.5514265064519747,1.6328161101583978,-0.02248397958323727
77,1.9832209206579903,2.207932002251765,0.7275742358935302,0.4644654286466501,-0.9745667197763097,-0.0430555101881762,0.557384002906754,-0.5484405146082084,-1.3876412173637875,-3.0743869021360304,-1.2811641613861808,-0.1865448440709224,-1.5536489198012982,-0.07108923132445752
78,-0.6604737786714222,-1.4670528605553879,-1.007239086616176,-2.7155859384351078,-3.5080831692891605,-1.4309791536328305,-0.0471655770109135,-1.1036799390220664,-3.8164934528382677,-1.3946872194527515,-1.6392058525490805,0.5477634184681767,-1.1101888745519644,0.16580679825765468
79,-1.8463304954231716,-1.7933561766361967,-0.6242548587110235,0.39162988442988006,1.9332827811859232,0.862484273175208,-0.490477112611907,1.2698687975787404,1.6620981419177934,3.2321193004720836,1.3651687152971248,0.17192292537777598,0.868240413385805,-0.2898910708682001
80,1.552858302344741,1.4611037666388607,1.1544188452562383,2.053674782946878,2.7645239449570314,1.6553076188026936,-0.013357510898186632,0.8559513418584105,3.195553073858113,0.8780605876515014,1.3581143831354334,-0.49802817624579687,0.9640555005292409,-0.008645636645876845
81,1.2553239059306491,1.3092371390266022,0.4234304058165034,-0.8839287035699307,-2.519146640400267,-1.9091173574789857,0.47433698609886776,-2.051615942382031,-1.7043149323833362,-3.3596952599480145,-1.554426839747466,-0.5071346368597573,-0.3287274878417455,0.4471751785035531
82,-2.037720866695611,-1.0525068276451135,-1.2564155458977326,-1.2762585325347615,-1.722544152644285,-1.2585231352703155,0.012308405682177939,-0.24407811205596897,-2.6341474043426945,-0.4927388096369279,-0.8077413591305422,0.6855956758406845,-0.9970880704900805,-0.28125581773108066
83,-0.38042748972493207,-1.025957354869497,-0.12881501531651843,1.0058111164332995,2.589179599964961,2.8134579860955755,-0.4463963077817045,2.71196907766971,1.6705353298776369,3.5638653805332283,1.6669901808285599,1.0465671280484032,0.10282426616324129,-0.26213563642598736
84,1.9582939550388203,0.44423136082990944,1.2500450671324197,0.6154052606236678,0.6855726921795311,0.3003172263764172,0.033776920072541655,-0.7212560936808616,2.155712158690548,0.09403199500919204,-0.03775454086870118,-1.2930173782274004,0.8973276922788851,0.4418692004229891
85,-0.4947674178317647,1.0542572385365205,-0.21227284987242223,-0.9157075069586771,-2.1963373299403055,-3.2246309687411427,0.37524810086239585,-3.0298477388020277,-1.6817664874333564,-3.7961565469446326,-1.4568045996931547,-1.4907519857894846,-0.09379346238226065,-0.19270513113956364
86,-1.2980230618306414,0.10340165282179259,-1.0922939194322285,-0.13818473706475917,0.10632563633983287,0.9297500896965668,-0.09649859159365771,1.8914619414330966,-1.6995973850266761,0.4213815504960583,1.0050545425024586,2.3002635441413157,-0.4305160775275938,-0.26157095436502814
87,1.0302883020584408,-1.3227958714850687,0.5171014647870179,0.7881754693793595,1.5272562701870689,2.965344051899292,-0.2622509576067615,2.8308756691847905,1.7618268906568817,3.893926231262421,0.7574417427487644,1.5180262906044735,-0.02104915386070228,0.6543681580496146
88,0.22491579307430506,-0.41717725746687845,0.793651528041713,-0.25794320165131374,-0.555159983980334,-2.0246534872192754,0.1590130402201351,-2.988408169221149,1.2018980874246137,-1.0181589022416324,-1.7668998444437003,-3.4640023997657288,-0.37919783145151026,-0.2787442247140338
89,-0.9242219187171723,1.6700714821858187,-0.7044674199790205,-0.6628494764625175,-0.7922548422772046,-2.113801555102211,0.12420058066685728,-2.083390405922964,-1.847588628638008,-3.703755997600195,0.39464182739689385,-0.9349543041230716,0.6060385227257163,-0.7996280112782008
90,0.8964992596308697,0.4584452432896634,-0.42466565153418767,0.7152715915118733,0.6968765017075876,2.6311943854228255,-0.2183189859669225,3.681233626176751,-0.6603330527178135,1.5269537172570609,1.975667845887516,4.389839357842235,1.1905318458933551,0.9446266848397917
91,0.047002067687359726,-1.9533351095235583,0.7396343468207385,0.40857509118627283,0.13652197093965746,0.9681011056211968,0.020817844841009694,0.9540489790207572,1.8519222612731803,3.1996313605060527,-1.7210701968969115,-0.20985876644225035,-1.8149932994835747,0.4390785783762079
92,-1.5747551419477595,-0.27512901494009323,0.08574550413600097,-1.2492832067884887,-0.6321599624880079,-2.595327310079691,0.27510816539087923,-3.709983461025644,0.14521786971377323,-1.7434696298382362,-1.4317692840907894,-4.681690242063642,-1.4743040514302548,-1.3265258502002648
93,1.4355572032096273,2.0916419377530926,-0.6571304435753867,0.1622189739712017,0.3850771148178789,0.08940925024617255,-0.1528256787901916,0.21599818460945164,-1.7312414042391966,-2.5186608334426523,2.779100779222371,1.6017071301990788,3.4118981799105104,0.32516925953484477
94,1.3630029786164064,-0.06784583974099034,0.14385733434465098,1.6760085012944481,0.45154263150403046,2.0099329584739163,-0.3292766893325506,3.005511754131125,0.24257682854703536,1.5537381061956628,0.20820659969008934,4.1185352167285485,0.7943915762980479,1.0462751379976851
95,-3.0389024434553855,-2.03752124422263,0.5443955126722173,-1.1069722838536604,-0.7740313837444965,-0.756642095204287,0.24248143898714072,-1.019261800481895,1.5145411034653933,1.8965405829109034,-3.1349413866844573,-2.7539182016946335,-4.792191170772453,-1.0839549539464386
96,-0.07846272141761103,0.5101036556763123,-0.24710373191561139,-1.70030359446514,-0.20098667487610833,-1.1480318565083385,0.3894958656310656,-1.7483001113461578,-0.43317613148993933,-1.007645139030541,1.3380031728678299,-2.782262670545577,0.9000085551536784,0.005007502839156
97,4.096209181942447,1.73730407481019,-0.4943994498351946,2.2328477106650353,1.035065299145108,0.9227423187592824,-0.25377885109105597,1.1384469757750995,-1.2812151735962793,-1.54769955323719,2.559241275412515,3.1987325679972725,5.233186866812647,1.2887279805561938
98,-2.045494214528995,-0.9631553173235298,0.27563059635342174,1.1155762087035468,-0.1020417418513884,0.3254189499471435,-0.4869287727166858,0.3288897145145309,0.4280997939696916,0.3021002332731862,-2.6884822939506656,1.0651291437692476,-3.1456229093692647,-1.5358977443319128
99,-4.026218509737006,-1.1413905883557836,0.5543163035211971,-3.142749190874593,-1.1482964158934441,-0.6794957444861636,0.16408356236349725,-0.48695381057019255,1.1075781467988723,1.5610671557399836,-1.1496254628694462,-2.6986768583620298,-4.2666281608385175,-0.5371875344746442
100,4.381193746596218,1.2776109103389681,-0.31801689190085486,0.01997060234339923,0.42904187185730763,0.233455457044514,0.6745270378961752,0.7869534233875699,-0.29684776637162447,0.30912493800832114,3.3735007380869235,0.4670892861124347,5.104201729032979,2.9286698897785257
101,2.613269684591676,0.2694294929921418,-0.6990063798912612,3.4343098549473066,1.0852768862591262,0.2436825567644852,0.010578546321124578,-0.7326787846670465,-1.0172780707992164,-1.8636180825406363,-0.6869922978048728,1.3766295554926253,1.9766513164488055,-1.1718708006974863
102,-6.125601948248162,-1.270304294207757,0.44787375433978466,-1.3574648630548354,-0.7188399557449023,-0.46680670603239693,-1.0036028282052918,-1.2403565515176966,0.13433081140212663,-0.6257351275688127,-3.1729331486949928,-1.30812720966695,-5.929835543893338,-3.5081281002888685
103,-0.15199371475218088,0.7264682631845792,0.843659199023743,-2.930902898876391,-0.8503988729972554,0.15902619247719824,-0.20686811266030117,2.0890495130026654,0.9645538289703103,2.2610911051020204,2.39270980754015,0.3101957978773855,0.9560591036098208,3.3667348563029162
104,6.630527018195256,0.820207775313098,-0.6802938181053786,2.4117031910621005,0.8983198963998036,0.4654215256303446,1.4895986038648485,0.9318360436401368,-0.004249078256185416,0.5770181620545833,2.2107869079594926,1.2353565527064008,5.188165482843835,2.8785469021178396
105,-2.6336072018637062,-1.571982044177071,-0.8887337011932405,1.7970333583766576,0.5063440733401101,-0.39233734912530993,0.3339150556859696,-3.0867872791981537,-0.8600959378533741,-2.526856179932916,-3.487151970312489,-1.7545913227129348,-3.5182103326944563,-5.2774397816861285
106,-5.6890413872955214,0.024058552714655075,0.9602283509585656,-2.806792144205468,-0.9331367196892174,-0.40099602237055804,-2.0904090384827416,-0.07108095429410773,-0.10001161555070905,-0.23497051275773156,-0.896188429486784,-0.41341380671887185,-3.1035135860374607,-1.1481718020090586
107,4.8743646442061,1.9788291523967465,0.7733035814087036,-0.4629628052165475,-0.1512719535483333,0.45421597979861783,-0.31156594648890557,3.3710697723777643,0.6275562226440126,2.4933363709371656,3.759751555440617,2.46230757251595,4.82184903966935,6.183972995925129
108,3.6344360098611124,-1.0100553016777523,-1.1890173322033917,2.464723231946929,0.8650118314436476,0.43129206393228925,2.7127264974763556,-0.9085498820562911,0.25319315878908816,-0.23076869683322704,-0.26175803599514685,-0.6812180902416891,0.4861941114222914,-1.0912868258017967
109,-5.9145600310693425,-1.8000901062980672,-0.5085670551506226,-0.5956729627119911,-0.14652471029141534,-0.46033034723469124,0.10316947975114565,-2.8804475542949035,-0.2614573935905942,-2.1076410845390776,-3.3369613981605486,-2.267412856850142,-4.5247834954401815,-5.759813182795145
110,-1.1965892779056204,1.7690191661192982,1.2746713540943568,-1.626444938303646,-0.7929170816401616,-0.6200580866918649,-3.241709685031883,1.5409459899025066,-0.5507585673304577,0.627100803804866,0.8778032333468054,1.4842419892084189,1.6415299921569833,3.0325387853987187
111,5.573310138115876,1.1341057661247613,0.1740684279573839,1.089815999918028,0.4091493930504605,0.5787936578966016,0.2749117048376527,1.8718925665734087,-0.14879102522196805,1.4355639987721946,2.596490195983458,1.3915726230392798,2.987555840718421,4.22524446661697
112,-0.8175983250847119,-1.9930478046539695,-1.178850377807257,0.7016047721469779,0.7943090056101696,0.8995223384849754,3.57422753959773,-1.538772659131865,1.0381359330201179,-0.8054866115912261,-0.8489991496891578,-1.606826692232597,-2.5348384885647732,-4.03070391269573
113,-4.183510150348505,-0.2978727168630684,0.12062669121382207,-1.027868656693656,-0.7468019275123744,-0.9413262349090938,-0.765186020682744,-0.7980601202593768,0.45112918875391983,-0.6231928592313244,-1.9735273692847137,-0.3163367307175719,-1.0753965071553886,-2.2263255308517174
114,1.8623255611116063,1.6012646294010384,0.9358702762074584,-0.045907549634082334,-0.8357780832685553,-1.0896294874822234,-3.63846095635161,0.9231803879759333,-1.6575637780923118,0.6995820160242274,0.3767396536415845,1.0048063897294228,2.0731150016238113,3.8897194570944413
115,2.397595271454126,-0.329942768858364,-0.28782351604031176,0.6556521586639673,1.2722369301355252,1.5630911596043,1.285631579661898,0.09042133474864684,-0.510389958297868,-0.1589705802044612,1.7536354747057525,-0.46406514218437533,-0.2932397524243837,0.508664211726563
116,-1.8445778131376753,-0.7890339144479703,-0.6347864702752998,-0.2011783557955483,0.7477474448687843,0.9715280937936595,3.399301071982805,-0.0030870856290736272,2.251029902232596,-0.327685301918272,0.1526565695705929,0.030962616685307236,-0.7776332061917198,-2.9082813287449683
117,-0.8706133049983572,0.5087939481360307,0.2999505181107247,-0.2812143975123201,-1.9774347396183654,-2.3048593306716483,-1.7374625006704183,0.044889656249713694,0.29305691134417194,0.7644782109952781,-1.9505472260182957,0.6779232189503672,0.6074102690897725,0.43181444222193516
118,1.087603099136969,-0.07767095461508729,0.37541752265118755,0.13610794463769774,-0.3063705644155353,-0.39256422083789694,-2.862926558647451,-0.7904666288699259,-2.6288945631852267,-0.22897307437299091,-0.3665506633998971,-1.0507954395293346,-0.5056661485874139,1.6756036050049337
119,-0.010975043427776124,-0.25714919307802997,-0.19544547173834045,0.10034477324886018,2.662767272222481,2.9018478224815296,2.007652790313164,0.2881838417084391,0.096047806585788,-1.099061620291505,2.32317666516032,-0.3769628934427509,0.016825968589652456,-0.5345408186953745
120,-0.1110191279458906,0.6622279168505913,-0.2222727420227143,0.019588274785441964,-0.6094298748229263,-0.6390617955934919,2.090577351380889,1.1304381015660236,2.672177733155166,0.8561494355871765,0.08532440385860811,1.6862595198996595,1.076083242705897,-0.7473731807473029
121,0.22636685537512977,-0.18062595732467768,0.051357402206827635,-0.12106700338914302,-2.9906319825263945,-3.05971942834402,-1.9833265538254858,-0.7567825687788866,-0.45552098352680453,1.1290491613020461,-2.516216324581688,-0.1409191751474999,-0.9703183330757943,0.11420051383647196
122,-0.6343111530913055,-0.8295065215108471,0.18034694524631134,-0.07447229354078538,1.884458315778433,1.918043302639852,-1.2133395558825657,-0.9573657731098874,-2.408880085343134,-1.4334326374048394,0.6029848828806833,-1.8210128478529872,-0.7339583960090543,0.388972679928308
123,-0.02556967666927978,0.49820925701128793,0.060686495113270185,0.21123849631140995,2.656485176382295,2.584742055370182,1.5894585524065095,1.000650420463445,0.5916611136202473,-0.8775923653236879,2.2481394384000177,0.5297957528969252,1.5454847554250712,0.3817206581385118
124,0.9339519364053217,0.6866336948835794,-0.2041761359296207,-0.030520843396458008,-3.1593531081082524,-3.094069827996368,0.42500005110736666,0.4882841363374986,2.0128356978255635,1.8544754229716531,-1.4026665082717122,1.6057957300696672,-0.17241373808698776,-0.5169574843645725
125,-0.26684546714923946,-0.5152221024428854,-0.11012251727104257,-0.21675523929088614,-1.5823045406147993,-1.4888593228844393,-0.8384626811812748,-0.837165182286613,-0.4278102497443877,0.41550840583485754,-1.4507597590812917,-0.5934275689770029,-1.3502095603047388,-0.6372137222380574
126,-0.8173026998866478,-0.4755111450981806,0.23294978987148715,0.2209084713432567,3.977776578343483,3.8010452189297386,0.0640066271327634,-0.0683155946933216,-1.7172237014537477,-2.0424123874661566,1.9661729766432594,-1.3249957286664928,1.0157690089903544,0.8416036098582161
127,0.4203018567635362,0.27005958549601417,0.11512278085294668,0.06613083089207249,0.0066911004475835876,0.012085104353210765,-0.1400698647674789,0.34959947839036526,0.05253589818168009,0.15085496802566092,0.2950579554861414,0.37086462533273246,0.49849976965162124,0.5996926904769484
