,AF3,F7,F3,FC5,T7,P7,O1,O2,P8,T8,FC6,F4,F8,AF4
0,-0.0656485476893945,0.051088246027066686,0.22790309659690083,0.3501227316716293,0.48742912529726323,-0.05465453834122228,0.24503440654308795,0.22766939925257346,0.3734214155644521,-0.28742464563707704,-0.3286116222769562,-0.3169597752254453,-0.2358527548427827,0.10220166390839876
1,1.800293741253554,2.5031161016251544,3.7064306782013867,1.956956208376563,0.9416994561517722,-1.6355364823634913,0.20753476668343762,-0.12937614057294455,-0.8008844021970728,0.5005460870306216,0.3236450962095972,0.7755138710438829,2.124786999113756,3.4286339182647954
2,3.5102865119074496,4.76053227582697,6.862277731303122,3.4240075451244416,1.3768863185174263,-3.0891100325026857,0.18050536494449046,-0.444330706112081,-1.8031432577484938,1.3030988063776863,0.9970601398813533,1.826274971556171,4.340856854930183,6.524049329584226
3,4.88639597120346,6.602271122191869,9.348578307675533,4.617801942444604,1.7647195880038167,-4.269770976401232,0.17120558605210467,-0.6870247199581307,-2.5028138466416086,2.0518034299097168,1.6185711798291678,2.728883574449843,6.19328304054903,9.095889210881804
4,5.783793383237588,7.851404553701591,10.887920104796468,5.43156800836379,2.075856173789517,-5.061088489276079,0.17706044158081244,-0.8379000299695758,-2.8149375079672354,2.683417459557406,2.119842449313723,3.386898794854835,7.501540630408095,10.898107573453961
5,6.107917166559216,8.39472616022057,11.305537176876754,5.796048563223501,2.28203959203943,-5.390096856114068,0.18538851871280204,-0.8897098531782432,-2.7113012033323796,3.145890524511879,2.4454482063053136,3.7247807923043528,8.143263127184543,11.757273357183395
6,5.825976705016864,8.194343559755454,10.550496031580687,5.685811659800388,2.358595742616024,-5.2359104993454455,0.1754211562643197,-0.8479752140499763,-2.2244374332498564,3.40181449280425,2.5586388242987708,3.696993792043447,8.066176244292686,11.590890547911503
7,4.971308465994145,7.290001484287636,8.702245109874305,5.120461504846692,2.2870439885313067,-4.6315278533196675,0.12238407608170884,-0.7300760281442438,-1.4436978813081824,3.4293446697323478,2.4442083675332467,3.294232350168692,7.291241994562038,10.41594250804219
8,3.6399792609624866,5.792134400521882,5.961747426908099,4.160844597247785,2.0575585953155646,-3.658675032123507,0.003035514952187136,-0.5628982598381036,-0.5034513316194409,3.221255353211831,2.1085725507922928,2.545993558251074,5.9071927031218925,8.346851773799187
9,1.980000552895242,3.8668795465136148,2.628346684514395,2.9009955383508763,1.6710019946844095,-2.4365224023091034,-0.19824671725624782,-0.3790807656430075,0.4356027453683831,2.783190675342702,1.5776398769046012,1.5191007216788794,4.057803285221692,5.583282393257103
10,0.1744402984766576,1.7152903361130913,-0.9347280148139279,1.457072640379926,1.1402691137827032,-1.105943469140595,-0.48391544572161965,-0.2121202275250284,1.210006891110042,2.1322215137489677,0.8933184976819495,0.3122047197482208,1.9241116281228452,2.3893351977865844
11,-1.5795283900917112,-0.45036300840991994,-4.34196059324134,-0.045174838629705664,0.4907272518685477,0.18844127474842673,-0.8393452332037127,-0.09086984221789111,1.6790621284412062,1.2965061138738316,0.10950747283526313,-0.9532943487128395,-0.29576369676491304,-0.9334361238534654
12,-3.0931174503746974,-2.4301115506185225,-7.229204916663374,-1.482820396152755,-0.24039811231648614,1.3159601437768869,-1.2315020544131015,-0.0342342228894912,1.7486532920360847,0.316262201397671,-0.7117989923465974,-2.1450873138779674,-2.4065713114127076,-4.076210801481699
13,-4.207269239828995,-4.056766428523726,-9.294218336948415,-2.7466549820655968,-1.0057605131256617,2.1749848287131,-1.610782158385631,-0.04702331530098493,1.3895221340200532,-0.7544393586369827,-1.5040247808184335,-3.133435341808643,-4.233412392179419,-6.753118423913924
14,-4.810350129243736,-5.211112539874785,-10.329395101360976,-3.7495295892619045,-1.750729586830916,2.703553479206816,-1.9161190531584016,-0.11789872460930184,0.6465370168733562,-1.8461496865543612,-2.1992498055670837,-3.8049571643236253,-5.635222758670293,-8.728467669364655
15,-4.850164800777364,-5.830440824306476,-10.243083345522846,-4.4315801589973605,-2.417205178935734,2.8843702552265853,-2.0828960551175064,-0.2200915846889494,-0.36339458997935437,-2.8741962748205245,-2.7315575157814536,-4.075303891192431,-6.51352400222689,-9.838413518773379
16,-4.338976440259029,-5.910021524975118,-9.067333045109432,-4.7622518080992355,-2.9481834916374985,2.7438660865114466,-2.0526707214521016,-0.3151201244054542,-1.4654471953024792,-3.7418540426345164,-3.0409719731562643,-3.899351927504993,-6.8164951455472895,-10.005164605620191
17,-3.351067460213631,-5.498053825438003,-6.951589076510272,-4.739457599668955,-3.2927512245457486,2.3458218642770037,-1.7833155696509242,-0.35916970565751716,-2.4517072973617253,-4.347384947314707,-3.078338398606136,-3.2777384982454225,-6.53901953543918,-9.242639913090182
18,-2.013251256758419,-4.685378449556089,-4.143492919934076,-4.386499598280719,-3.411093517460396,1.7807315663501893,-1.2579821824275592,-0.31123403310498793,-3.1134203280877135,-4.594977665192612,-2.8111650304646805,-2.2588851322050623,-5.719690956275507,-7.653322213485911
19,-0.4895423653553613,-3.591717974244031,-0.9593842615283656,-3.747515999792894,-3.2790319148727916,1.1525337756099756,-0.49134611607881623,-0.1416784148554346,-3.2758176188633077,-4.408625482675081,-2.229967750000625,-0.9360727850881788,-4.435788727430102,-5.41683862695072
20,1.0381750342611906,-2.3503835431149906,2.2518574168684413,-2.8822026045321114,-2.8915779518623546,0.5645240062587262,0.46810489208144784,0.16031972417390844,-2.8299009651789055,-3.7470306255074304,-1.3541653254570487,0.5603867108237935,-2.7970008248595026,-2.7714738853644887
21,2.391230993242224,-1.0932827218495476,5.147415483328969,-1.860423712478777,-2.2650137936310477,0.10618563964575933,1.5404496248198325,0.5819126698992985,-1.7557403802767977,-2.6169415843431247,-0.23620799091110314,2.0753333550911073,-0.9382958599182505,0.009634190544079149
22,3.4146025899275982,0.06224910808063571,7.427291791178033,-0.7571275106213344,-1.4371026190671075,-0.15760113489113928,2.6214123296389573,1.0853944233247035,-0.1329986691978275,-1.0820986957230598,1.0374882711809517,3.4442607682636903,0.9880398095425947,2.645463192880857
23,3.9943982126262196,1.0236997672539228,8.865314192226734,0.3522293918157125,-0.4651884227988561,-0.1939153276805687,3.5934535668511023,1.6111778153849659,1.86364774176824,0.7347187410317009,2.350009359910964,4.510680857537814,2.8214362402591386,4.874823486307847
24,4.070442799211316,1.7300733145573661,9.331269570105647,1.3957136399205154,0.5778388321898709,-0.005108638728322335,4.339537384415359,2.084728193588968,3.984114083348365,2.658190332679816,3.56246321766757,5.143584241489435,4.4034028794038855,6.482296701003174
25,3.6425624130370506,2.154797262066404,8.802088072763578,2.308463683190198,1.6094774920646904,0.3720899697538328,4.757776814009061,2.426561990773556,5.935033805734865,4.47585856565541,4.527379906808676,5.2530744873815465,5.589236196705347,7.319920044559816
26,2.769864307642344,2.304955378564918,7.361216825480322,3.0358261066430803,2.5449417561643455,0.8714449040887836,4.774962238079001,2.563878496124671,7.419881919835391,5.9612988201913275,5.105870162585807,4.802297195905874,6.260632717655847,7.322388707151764
27,1.5630915671935,2.217220815515778,5.1865779905246505,3.536090719587845,3.3051394247492256,1.4054812011143498,4.3570804803067125,2.442087479847497,8.181291253729963,6.9024623071685856,5.186530366770297,3.814053702201984,6.33821787331619,6.514023671869447
28,0.1709262167870983,1.9510665656717001,2.5286930601918685,3.7827390234391034,3.8244036090963487,1.8762824000922316,3.51532165922772,2.034469772114048,8.03940190887935,7.131460831794514,4.703438125001528,2.370986004740549,5.792509849048206,5.006463735070508
29,-1.2381614681563666,1.5799906676889008,-0.31843517928360426,3.7660285882456908,4.05705197776695,2.187721635864955,2.3066833637652366,1.3484588281402654,6.920668403728756,6.5514575344747366,3.6503401172653147,0.6089118363233821,4.651555491794142,2.98695242736348
30,-2.496354639026114,1.1816249028142964,-3.0503551672073135,3.4936838782358643,3.9819577349758757,2.2578605305060595,0.8290198648897372,0.4275104732662851,4.8729412320281895,5.156387835882546,2.08838052633541,-1.2962938931360577,3.003513487972078,0.6981187710518185
31,-3.4567345021900557,0.8276983315572494,-5.385399345549917,2.990475263945513,3.6045588442359193,2.030168208272685,-0.7888667243585664,-0.6518450079584823,2.064599748021539,3.039987075912412,0.14545532465355734,-3.147035009625945,0.992867724379669,-1.588823561441146
32,-4.010814709513365,0.5748863395494248,-7.094419918723216,2.2965482721538284,2.956070154949554,1.4822478218326307,-2.400848347634764,-1.7874962066850708,-1.2322602464148598,0.39196440394283333,-1.993585954912464,-4.7455690079647885,-1.1902950103604342,-3.604648128859441
33,-4.101153505990576,0.4575639269072641,-8.023769888555814,1.4645025311730122,2.0900409215073106,0.6309375660856814,-3.8591048423182537,-2.8628858962315475,-4.6724094637900135,-2.519050418555091,-4.10530582725602,-5.916319120375021,-3.3275177296150877,-5.113039244147685
34,-3.7274405134623736,0.4833660373610403,-8.109102234564775,0.5553879588155566,1.0767526689272724,-0.46701220447812974,-5.029858510753953,-3.760387468281441,-7.87784997795952,-5.374221647662819,-5.9526616783865895,-6.52621482256831,-5.194227351737387,-5.938231716058444
35,-2.9453025793390393,0.6322152798301621,-7.378689396763994,-0.3660498676008341,-0.003781266232309154,-1.7190105224399383,-5.807345397535383,-4.375224147096884,-10.482757620914649,-7.841538247512814,-7.313526322144159,-6.500515139733548,-6.584582868983241,-5.985976055701057
36,-1.8580449245719106,0.8591102416781393,-5.946247942503692,-1.2364173040131945,-1.069316106639124,-3.0052062233576913,-6.124436724960967,-4.628170306900218,-12.17731744494341,-9.616482092238487,-8.008973952266322,-5.832093138158159,-7.335861830468933,-5.255143383882857
37,-0.6024970206713723,1.1005078584110495,-3.9945139561170446,-1.9984949467721629,-2.0424857440536957,-4.190757049182736,-5.958778186562125,-4.475444828360962,-12.74503741080879,-10.4609772988902,-7.927426631878559,-4.582971651398931,-7.349140331247553,-3.83837450188049
38,0.6690779056301445,1.2836395820716922,-1.7518789431895554,-2.6053346666014003,-2.8567734733707573,-5.140459150852264,-5.333879544004584,-3.914573945899332,-12.089054025412944,-10.235343775152192,-7.041211255496626,-2.877877901816711,-6.603322943746977,-1.9115128901093719
39,1.808544188391575,1.3376481772024755,0.5348766083106944,-3.023225852193418,-3.460833332933514,-5.734057171094236,-4.315193974896545,-2.985509274396719,-10.244374505974196,-8.918805547927185,-5.413050524733064,-0.8905846083285303,-5.160339001490204,0.28704139093594894
40,2.6903092173402747,1.2050985472552604,2.6284077879517858,-3.2332797276883296,-3.8209406611066234,-5.880423152757018,-3.001809252436143,-1.766871020958026,-7.3747428387398255,-6.615567233783038,-3.1913556824441898,1.1753129041930945,-3.160434175939505,2.484655987917949
41,3.226198311120257,0.8522696034749284,4.3259744091430266,-3.231568402143576,-3.921635062928527,-5.528905509317267,-1.5148665360242382,-0.36777770517983427,-3.7546648290992546,-3.545369504257204,-0.5947024293265981,3.108885840571113,-0.8077895777239756,4.407108066099705
42,3.374948750061053,0.27671311065643706,5.479262994585026,-3.027945765417851,-3.764850807849676,-4.676487764970598,0.015829843563225022,1.0837483286519844,0.26112956123131786,-0.019504458317673275,2.1126639483178375,4.714988341126833,1.6519921330696696,5.811643929876132
43,3.1452770861153505,-0.4891339098556322,6.006982174939637,-2.6438415268423054,-3.367974448107598,-3.369903585879177,1.4653865279423077,2.4544098147833964,4.277064231287365,3.59477345277231,4.6512348248413,5.835351023845511,3.959864327808478,6.516490693389402
44,2.592379284877147,-1.3790166949315317,5.899321754888122,-2.10943343429873,-2.7613126933643737,-1.7024504814137291,2.725994295003587,3.6196842608532798,7.900230463639503,6.916941024019926,6.758697507555763,6.36529893333773,5.873313568091771,6.423257708481862
45,1.8086024810458494,-2.298750082822151,5.214354427371616,-1.4606478468956798,-1.9854006402716466,0.1941548688123216,3.716349519777734,4.4766613458277025,10.782923190642562,9.597554824822124,8.220314178691726,6.264293810934075,7.194533282445624,5.529489139102973
46,0.9097594925984438,-3.136432428521833,4.067346061862615,-0.7364058041519076,-1.0884525450801987,2.1620045851266942,4.387371429536412,4.9542202754367795,12.659299497398449,11.358607292732712,8.893376112113081,5.5592346654717435,7.793172958646487,3.929781499697878
47,0.019054402536554247,-3.7758957143097356,2.614635400492563,0.023576505353872047,-0.12408649118609222,4.032023119561513,4.723772888183277,5.019459732963466,13.372057171748605,12.02482208644574,8.722699662710985,4.3402801068762535,7.620733967774894,1.8052319044426464
48,-0.7491997297646943,-4.111814807221099,1.0341928921267063,0.7802888100373845,0.8507208068682441,5.640233013437314,4.741594152906448,4.679773302663175,12.88630384100934,11.542083875750649,7.7453421885988325,2.7497900526083825,6.714793041791688,-0.5976210853247428
49,-1.3039703201984685,-4.064589585175891,-0.49484668715583335,1.4962732199397109,1.7776315088499737,6.8436017396962985,4.482324447667583,3.9804953640704515,11.289364318176533,9.980954034873145,6.084150463708706,0.9657356481937656,5.192604503727152,-2.995925467785656
50,-1.588245589059295,-3.59303185060879,-1.811449848154778,2.1360296716897484,2.599145808762265,7.533859937818465,4.004645093498113,2.9985592457724297,8.776956709920666,7.525216310515019,3.931208468784069,-0.8184821887113549,3.2350668447530553,-5.104269684381713
51,-1.584917865251648,-2.703058549495938,-2.7888042012382077,2.6663067908909333,3.2612266451482936,7.64788791987081,3.375079001591045,1.8330527522745617,5.627758516783007,4.447344532548345,1.52352880847448,-2.415493526282102,1.0633315605948945,-6.669011888693432
52,-1.3172729055402377,-1.4510056146994472,-3.3458018891260948,3.056632753340633,3.716457093187081,7.173617510231016,2.658897613503941,0.5938801246710137,2.1697034578401038,1.0744212557352384,-0.8857343018012103,-3.6642756313862987,-1.0887082723730346,-7.4990067792579325
53,-0.844250892393477,0.05920858840596834,-3.4529648085285434,3.2803724524207722,3.9276524205894336,6.150865302270751,1.9125157299467381,-0.6100881421830021,-1.2577506992160161,-2.25085600915562,-3.056800029254715,-4.447064542939043,-3.0023299063578794,-7.488935569237537
54,-0.2512910514885648,1.685093501068209,-3.13251674385371,3.316441834090385,3.871635198357249,4.667057708183217,1.178317506664423,-1.6819917237365745,-4.340770151164812,-5.209004835125678,-4.7897949787751255,-4.701027003269882,-4.498638014192459,-6.632307669609887
55,0.36191302427830535,3.2600005481670844,-2.452932716362574,3.1515996109254365,3.5426899702583508,2.848365459672431,0.48244468691042414,-2.545858269560706,-6.823299092132117,-7.537615913818563,-5.945132191474999,-4.423496085627012,-5.4569017234521695,-5.0224511972107795
56,0.8950910447649474,4.611432052506619,-1.518857251645508,2.7830194551102374,2.9550953896105807,0.8472626928265818,-0.16439760229248246,-3.152462154913633,-8.530569132450514,-9.056340563552617,-6.455498485544733,-3.6703455541868957,-5.8245163794309684,-2.841296305616419
57,1.260738071104852,5.581149441239027,-0.4577231826728858,2.2206747826212383,2.144127101491092,-1.1721050373421715,-0.7635265034893292,-3.48165224759296,-9.381533847555593,-9.680505394794594,-6.328410040162618,-2.547882605965864,-5.617798027495293,-0.33729830684145873
58,1.395461418036785,6.044638810195731,0.5953228701936876,1.4889858821825386,1.1650504869089824,-3.049166717877295,-1.3230469407202594,-3.541098332611631,-9.389317797570541,-9.422513843643433,-5.639577757243983,-1.1993735744748126,-4.914135847872651,2.204750837321255
59,1.2679805205420889,5.927445934325548,1.5124957964573484,0.6272083362847174,0.0898641756487998,-4.641210627732702,-1.8518244092187128,-3.3618639042064933,-8.650379172468659,-8.381867567867946,-4.518511868642413,0.21210381521290836,-3.837197773342298,4.498205828283675
60,0.8828868191683646,5.21617278035226,2.1868555408878008,-0.31181800489162403,-0.9981279717648335,-5.835317294880714,-2.3537640479602606,-2.9916116055280098,-7.3245591480857035,-6.726077638285981,-3.1287304998131877,1.522424049485058,-2.537736446006991,6.288953849068309
61,0.27981713625840704,3.962516299966222,2.5428682664313644,-1.2647114033624287,-2.0115011187214393,-6.556881651124549,-2.8234013774039632,-2.486537408279233,-5.609318648992511,-4.665739145348677,-1.6455010539057562,2.5846176429474297,-1.1729647617127879,7.385321848823813
62,-0.47174165715664307,2.279565472098737,2.543098105986658,-2.162255065222657,-2.8669308121699517,-6.774092400550182,-3.243576245129871,-1.9032719473902586,-3.7120821130804678,-2.427497799582902,-0.23417337120982598,3.2844733854053896,0.11257558685928942,7.679728688311112
63,-1.2812813028537555,0.33055268161844786,2.1905413479100946,-2.9353580159154453,-3.493511089194809,-6.498199907846462,-3.585626514119955,-1.2919557376112114,-1.8246325484692962,-0.22852063622571017,0.9681391744265597,3.5518647721948837,1.2022075846989604,7.159423261065179
64,-2.04858117558454,-1.6887477230366255,1.5266015919082627,-3.521617101505497,-3.840131749614597,-5.779845431753503,-3.8121487932505516,-0.6914794655115442,-0.10294037653923231,1.7445387211663714,1.8654453031469107,3.366683551322214,2.0167410902668794,5.9051300393837325
65,-2.6760679750124905,-3.571906730640939,0.6251704738052998,-3.871669509675321,-3.880932622901367,-4.702095694113072,-3.8819811971991878,-0.12749694042704196,1.3452415090319094,3.3500778117618673,2.4091648089398645,2.7589417539646135,2.517888430058067,4.078062860514101
66,-3.0806897631090546,-5.125326637446501,-0.4163249807321114,-3.954488799465042,-3.618066266771008,-3.371093953407426,-3.7567184178511113,0.3866847876525063,2.464050351312012,4.498753888898996,2.5976812216134126,1.8033179939471768,2.70585125137096,1.897333232251179
67,-3.203846262483188,-6.1903734587658095,-1.4877648134061747,-3.7608798794138294,-3.081347353598221,-1.9053853251019335,-3.407816446488437,0.8467757588254546,3.2449478884830842,5.1536858257449305,2.4699857152177453,0.6090835420434967,2.612318397453219,-0.3889564378193667
68,-3.018175329572647,-6.66134469129486,-2.4777882113293983,-3.304659201209305,-2.324793433408126,-0.424999664901299,-2.823216072264921,1.2526513214536543,3.7157225667332963,5.324930561536139,2.09500886457429,-0.6931355447036177,2.29069166694001,-2.5348645770765916
69,-2.530405313766406,-6.496996972352899,-3.2845975964610337,-2.621328151322556,-1.4204962380853656,0.9587070862318832,-2.012429951004771,1.6032102006716944,3.9258071915099704,5.060140256225813,1.5587026821313188,-1.9659904408334739,1.8055690646962066,-4.325750924774465
70,-1.7799965931226447,-5.7242143781604895,-3.825031971049401,-1.76440519362186,-0.4506312687127007,2.1516197943390045,-1.009200583479505,1.8922435336732222,3.931069632620283,4.433523653193824,0.9510402762487774,-3.0796052736977533,1.2233478601594416,-5.601579100176785
71,-0.8338505511781146,-4.4334520746607495,-4.041128185364416,-0.7999150902208095,0.5013441398308962,3.0832301391984958,0.12886955352799695,2.106406807348219,3.781047620914595,3.5350462129178903,0.3548409531382653,-3.923712669852402,0.6053118332019818,-6.271534540754291
72,0.2221116772302734,-2.766690219081135,-3.9037730722099115,0.2002143729683454,1.3591735577030697,3.7104439583694284,1.3239237013152751,2.2259285955531287,3.510864163672412,2.461285592395048,-0.16223600970652394,-4.416548722028056,0.0038486746352691045,-6.3184939756438645
73,1.2932824759639552,-0.8996197436323423,-3.413455786673646,1.1649690167146753,2.060923663053925,4.018724838844295,2.484462204382608,2.228072644634795,3.1389337069389316,1.3086501298869408,-0.551934173836831,-4.509924751832466,-0.5383391597596338,-5.79345215045686
74,2.2871574678087874,0.9794899696866124,-2.59848955445894,2.03041514975845,2.5639442934339143,4.020702060689985,3.5143002333707734,2.092721265689835,2.6702806412249345,0.16893595805997366,-0.7860589293567808,-4.190524475781589,-0.986843961042342,-4.801514069703343
75,3.1231120486002526,2.691425710679032,-1.511326874671541,2.7445079280635363,2.8472105580082903,3.752569049421943,4.322847425083645,1.8089047789607595,2.104095277057087,-0.8733974449853524,-0.8543777867272959,-3.478014465699378,-1.3132271664000486,-3.482253144300698
76,3.7399085459568027,4.085391937868658,-0.2237080891454994,3.2700916734325545,2.910982616437077,3.268752656884022,4.835436053753508,1.3807830558417362,1.4432793274523603,-1.7431929757313913,-0.7609853097907565,-2.4209062100187526,-1.4931070560190047,-1.9879286494021569
77,4.100080746649648,5.053749047868847,1.1786466659495365,3.5859554929478885,2.774091508233838,2.6354415806518947,5.0023376085935825,0.8315716282289538,0.7033527373735291,-2.3767841428565992,-0.5204428785037379,-1.091219835913754,-1.5057756964489162,-0.4631451914396124
78,4.190864210030717,5.540511898623668,2.6012499654430554,3.686115656040964,2.469457237749999,1.9236220914321656,4.805212544811117,0.20421867203191293,-0.08171891302339125,-2.72509887514525,-0.15477978781408255,0.42112424873449383,-1.3359504811292517,0.9709807080800726
79,4.021892409707793,5.542917282691859,3.945657396997441,3.5777439751152333,2.038627959681944,1.2022747123183115,4.260032995543294,-0.4417680549241367,-0.8585035075972338,-2.757853446165089,0.3080251134642779,2.0135673486807355,-0.9775919316986668,2.226103288120748
80,3.620370289544494,5.106347284538759,5.113844796446394,3.2783074763854954,1.5261783578785417,0.5323311927167576,3.415966884007891,-1.0371861425413347,-1.5585278078922182,-2.4683958420306205,0.8340550363360415,3.5756162454943867,-0.43903227807199247,3.2486685751367697
81,3.0247926051107483,4.313786887744038,6.012364177241057,2.812512828754554,0.9747271721281882,-0.03811859388148534,2.3502517965636893,-1.5127627195560431,-2.1075590428448434,-1.8782017449446096,1.3825110405333756,4.993182766627655,0.2518889035301293,4.015360637783535
82,2.2784428136835495,3.271678606349509,6.556641973892749,2.209570753887325,0.4211551320995592,-0.47703001324317584,1.1596430039957832,-1.809972509376989,-2.4380383906047656,-1.0396735482606658,1.9047878354560486,6.153061853377133,1.0442700816790051,4.523867741289882
83,1.423865630015232,2.094428833914321,6.675802192981423,1.5011403903491716,-0.1056356408650748,-0.7698472146476064,-0.05048669525271246,-1.891126526139572,-2.5021962799942705,-0.03584933771782217,2.3447122775124387,6.94818263364267,1.8637059817372845,4.781662383430701
84,0.4992591048731284,0.8898754678337716,6.3182628036884605,0.720116470853729,-0.5853409947993912,-0.9191868085361778,-1.1779628990310649,-1.7468098054253922,-2.283122112822503,1.0240584983964947,2.6409416953503846,7.284172503146062,2.6160776441058853,4.795738047849591
85,-0.46268270811382345,-0.2522583278495279,5.458071863226166,-0.09978233854584587,-1.0054210283759415,-0.9429152537610356,-2.134955561332279,-1.3991244076652811,-1.8013672361812205,2.0137330998954543,2.732072894927909,7.087446163514742,3.1959758094081603,4.565903215536792
86,-1.4334630339404055,-1.2674813276305243,4.101557400598626,-0.9238460417839947,-1.3591874615213249,-0.8708985127872861,-2.856953630766065,-0.899889364987537,-1.1154668413182485,2.8030025747165945,2.56434770897974,6.31451412043852,3.4992533169099636,4.083365613306336
87,-2.385532924404873,-2.118570001462646,2.2934338447755507,-1.7159793493330504,-1.6433253843169504,-0.7407922844677687,-3.308386747484596,-0.32383620061526325,-0.3159058443012154,3.273917856522081,2.101098528460486,4.961595566586972,3.4382737390129536,3.3351088565622775
88,-3.2880761929107405,-2.7927433763891805,0.12113745652950049,-2.4384951206260044,-1.8554161762395194,-0.5932946155206401,-3.4842219424249876,0.24225137732657548,0.48670759050285956,3.3375271618608893,1.3324276386947576,3.0730564776212193,2.957657122163933,2.3132029886970757
89,-4.103091052088919,-3.295010988420599,-2.2840380118742805,-3.0524908464740923,-1.991989708251578,-0.46730319739237247,-3.407480035505377,0.7127469206119487,1.17740415339782,2.9487548175082208,0.28321499957366947,0.7468253803313339,2.047885395732852,1.026965074646963
90,-4.783076401185474,-3.639347262640695,-4.750373011685954,-3.5191049120070934,-2.0475112614203774,-0.3954123336442134,-3.1232365608283663,1.0165724729366727,1.6539543760672657,2.116773732230801,-0.9824902351953055,-1.8651041245610331,0.7541327450518414,-0.48495585769458815
91,-5.271407561776307,-3.839664822947093,-7.07471060049672,-3.801782467910985,-2.0145229518762724,-0.40015348117956934,-2.6901908159812598,1.1085295438479041,1.8424586635016877,0.9087264486199366,-2.3622778904501507,-4.562616278634505,-0.8218317803368029,-2.1457700368306547
92,-5.506016985614629,-3.902521311781084,-9.037302662849717,-3.8694714960931083,-1.8849409075696446,-0.49132998304509673,-2.1712179382401886,0.9766536264619127,1.7088463943405938,-0.5544497996943023,-3.722242668960509,-7.110633399314209,-2.5279073853381675,-3.8378425060723425
93,-5.426355846412638,-3.8231073001740743,-10.421895942671119,-3.700452374207289,-1.6522923116680583,-0.6647203888691071,-1.6244116762737635,0.6443400431697275,1.2644295066763414,-2.1101432329286443,-4.9097875348569335,-9.259193151235023,-4.17610911275386,-5.407946261444362
94,-4.982916183499086,-3.58539839766141,-11.039429330595475,-3.286315353592578,-1.314493767389724,-0.9023224507386607,-1.095971892228375,0.16686632740477472,0.5646843655653708,-3.572898405171193,-5.771180274039073,-10.768924979303666,-5.563886206976023,-6.680910837280686
95,-4.147965881874873,-3.1665292693966696,-10.752785036407024,-2.6354725231680023,-0.8766510377371192,-1.1741775286732417,-0.6159226856203056,-0.3771313070877301,-0.29843489828770725,-4.757580269421859,-6.171719921433305,-11.439255340865312,-6.499773677360634,-7.480494555397475
96,-2.9257055609881246,-2.5446002559094083,-9.499368258089547,-1.7755486008840446,-0.3533174125442357,-1.4416547063475167,-0.1971271988241056,-0.897843959173318,-1.2093272225359994,-5.503696235059792,-6.01569653698088,-11.135801842087028,-6.829938892551372,-7.654789860754222
97,-1.3598896443151887,-1.708403017451313,-7.308040603040711,-0.7540523316996667,0.23030929923179916,-1.661900212300903,0.1625197114094553,-1.3081735776064671,-2.0446564195704675,-5.697393982941378,-5.263080805902894,-9.813019947767764,-6.461778649854618,-7.102323446374235
98,0.4628808957169018,-0.6670799654275561,-4.30720898951791,0.36311070312560184,0.8386459758810628,-1.7929970207095898,0.4753885025143849,-1.537104835873231,-2.689928340666227,-5.287897094105118,-3.9401318228903777,-7.52836884092268,-5.380904382016007,-5.79446717236479
99,2.415487421554158,0.5423952818055644,-0.7217030847102007,1.4954747809426916,1.4276395709186362,-1.799260987234798,0.7579832226489567,-1.5404808108079246,-3.054371259355818,-4.295900910506934,-2.1418479560480765,-4.445095146193165,-3.6586220226157957,-3.7899679898354837
100,4.3387638226474925,1.8517778360889345,3.142604430740501,2.554081097536437,1.9482961243133472,-1.65604838928191,1.0246665853899404,-1.3075589596498909,-3.0821624021680427,-2.812604489456944,-0.02530463848049216,-0.8221125812112007,-1.4482697473278066,-1.2383428506389265
101,6.055691942602658,3.163411102330871,6.925827695691249,3.4493239212239093,2.351520874113575,-1.353481206768127,1.2824869325216401,-0.8624334987444461,-2.7586979616434175,-0.9894153294805884,2.205747732514943,3.0088037467591024,1.0296585716480793,1.6295575917335776
102,7.389954859526579,4.35778062794552,10.250391008349665,4.0998170635144895,2.593726827855754,-0.8986120794792679,1.5280820965811535,-0.26024195693300756,-2.1113826680118715,0.9802851541604913,4.323325239149492,6.676448997386786,3.5120391905372204,4.523571685552117
103,8.186671934745787,5.306169754491287,12.762720721001633,4.441288105731505,2.642489977773624,-0.31573279215746297,1.747195896003296,0.421116042448965,-1.2051903703958777,2.8847989297911694,6.101882674295112,9.81053878664458,5.724274510755955,7.126577018045538
104,8.332615801593224,5.886883912017655,14.175266189169859,4.434393390220247,2.4814485865911062,0.35525264838639736,1.9168249734833125,1.0923640847161884,-0.13390742755398435,4.519942135481684,7.34570330039705,12.08408686421908,7.414021388994641,9.133155762906199
105,7.773071770951822,6.00278017208943,14.30336341652781,4.070383660881544,2.1136846741451127,1.0622475113737495,2.009516325814957,1.6655506024044566,0.9915631551470563,5.713565239457776,7.913307571165819,13.252401296284898,8.382976451791192,10.289368318564932
106,6.5227815750652605,5.597445698845748,13.091788017093915,3.373746078375348,1.562988745759965,1.7458284113320455,1.9989476246390718,2.0661718251421703,2.056225407582316,6.34555827276803,7.735544546367438,13.183533610426124,8.512398532399585,10.428000928514964
107,4.669085945291706,4.667384443453384,10.626946786808233,2.401283086698299,0.8726728640660083,2.3450468281978125,1.865706543650285,2.2430035690885726,2.953728427879222,6.36086395309729,6.824878858441704,11.875997011128169,7.778864995947839,9.494073000842976
108,2.3663553189084614,3.2680060219128553,7.132399349756813,1.2375194491237458,0.10192545951414703,2.8035479888214256,1.602172738246143,2.174352401762666,3.5974010038768127,5.774062581823155,5.274587904891762,9.461157102732722,6.258073180599665,7.556604289185201
109,-0.178056729682244,1.5120132454581412,2.947551836653551,-0.013201868690943534,-0.6799536507897818,3.0753564207040305,1.2155928405290948,1.8700211802782147,3.928502817171823,4.66527750153565,3.2479568641500953,6.189673474367992,4.116118513338427,4.804480561588531
110,-2.724944130214466,-0.44015231040365094,-1.5083765443990529,-1.2371310357960246,-1.4007902838452941,3.1297228069545975,0.7287847969655842,1.368933902322218,3.9210275261711875,3.1683023078781756,0.9589034685650342,2.403459719657285,1.589375515788382,1.526457882973509
111,-5.029061848395933,-2.3969761975537938,-5.782970292274464,-2.322872257936044,-1.9933724079128572,2.9545375380173278,0.17834115224992747,0.7329804671325345,3.5828250484206556,1.4528137409722965,-1.353409149363776,-1.5034573511089855,-1.0443621944097337,-1.922406396706762
112,-6.866510839675265,-4.157713977457626,-9.442145594316274,-3.1731249466777633,-2.4029082888714903,2.557969596430549,-0.3893669844678235,0.03813443731839725,2.953210153743118,-0.2968100249785203,-3.4526576579657333,-5.13032480667791,-3.4996738945638604,-5.163640083598233
113,-8.06027639131683,-5.536611054123193,-12.120130482145193,-3.7149989965682852,-2.5931582263964144,1.9681619863125244,-0.923733397616372,-0.6357967734476808,2.0975582228164646,-1.903260579888665,-5.132537820519719,-8.115607686727278,-5.517804671642037,-7.8419060626406525
114,-8.500649527664486,-6.386214494376014,-13.561517663712277,-3.907644247035858,-2.5504524607962087,1.2309913274013247,-1.3761406725484895,-1.2153367125147005,1.0996377713049508,-3.2159475543248073,-6.239633511361812,-10.177718584522465,-6.897013284571168,-9.66894787722328
115,-8.157855100757185,-6.616480764093428,-13.649964090732633,-3.7462481691896987,-2.285076874250342,0.40607169991070113,-1.705936837229398,-1.6420789280381434,0.052585893812422575,-4.126242648835665,-6.689215580293027,-11.145448099493676,-7.51511561512511,-10.458943631634211
116,-7.085183753990701,-6.206872118800816,-12.419825533475029,-3.261901097248753,-1.829848891443116,-0.43865426374327227,-1.8853214795679036,-1.8789423246933483,-0.9505035048603473,-4.5767317871422275,-6.472200170967253,-10.97438167757495,-7.341468456832747,-10.150437974256205
117,-5.412154548577216,-5.209570000023105,-10.049263336423085,-2.5173496688767596,-1.23607216123936,-1.2332489792543933,-1.9024989856723102,-1.9132891206636646,-1.8254364176289468,-4.56374292688791,-5.65269273923048,-9.74745999204651,-6.4371057449400615,-8.81190140201204
118,-3.3285523707953772,-3.7431863948063557,-6.835833007493958,-1.5991864160271918,-0.5673995291288924,-1.912435407592326,-1.7627335035790619,-1.7567171903888346,-2.5043925602395882,-4.13331754586807,-4.356786649584276,-7.6599578085742115,-4.94336311011757,-6.630293712700179
119,-1.0614017627644223,-1.9777355405325039,-3.1579093365317004,-0.6074807843247614,0.1075988213255452,-2.4219036636078513,-1.4872479949715143,-1.4417993115337318,-2.9413766414065994,-3.3716197891486126,-2.754404555073618,-4.991225338920501,-3.0608750799287106,-3.8844297621713446
120,1.1521205167905617,-0.11292070153239799,0.5728184240019428,0.3558236298206348,0.7232096975687815,-2.72359455386147,-1.1102040334085161,-1.0164329699882335,-3.115244137000115,-2.3914194242479514,-1.0368118818255685,-2.067261169020638,-1.022078587164314,-0.9070846932751928
121,3.0923081203733602,1.64721757231828,3.9614106656779895,1.198285541205046,1.2237193241705553,-2.799360297949092,-0.6742415958866221,-0.5367331237385049,-3.0301532959571436,-1.3166618708690434,0.6071183387289192,0.7806852412559637,0.9388729432630875,1.9586966741219738
122,4.581529575511727,3.1197191960165416,6.6757016107638245,1.846721501011076,1.5690617801242646,-2.6525569801263136,-0.2252208840552049,-0.05951685517926184,-2.7135428923518985,-0.26721355660258644,2.0128007272150135,3.2559144817083725,2.61469025296825,4.402928239808191
123,5.5027323844534175,4.164639832054968,8.48239221966077,2.2541974105857916,1.7383377592539773,-2.307345638714171,0.19312406396300896,0.36460865788207497,-2.2119611943383855,0.6543418261428595,3.0573149115351512,5.12934662380351,3.848323989644556,6.185716586671082
124,5.8096573796528626,4.700519722865939,9.26884887438359,2.403509742565475,1.7308713150901547,-1.8057451975443073,0.5439398069014945,0.696712996770035,-1.5852644252328685,1.3724215642103836,3.6703366071437795,6.261869637073057,4.548331725728562,7.163158246235971
125,5.527752093043388,4.711411437201363,9.048356193890982,2.3068935278766993,1.5648060613192327,-1.2027570131155312,0.8008536936896727,0.9129880590566263,-0.8998479154784828,1.8438264307981926,3.837662007278441,6.6136421764416236,4.6946789546867524,7.299030840506009
126,4.7460655880262665,4.244784702890389,7.948946748449317,2.0021966559566655,1.273559237304758,-0.5601285443135816,0.9500444168630355,1.0059161669184815,-0.22165229207261497,2.058575200240086,3.5974111451576642,6.239949050165671,4.334824923510685,6.661382517068265
127,3.601633298949113,3.400998663150907,6.188214151089714,1.5462135881766788,0.9007105742421191,0.060495023238146095,0.9906343078786523,0.9832341380180503,0.39031399721559673,2.036586702390308,3.0299753374681364,5.275099559132273,3.5713086720345304,5.405356567715732
