,AF3,F7,F3,FC5,T7,P7,O1,O2,P8,T8,FC6,F4,F8,AF4
0,0.0788811969374633,-0.07270486413341105,0.3551675359533615,-0.058850605968636935,-0.3012979994593033,-0.01760746635379693,0.517164216820917,0.24433446683706272,-0.08615929453983011,-0.20306588625896083,-0.35199343735428096,-0.2415561904088292,-0.47411720602089563,-0.5243708883695891
1,3.0853881955375555,1.3664210909092707,1.9668835394055248,0.9230611279247859,0.28122222546625303,-1.3439889189140333,1.6125159460038117,-0.41881085065454693,-0.9673012023103208,1.1026932919127643,2.101795830340568,2.964596421206365,1.7863416641873018,2.201737314352208
2,5.716611152316919,2.58092752439269,3.3311526075246496,1.7941517056002092,0.816151806563639,-2.5765560807985923,2.5299105230073375,-1.0659946282652313,-1.8543865671901543,2.191672540591458,4.261790628525398,5.794466580513574,3.784289882906475,4.611798208081386
3,7.673574172758915,3.4082216533304797,4.267057434377513,2.461636024909074,1.2512653410538879,-3.6145749556835494,3.162629368741641,-1.6457427466293457,-2.6564934109556226,2.9429245752080173,5.9062261944764956,7.94319425858873,5.330645973368479,6.440501623315325
4,8.7404901986519,3.7404404983751256,4.647334977736876,2.8567953210134847,1.5476981769768379,-4.371877922031016,3.4414924806038014,-2.1100614835383995,-3.284645223280887,3.2839538339701813,6.878977387396794,9.189555824380038,6.291111764739899,7.496614913606429
5,8.810027637824962,3.539087067468849,4.414844808268996,2.9428831160510645,1.6835612252051846,-4.784757642746911,3.3434150472132993,-2.419184940350967,-3.663346848558129,3.1981565047504557,7.105490694352302,9.420787835588099,6.599364635404302,7.684339912534047
6,7.894965903958825,2.8400770854283595,3.5901508413561793,2.7191535031991614,1.6554320976247974,-4.817793900289451,2.893604948861719,-2.5457454978598593,-3.7406351051982503,2.724749744459574,6.598452263845316,8.643776286077028,6.2621183234282345,7.012707637041565
7,6.124841203085282,1.7484549575337756,2.2692029072986917,2.2204969194640944,1.4776212423998685,-4.467085515388204,2.1611331370775266,-2.477881416587447,-3.4952449520515994,1.9513597066935535,5.452766545447601,6.981397927562283,5.355583047217533,5.591991493677427
8,3.728104432168875,0.4234733089515198,0.6113887799257752,1.5127172739811705,1.1793775952204,-3.7606686679282673,1.248546602972295,-2.220888196957155,-2.9399141028062115,1.00041515869198,3.8307767293935377,4.654726760870675,4.013903284191961,3.617756384516966
9,1.0021755269730317,-0.9439150848655649,-1.180518184599459,0.6840406657545456,0.8004473970905005,-2.756198744738541,0.27703332261305064,-1.7971670345889135,-2.1204274466469557,0.011299853627452602,1.9398633420055589,1.953625416654232,2.4111258952539223,1.3447128125322236
10,-1.7246652310266437,-2.158023073340418,-2.885933541259204,-0.16606419423076255,0.38560087615344907,-1.5362127340401701,-0.6307297512590432,-1.2444113933002516,-1.1106368177448689,-0.8792530403823317,0.00545680813915733,-0.8003129365544431,0.7390277408450489,-0.9461886127356642
11,-4.134569320125428,-3.0460710223598353,-4.294257779119331,-0.9393174577968114,-0.021132469667093087,-0.20144974060698032,-1.3675967725796556,-0.6121777267410691,-0.004263289448508834,-1.5558506586808145,-1.757011949843072,-3.2936060237316434,-0.816386666699629,-2.9831668399671316
12,-5.959235909607762,-3.4825988122049356,-5.231310023982859,-1.550703775524931,-0.38174753942913264,1.1372109858334891,-1.8564202267068737,0.04282150646482704,1.0953081516167096,-1.9397049336890715,-3.1676668663333505,-5.258392840914467,-2.0967783252773997,-4.5369970846587595
13,-7.011825126791007,-3.4071716460169554,-5.5810049360608405,-1.9386267826962618,-0.6683656665798419,2.367610756886345,-2.05991401889376,0.6622141283057241,2.0858636968959723,-1.998451885984091,-4.1021050662685985,-6.502923202089217,-2.9890581139976846,-5.448157897183394
14,-7.207647027625349,-2.832838180810934,-5.299513956212467,-2.0718344936620223,-0.8656272155924695,3.385388994945123,-1.9845241098678443,1.1916770200084388,2.8765221879800427,-1.7492537256952294,-4.5033352437669105,-6.931369247707118,-3.436545229292423,-5.644377385943153
15,-6.571148690866001,-1.8441154277581229,-4.420148450698623,-1.9522502633161796,-0.9711044576751848,4.102695786787503,-1.677786345186962,1.586261521446959,3.39618783281659,-1.2548245672443825,-4.384481325100573,-6.5507985981968755,-3.442442413780483,-5.146511874678048
16,-5.228594874228616,-0.5847836203973477,-3.0484262331934757,-1.6134112280936392,-0.9937747845605185,4.45594249196161,-1.2196048411510785,1.814786173987339,3.5996345951957136,-0.6129844380847342,-3.822236645144071,-5.464901433124772,-3.065401207731194,-4.062255203010806
17,-3.3877770580085436,0.7627500054612786,-1.348070481167507,-1.1148243244522609,-0.950908546167493,4.4119708285447965,-0.7087871161283176,1.8628487442383082,3.4709478344655453,0.05876239970694328,-2.942282773584013,-3.85582420408303,-2.4080113175874605,-2.5687978146455017
18,-1.3078148781569447,2.0035402814181476,0.48013149808599465,-0.5331078722446966,-0.8639842795804616,3.972018508060471,-0.24688786980971936,1.7341508045155123,3.0243595755498975,0.6414281403473611,-1.8989382716449006,-1.9569841444434546,-1.5999890336113607,-0.8870041388926594
19,0.7366126044292327,2.957886980272145,2.223771098092498,0.04878827382446937,-0.7543921696136684,3.172917295950325,0.07817290694373616,1.449994522614975,2.302700524198068,1.0329105519150354,-0.8520325158834167,-0.02081826858380598,-0.7785281902068582,0.749245747720502
20,2.491625475512745,3.4868234193524033,3.6852030733012966,0.5527607116072624,-0.6396922773432531,2.085113924607458,0.20621184596556558,1.0469877120646631,1.3737517699721415,1.1638550953070574,0.05569174948348755,1.714073523487924,-0.06861766927178942,2.1243408344295607
21,3.7561777701555528,3.5116761392515135,4.705449591129193,0.9156010376688768,-0.5310576272107327,0.8073699123385517,0.11444393944375245,0.5731644831334856,0.32475470670159085,1.0086405288480365,0.717499953581638,3.052049347432876,0.43392718088143056,3.0686602467025548
22,4.405606754643693,3.024942984969136,5.182600056857783,1.0966036821453025,-0.43228375415180326,-0.5416462155590566,-0.1787787794862302,0.08288194595607717,-0.7446994057880415,0.5897712801679478,1.0753643457995838,3.862174906519772,0.6744186520205564,3.479131416851395
23,4.403851378492481,2.091016829662012,5.082480942824348,1.0818187554646688,-0.34043576741050535,-1.8342602233730545,-0.6167311647956272,-0.36901989269054314,-1.7311532252361965,-0.025111259880559483,1.1248505558337523,4.09014554397452,0.6447069285233795,3.330098707404247
24,3.8031761529339154,0.8367684496708386,4.440450860108987,0.8845472613605702,-0.2478902154653125,-2.9461935012832954,-1.113167844412788,-0.7332129621652763,-2.5367540238025508,-0.7332960955695312,0.9117805067105657,3.759395711771919,0.38149854522870363,2.6733738262830244
25,2.7320309568556675,-0.5665319061906939,3.354387629275231,0.5422199540476664,-0.14527075260471733,-3.7691798473774707,-1.5659162844677488,-0.9713937775668825,-3.0790717175958995,-1.4127465113998325,0.5214879988796454,2.9619566990642454,-0.04191634838681063,1.6278609717975254
26,1.3733156353636864,-1.9272526554778786,1.970105286314027,0.11029142705911248,-0.02462348079257765,-4.222370203039576,-1.873128174376456,-1.0606767465072264,-3.300321845679144,-1.9411836555812665,0.0625800254723739,1.8410194056668026,-0.5290636875312971,0.36057731405925936
27,-0.06343991554438508,-3.0598988746657607,0.4614042285020429,-0.3458546647115157,0.11784065725314467,-4.261144929294582,-1.9496946963688708,-0.9963019592226698,-3.1748106666601457,-2.215571009052238,-0.35208812801396283,0.5682020807296063,-0.976611516613613,-0.9379787942150994
28,-1.371796310415233,-3.810302240128437,-0.9924159846145343,-0.7597990212981377,0.2799928870515436,-3.882201614167255,-1.741307412678043,-0.7922435997085987,-2.7133604290421225,-2.168915668618627,-0.6241547861635705,-0.6809340341048649,-1.2910270966133806,-2.0804829525728152
29,-2.3758132101365437,-4.076018694788635,-2.228542451599466,-1.0725750082819525,0.4533582343408632,-3.1242101845257713,-1.2340141994023626,-0.4795350885915447,-1.9636767611083885,-1.7816640310537402,-0.6852794470601401,-1.7495973115391177,-1.4029848594518837,-2.9077065880477275
30,-2.9515194457861873,-3.8192250215915884,-3.1193162468393667,-1.2396986313824403,0.6240704477525024,-2.06386729023135,-0.4578172259481802,-0.10241481949703202,-1.0061021514445447,-1.0857992376123664,-0.5071401635309154,-2.5177305479933936,-1.2773734428737824,-3.308378276405617
31,-3.0398978583654466,-3.070544877548826,-3.585368115248101,-1.235966292853964,0.774993783945107,-0.8077594478056385,0.5162245317652893,0.2872939844506745,0.055101476346342916,-0.16091861809447275,-0.10456816815957588,-2.913212156066122,-0.9175239598062623,-3.231559285853026
32,-2.650221654030409,-1.9235630905808125,-3.6018931400901795,-1.057606693698794,0.88857406790705,0.5190255124761564,1.5849354208489366,0.6368736133795665,1.104011379439946,0.8771157751104046,0.4683400170897591,-2.9154747732877504,-0.3632677809005005,-2.690320643621039
33,-1.8540396852245662,-0.5211055644597586,-3.1977544408552365,-0.7217562966295926,0.9498538610227407,1.7861942488067781,2.62664222268435,0.8995768957627895,2.0272109255148587,1.8931338049803705,1.1281406749899547,-2.5519472026062355,0.316545656830925,-1.7568231410660504
34,-0.7714145259017591,0.9645235872986411,-2.4480991754434456,-0.2635728149713055,0.9490727966767952,2.871884845650826,3.517420552279217,1.0407006040953026,2.7277830555613347,2.752484531443483,1.7760688189707836,-1.8887709183916723,1.0355656478868753,-0.5501016210536855
35,0.448024457963633,2.354406001163671,-1.4619876475680103,0.26844116734321566,0.8833713559762041,3.675068043835227,4.147559432268039,1.0419853356259534,3.136977391738376,3.340556859603538,2.313696250802476,-1.0179413841661469,1.7034105805642643,0.7812409982782889
36,1.6461620902858092,3.4857450315066547,-0.3670673664431263,0.8181892240725718,0.7573009671547373,4.1253298496409805,4.435860585143466,0.9036970865288081,3.2217462987531778,3.578928584246639,2.6576485115870048,-0.0432835603244905,2.238824407258326,2.0787309344701317
37,2.676575196306714,4.231441525992025,0.7064884293545123,1.3280666924973212,0.5820783184897405,4.189015972682119,4.339785223121335,0.6441014174921387,2.9870579220757087,3.435716437976295,2.7511551453173264,0.9325164969045073,2.5804687112614126,3.193363822428182
38,3.42123383607995,4.514101998464539,1.6407106782242666,1.7447184973180039,0.3737633320770208,3.871195676411512,3.8601524899021666,0.29645350125376607,2.4728286100906525,2.9287352660978505,2.5709068744544563,1.8181589735109756,2.693858667956772,4.0021924928258485
39,3.801945101252378,4.3130017959508145,2.3415975207193127,2.0239562431703417,0.15074220240007963,3.2134258375540496,3.0399565301257745,-0.09598023646565615,1.7462730683706187,2.1213068636694827,2.1285912451221978,2.5403731965763843,2.5737276704247973,4.42041673712623
40,3.7857161279546823,3.663595769121577,2.7468835741198485,2.1345031525017064,-0.06898163595826447,2.2877947439087203,1.9577563467153276,-0.4860546188543218,0.8912392793182333,1.1117558222561172,1.4673964904806893,3.0468984296403674,2.2419386931604866,4.40803652280988
41,3.3841620822560285,2.6502030129937086,2.8294533258628793,2.060410072473173,-0.270169668633383,1.1881352902488818,0.7168607629068174,-0.8290679546323625,-0.003487406674022764,0.0185761979613358,0.6545437133389465,3.306441190339443,1.741789892093092,3.970949356881168
42,2.64787433182264,1.3933373652170133,2.59664401506827,1.8021238454936392,-0.44197545458287174,0.01956851215054569,-0.5679361716458603,-1.0883312208143117,-0.8549375050327596,-1.0362048140586395,-0.22859476581392896,3.306686003720305,1.130062496604254,3.1570808162066304
43,1.6571896918505713,0.03370695941337922,2.086146016831088,1.3762759617576268,-0.5785643142046828,-1.1123586804420997,-1.7840863261685613,-1.2392227849075506,-1.5942053922102126,-1.9428677821846847,-1.0970682761898896,3.0515548090732847,0.4683627481954024,2.0486453598302097
44,0.5110214842409346,-1.2848791572556972,1.3594782887956218,0.8142970857730251,-0.6786940987481609,-2.1117448367409053,-2.833593781123083,-1.2712658492569364,-2.1713183936733502,-2.616817833014005,-1.872047612597615,2.5587193061386726,-0.18478938181304103,0.751895321473415
45,-0.6846512499683194,-2.431565644326551,0.4940905294089542,0.1599708055278606,-0.7444444235079295,-2.900626555451219,-3.6423744903097,-1.1881193685606912,-2.5566393398875005,-3.006849712258967,-2.4884955671042,1.857948519308202,-0.780021934253804,-0.6142664635437325
46,-1.8273172787375251,-3.3016998443784504,-0.4249387748110798,-0.533953297878633,-0.7794530963091497,-3.424805728635105,-4.165710714026385,-1.0057125513814957,-2.7394059668163733,-3.0982006756782883,-2.900190190140497,0.9903491561981568,-1.2807238611957448,-1.9296059205831118
47,-2.826564487404177,-3.8260408045937107,-1.3128162598172024,-1.2099353375548918,-0.7871078274761834,-3.656864218674535,-4.389490292143667,-0.7490153887973466,-2.7244521330238944,-2.9105850950768146,-3.08201602185758,0.00807678354822222,-1.6641458809411493,-3.082877604281703
48,-3.6103028343928565,-3.975297437306501,-2.09197850803987,-1.8103903253804177,-0.7691319308063548,-3.5963511787354694,-4.327546569804422,-0.4480803856883981,-2.5282717605006284,-2.49209711093395,-3.029854010940969,-1.0262109649419209,-1.920381533133529,-3.9805029244550822
49,-4.1284488140864335,-3.7599566477480044,-2.6976905237928306,-2.282691123653636,-0.7248998850760864,-3.2674208107373635,-4.015928482120363,-0.13400216499071474,-2.175396392970699,-1.910310447697121,-2.7586388725895192,-2.0409497891527195,-2.049918574002195,-4.553211012913401
50,-4.354237997454018,-3.2258832813621097,-3.0820977310585524,-2.5840253164226614,-0.6516482613249824,-2.7144275306729324,-3.5052724004321334,0.16465777956007768,-1.6956630934478707,-1.2420783537518425,-2.2992137834252424,-2.958918372595115,-2.0605637277771076,-4.760430718609643
51,-4.283536425954735,-2.4465837749331723,-3.216676845601977,-2.6856403176204835,-0.5455482227024486,-1.9961355359899557,-2.8525894972045083,0.42460232978591256,-1.1224935008696462,-0.5634754033871804,-1.6945402961515372,-3.702374124433722,-1.9644861398138558,-4.592353379916662
52,-3.932631613219135,-1.5132956772870485,-3.0931436090616713,-2.5760023681146436,-0.40341771834922097,-1.1792634925159924,-2.1137242234893523,0.6294972963060814,-0.49192094028206573,0.05891191820042164,-0.995676373881538,-4.199837410229933,-1.7759361784793868,-4.0696843989160385
53,-3.335004972001049,-0.5241789970221249,-2.722952900276075,-2.2624506861485267,-0.22470816938992572,-0.33206450876650695,-1.3375040970286287,0.770621260112926,0.15811858492363218,0.5744793014248962,-0.2577746113524363,-4.393826085759032,-1.509929366020049,-3.2411860673575807
54,-2.5375353214667915,0.42615571481473996,-2.1355702488222916,-1.7710482365244506,-0.013325926081469715,0.4814520147428293,-0.5622320123135256,0.8465812812302815,0.7887373867549624,0.9523986297096243,0.4637774817578494,-4.248489242453862,-1.1819004608635821,-2.1791998523007914
55,-1.5964861238829784,1.255719972666717,-1.3757132740855993,-1.1445078707232839,0.22114345945205116,1.2061973346589387,0.1852687546989869,0.8622880377966123,1.3616344745289082,1.1825954473115685,1.117020509540096,-3.7559217688233053,-0.808088901073992,-0.9734360915938739
56,-0.573522250487797,1.9020220269018027,-0.4997721508831842,-0.43829147890798575,0.4631497549599188,1.7992965623653436,0.8882875282532293,0.8274146271395374,1.8412889857370527,1.2741088255908395,1.65682788201052,-2.9400008517454843,-0.40625928425247876,0.27656083875697196
57,0.4680855043097455,2.32625785312112,0.42836911507773656,0.28478551907337335,0.692015420765037,2.2318968751686987,1.5371377715173755,0.7545588633314486,2.197577094516899,1.2512768328052526,2.0479250861104803,-1.856866243164333,0.003687168501291288,1.469730325632904
58,1.466964902772435,2.514658752821239,1.3418704820358711,0.9608965902511041,0.8838843331052301,2.4895530771229453,2.125190191953716,0.6573082099108841,2.4083583449252495,1.1483647099323027,2.2673130666697494,-0.5916173996631425,0.39959393524153075,2.511932212183259
59,2.3667774560513983,2.477145421072906,2.175570530586895,1.5317870470552746,1.0145726594486388,2.571383097932143,2.6449535191232703,0.5483870550181215,2.4615025089507663,1.003367441752996,2.3058349400861187,0.7486602138064408,0.7576659004028977,3.3237640628928555
60,3.1189122232880626,2.2437031912591032,2.870436313953123,1.9508206231472631,1.0629463903445755,2.4882766646827594,3.085050553977647,0.4380569049260145,2.3559224155035206,0.8517824416736423,2.168648003805437,2.044895340793341,1.0538857343123624,3.8470307956975716
61,3.6846662579328116,1.8590891280760542,3.377540456848177,2.187748594093519,1.0143402572242208,2.260491291336302,3.428721897679642,0.33293740714035897,2.1014060912351966,0.721157067209339,1.8744686082323683,3.177974206222295,1.2661207851054141,4.049249961973082
62,4.03684540957621,1.376596645370793,3.6612963213844663,2.231604518971461,0.8634943826245491,1.9149807020000675,3.6541824551516466,0.23540530706006366,1.7173239486930727,0.6271510651207308,1.4536215943803,4.0412576171710155,1.376667737208021,3.9257772204821237
63,4.160737649981543,0.8516379182812164,3.7017329765190268,2.091363359125481,0.6165228672707002,1.4827702666413276,3.736811678272521,0.14369231626213627,1.2305338844991769,0.5716955084646996,0.9451035412497989,4.552200542001349,1.3748771712063315,3.4993931128462687
64,4.054440625378291,0.3358630201491385,3.4956707260375,1.7942953624881501,0.2915377162859845,0.99662361235477,3.652833493230412,0.052730901100774434,0.6729503385796948,0.5435712959477915,0.3930127520051349,4.661686639164078,1.2594381201877582,2.817460724697985
65,3.7285561325952785,-0.12757873930493177,3.0567490444066086,1.382244329979804,-0.0822819884447444,0.48914314150613714,3.383882467094698,-0.044309647125189464,0.07924905349595544,0.5213881089607654,-0.15722755865828053,4.359939472444395,1.0398926851035197,1.9470033284150545
66,3.205288099165022,-0.5072075769862874,2.414342537508013,0.9063187890232763,-0.4671833251769516,-0.008668379340453428,2.921690785604178,-0.15398270563904276,-0.5149516743418228,0.47855754122406047,-0.6624405428507882,3.6782506071640273,0.7370019578560357,0.968230866708186
67,2.51699648691961,-0.7846097703251573,1.6114655292421878,0.4206685786469579,-0.8206903408474927,-0.46846438080463054,2.2720835691442365,-0.28033168646814655,-1.0743271038476379,0.38948096710561564,-1.0847439248655526,2.6862280979339195,0.381699147202818,-0.03284927907258465
68,1.7042721322110164,-0.954106161854412,0.7018128377314928,-0.02388824546588156,-1.1004121692096305,-0.8653810750064294,1.4575433458546727,-0.4228717636905537,-1.5646670765157595,0.2358878449904612,-1.3939007586487604,1.4847707926911893,0.012539221681790873,-0.972062183228057
69,0.8136124173098368,-1.0209693901197732,-0.25387847465854124,-0.38562429554017535,-1.2692550902315034,-1.1788068776229332,0.5177907363601968,-0.5752229605604943,-1.9536738740022308,0.01213818186367725,-1.5689421849954808,0.19546830142984956,-0.328224195038402,-1.7742721186165915
70,-0.10520186143583261,-0.9986464462429219,-1.191927191752419,-0.6363714486563327,-1.3003950506579902,-1.393230300256136,-0.4918961690708884,-0.7247761175361807,-2.2122156078068698,-0.2716053042460289,-1.5991328056280345,-1.0524360233042118,-0.5995590883671056,-2.3795539067522777
71,-1.0019023461070413,-0.9055392376001705,-2.050015503075816,-0.7641872638299211,-1.181353973854106,-1.4992126903778464,-1.504577681740055,-0.8536271661746756,-2.3164083677511087,-0.5891176523071514,-1.4843869019965863,-2.1360569779066854,-0.7669730040774339,-2.7478099358912647
72,-1.828548720278308,-0.761894458423531,-2.7714334952581816,-0.7739324220825156,-0.9165926473692886,-1.4944102233522465,-2.447396649392186,-0.940795004206229,-2.2506068601536335,-0.9010567992542843,-1.2352225196500828,-2.9522340168741725,-0.8074795419527315,-2.861453848592397
73,-2.5421893805169713,-0.5872602558231178,-3.308979859514184,-0.6857333122319771,-0.5281820385381174,-1.3844473828762682,-3.2485333255658184,-0.9654809112484399,-2.0109709090363337,-1.160817711178299,-0.8722809259790668,-3.4286743983625954,-0.713429671602473,-2.725963400171722
74,-3.107183297308235,-0.3988019308716093,-3.6282457447368626,-0.5315666510251607,-0.05433128347550578,-1.183360122981776,-3.8445488857690875,-0.9108846129650826,-1.6088633563140007,-1.322419287123563,-0.42536785733400573,-3.531538693878598,-0.49452106940204593,-2.3683082451321655
75,-3.497010152300855,-0.21056586368737049,-3.710033305592194,-0.3504320968599514,0.45418825580738137,-0.9133110401234308,-4.187217981715056,-0.7679192548018815,-1.073061133424538,-1.3490870872519274,0.06808094931442717,-3.268549661516366,-0.17751960189217114,-1.8334570479644725
76,-3.6954326822350407,-0.0335797728050781,-3.5517040754428257,-0.18274406163896867,0.9394104029963595,-0.6033422379559925,-4.248987141596748,-0.538109444732696,-0.44973985523462817,-1.22095467052909,0.5652186262637846,-2.6872408087148254,0.19645625989709067,-1.1793408994220542
77,-3.6969380085003563,0.12348383569135798,-3.167317245743596,-0.06465527810869948,1.3427735435658004,-0.28706583594704893,-4.026340857288783,-0.2350366796192702,0.20052280720111745,-0.9403538633004751,1.0207517860354316,-1.8685519840084934,0.5768704610524319,-0.4707849097330209
78,-3.5064662711076218,0.25344474953438845,-2.58650650907418,-0.02301636429470478,1.6122050512434065,0.0006241518990607708,-3.5405966061575387,0.11608778419299612,0.8089160156544883,-0.5335165410525754,1.3906027086620065,-0.9165567273590588,0.9103434597042925,0.2269863606137495
79,-3.1385212779170804,0.3499176393234576,-1.852154806468954,-0.07158631826182058,1.7088392180627994,0.22753125155726614,-2.8359611718816162,0.4808228718165765,1.307196321945915,-0.04812296592026752,1.6360596021598484,0.054398877273344394,1.1479813472531135,0.8546119459598389
80,-2.61583082387634,0.4070584090961624,-1.0170474678666024,-0.20895534459437995,1.6125091500989903,0.36835298370178904,-1.9750287733740777,0.819606552987048,1.637853928785687,0.4531029044512715,1.7280227776028856,0.9335199749291995,1.252385429868486,1.3639648121947368
81,-1.9677646087739518,0.41988176116529013,-0.13979415353067143,-0.41844206237077225,1.325248714939657,0.4084896517435419,-1.0322392211552756,1.0929771815735179,1.763853967384336,0.9017852769098913,1.6508020819296712,1.6265850498374559,1.2032402413525634,1.7220315521627008
82,-1.2287112464855505,0.3851014766052652,0.719613383865521,-0.6700008686005646,0.8722378636682286,0.3468222320572128,-0.08608891094543573,1.267082499163812,1.6759963182963515,1.2347060369040983,1.404855173867721,2.066507384635514,1.0005429378869448,1.9128551419668165
83,-0.4365601394859069,0.3022862737933354,1.504211117611702,-0.9239425805629371,0.2999089647938542,0.19689008356353999,0.788946510450083,1.3185771112220377,1.3962046469840115,1.4041498556808885,1.0079146444290057,2.220123068511867,0.6648840830912409,1.9373399328698955
84,0.3686592774793132,0.17501928450446802,2.16406524194246,-1.1360544096361995,-0.3287244655021663,-0.01391460099998555,1.5297889764190014,1.2381048174991194,0.9757227661266245,1.3859477488015612,0.4941377632893899,2.0904330155346087,0.23466391931663838,1.8110308471931695
85,1.146034388308825,0.011720789883353216,2.6595604707994074,-1.2635262044889248,-0.9410910786740282,-0.2472425406121816,2.090555586375628,1.0318079084670557,0.4881322462785613,1.1837745936051265,-0.088805296692328,1.7141764433493791,-0.23935794415457184,1.560301735350751
86,1.8550613105452638,-0.1741553711525663,2.963765828829694,-1.270970409765289,-1.4636742578703639,-0.45855566043851337,2.4461291729082513,0.7206503695070302,0.018110156750822937,0.8289148740055388,-0.6844665022663405,1.1552659913596506,-0.7013273394548936,1.2176500153612573
87,2.457144007114142,-0.36472804431957434,3.0637752887783813,-1.1357815640764015,-1.8311905103054438,-0.6032306260550795,2.5931680446510494,0.3377137842118243,-0.35229664711229136,0.3755033159583318,-1.233643598752643,0.49516297349159055,-1.098218239041827,0.8169322115088791
88,2.9174356085546425,-0.5391259306028184,2.9610132134918397,-0.8521280104580171,-1.9951692773582423,-0.6432000486135305,2.5485690487401254,-0.07605280706152924,-0.5575732904380303,-0.10797716424982273,-1.6809457212605075,-0.17836764342167538,-1.3871604856199695,0.3893496934973091
89,3.2070537897079,-0.6756298809519299,2.6705657968441385,-0.4330036583938559,-1.9307767546405805,-0.5531785962624783,2.34572814310468,-0.4769357084313428,-0.5604051490697844,-0.5495337409104539,-1.9810621758023506,-0.782551752446082,-1.5410436233751548,-0.039194158458746305
90,3.305557097251279,-0.754259468376855,2.2196507334055777,0.090020036285158,-1.6408906545145996,-0.3255025662657896,2.029207213947548,-0.8236473257817758,-0.3590420241867696,-0.885057644428764,-2.1039307503776654,-1.2494786886406561,-1.5515781077292778,-0.4490557790204545
91,3.2034174779598112,-0.7594480404891385,1.6453711068289707,0.6694328121087658,-1.1567433735087997,0.02725613289063042,1.6485786191706213,-1.0819054866496085,0.011003766817187498,-1.0684207335635814,-2.0381494805584928,-1.5333762013459675,-1.4294277747628843,-0.8261911204141882
92,2.9041031659975824,-0.6824114821509957,0.9919183797999923,1.2466088388483978,-0.5348764028587848,0.4724632724778774,1.2522621485366976,-1.2278716649885493,0.48134633146844163,-1.078652142178661,-1.7922066505953704,-1.6145447681845488,-1.2015061232302446,-1.1602797367152908
93,2.4253294097491107,-0.5228404494663533,0.3073981642865669,1.7583172567708683,0.14936088423718283,0.9605531056563904,0.8820972974429648,-1.250144859832586,0.9606232997415525,-0.9230590054391661,-1.3933822160619624,-1.4997034337948163,-0.9059752953292056,-1.4422929439056995
94,1.7990668892988064,-0.2896305108845447,-0.35954167294866596,2.1441767105892273,0.8110448807863996,1.430836936008752,0.5692306989529021,-1.1502407279127773,1.3484369109789227,-0.6358113924250572,-0.8844629683318163,-1.2189817009784536,-0.585828145448193,-1.6622690917229603
95,1.0700268161311506,-0.0004955294314518083,-0.9630925322924687,2.3541479155948632,1.366503623408734,1.8192740968153263,0.3316793468104761,-0.9416833554250853,1.5512439997739387,-0.27222882354324734,-0.3186790965178714,-0.8201989150750834,-0.28211645536011537,-1.807989017253641
96,0.29255250595487015,0.3195343965987363,-1.463476381662354,2.355109411753402,1.7443185584100303,2.067145868100582,0.17369261751824805,-0.6479747206905231,1.4978076359347148,0.10032646083699093,0.24651828421170568,-0.36136245727640665,-0.027889691769265448,-1.8650184555793934
97,-0.47389749454979035,0.640571680879302,-1.8297366266214004,2.135639654046562,1.8950007794154848,2.1293861067011663,0.08681362396291581,-0.29977820417389933,1.1518911611812772,0.41352268296983447,0.7560825270875681,0.09753177085220935,0.15625835853538328,-1.8182554902343901
98,-1.1702399969543666,0.930991739359177,-2.041918630908124,1.7083265902471725,1.7979701435114814,1.981333397661856,0.052358980308340686,0.06833329350886558,0.5202698763867801,0.6093682384576266,1.1635953221471855,0.5023018590489312,0.264431887174733,-1.6547649850710107
99,-1.7436016667651044,1.1608259905530127,-2.092450200154974,1.1092212767312426,1.464802098866514,1.622883046748484,0.04491274234413369,0.42123928249168097,-0.345214146989603,0.6499843811279362,1.4363295095463253,0.8110101383414342,0.30522566425118086,-1.3673729148103893
100,-2.15276264237986,1.3050027507974058,-1.9865760871425144,0.39441060142486534,0.9382068875295478,1.0793988001242572,0.03637165413065439,0.7264645813833439,-1.352014777832962,0.5242888176837156,1.558528779667012,0.9982765040640812,0.29920579478176595,-0.9582883942082617
101,-2.3724774061293794,1.346043210370349,-1.741764551982099,-0.3659395450646333,0.2867961231393614,0.39922651809423104,7.820514286157581e-05,0.9569768447118502,-2.377249805359181,0.25049464230492186,1.5325036900746973,1.0570449534043234,0.2745534514546909,-0.4419521219546153
102,-2.396054148599947,1.2759123302096518,-1.3860827527821935,-1.0953787755004674,-0.403715883039642,-0.35184963719836637,-0.08538245353722301,1.0934115911804279,-3.282841084525667,-0.1260430845428524,1.3774265263939758,0.99773593003673,0.26160185388471136,0.15361314827794675
103,-2.235786356200482,1.0968564913998051,-0.9556274161628301,-1.7198591784947261,-1.0417217067626938,-1.0984359141571218,-0.23308531456341758,1.1255887018051147,-3.93353113151563,-0.5393927811252612,1.126014078460542,0.8450793811449631,0.2871394152952089,0.7874604734433099
104,-1.9211173365505938,0.8212008150185041,-0.491193995299543,-2.1762405187620844,-1.54183864495389,-1.7645664575700981,-0.44566106321330257,1.0532203370386226,-4.215460180712686,-0.9131013616513949,0.8195712323451715,0.6332323155448958,0.36936510510035464,1.4085729192252274
105,-1.4947405887786314,0.47019979218357144,-0.03446365867124713,-2.4195514484756733,-1.836292231930873,-2.282732608807641,-0.7143966770654068,0.8857502940317478,-4.052857737751156,-1.1722632109351763,0.5020869828745662,0.3999929260498184,0.5142666242066042,1.9607207999445087
106,-1.0071470082471732,0.0721153166512213,0.37592988432005764,-2.4280954083443027,-1.8840115209621415,-2.6017181596549452,-1.0196579024065213,0.6413183201934108,-3.420572964696208,-1.2557868841607982,0.21419714550922633,0.1810009849553169,0.7139664307210412,2.3887530222066955
107,-0.5103723881732808,-0.3402679239340687,0.7080389798212128,-2.2057618034055126,-1.6761877712242368,-2.692247453484214,-1.3326379745305605,0.34491346052089344,-2.3506189054558653,-1.1269681140946861,-0.012161562197154679,0.004755265614779869,0.947279532291778,2.645453484559757
108,-0.05183007427730506,-0.7324766774421435,0.9395258147200355,-1.7812633825831998,-1.237529251084701,-2.549779207558712,-1.6183113496882362,0.025863664284060027,-0.9315948033726733,-0.7806838316383363,-0.15768358551845107,-0.11089788000412396,1.1823974996837618,2.6979322667149748
109,0.33089733708974833,-1.0713285998683781,1.0595067324857357,-1.204422334067817,-0.623035320775924,-2.1941911619310464,-1.839341742702095,-0.28510780128039476,0.6992840916087724,-0.2459857737867724,-0.21768983631475047,-0.16040775322499487,1.3813067730399027,2.5325403310631622
110,0.6135948376253764,-1.3278538800000388,1.0690730454876698,-0.5400121151225282,0.08927023470208853,-1.6665367247384335,-1.9605719391316807,-0.5589621169172365,2.370867234216296,0.41646785393683705,-0.2019326691732025,-0.15018999390834997,1.5053102952496566,2.1575000108007703
111,0.7868567880500074,-1.4799430065525925,0.9804182205543713,0.14002942647170877,0.8086515719273583,-1.023445841357658,-1.953621037324116,-0.7712298429207323,3.8978535768134144,1.1219409831276452,-0.13226095993457032,-0.09650488271660772,1.5208788153663957,1.6027945343279844
112,0.855370427565961,-1.514487001719802,0.814699793824276,0.7650118576013499,1.4436093815939712,-0.3300275202941484,-1.8010484748618545,-0.9043783517602071,5.103307606187083,1.7731491794678829,-0.0384973808419325,-0.02196355364757749,1.40502251904737,0.9172883465418498
113,0.8353336631969469,-1.4287749761911746,0.598948182558458,1.273477093415186,1.9138402169567401,0.3477275821082901,-1.4995332973362465,-0.9493930887396296,5.841044895765135,2.274186548654206,0.046856118654378213,0.04874689382191298,1.1494386535714942,0.1634706280621067
114,0.7505779603912072,-1.2309488232474048,0.3624665332940189,1.6197949374591984,2.16059262321197,0.9500587852172586,-1.061580374154887,-0.9063989025608808,6.014901047812432,2.54481343370746,0.09427763056380829,0.09324239676925543,0.7628406230056504,-0.5894513697073576
115,0.6281201713666467,-0.9393937090673786,0.13322258390688083,1.7786147143970652,2.1540420689633613,1.429225839602359,-0.5154095233351345,-0.784268813780451,5.592180698252924,2.5329264349603866,0.08236061898850648,0.09525546701876139,0.27109269142845993,-1.2731842392622699
116,0.4938808582772204,-0.5810572784947301,-0.06528995867229752,1.7467147549242314,1.8967312030816783,1.7533972217102847,0.09710360836587555,-0.5992935237276261,4.609264132976816,2.223229624646711,0.0015929056677200808,0.047314923406634145,-0.28495370946618503,-1.8277295880530642
117,0.3691961902221462,-0.18882245829969255,-0.21633725328091982,1.5421348622755995,1.4226720016172043,1.9083678910014368,0.7243135961230489,-0.3730959923031304,3.168359524970337,1.6406551554586355,-0.1438531206494967,-0.048094153640006555,-0.8537263213409545,-2.2076188949251874
118,0.2685495240774119,0.20181099574009695,-0.31114139567501004,1.2008202455883272,0.7923026232965958,1.8971559535314348,1.3101412364311131,-0.13005885891245142,1.4256004141695466,0.8478698424357032,-0.33663587547682905,-0.17903895344777088,-1.378816697182354,-2.3862929487565423
119,0.19870044858607633,0.5563719004963665,-0.348923927412848,0.7713041239868678,0.08405193196234106,1.7377990438546536,1.8002600947944796,0.10541857771985383,-0.42807295425236397,-0.06287399321572917,-0.5490044749911109,-0.3262071660670985,-1.8057631116476562,-2.358180196544635
120,0.15914066064293012,0.8449580776859882,-0.33590802215595117,0.3081754520466703,-0.6162852713131779,1.4598567765345694,2.1483784863347073,0.3115071238430878,-2.190734870264742,-0.982381853701613,-0.7473657261547763,-0.46618524213910867,-2.088860761478015,-2.138332635783297
121,0.1436032317296051,1.0452328423414758,-0.28353502409737574,-0.1348032998832706,-1.2268768246634107,1.1002059437070626,2.32180009483334,0.47108271616147696,-3.674750486373035,-1.7997595728503433,-0.8979087613560042,-0.5754071738800949,-2.197083547171713,-1.759781534359526
122,0.14222781980173363,1.1445027631405373,-0.20624038363291422,-0.5110533088083667,-1.6803217284641883,0.6986934546869122,2.305496158702476,0.573183822803144,-4.729998338030384,-2.417924378438003,-0.9723453868719515,-0.6341247753160382,-2.118279194428837,-1.2690395248386788
123,0.14394915479537201,1.1406318431798206,-0.11915462803534248,-0.7862321439820411,-1.9318329457865444,0.29411275913279966,2.1040878110499364,0.6136633755622456,-5.261800166986116,-2.766997602513362,-0.9527899357536045,-0.6297424544143997,-1.86100389506598,-0.7203702447548713
124,0.1387162095702628,1.041718129761915,-0.036050652942646186,-0.9413941923869229,-1.9640497427803705,-0.07916836952540332,1.7414065517497717,0.595018465678127,-5.241090162821669,-2.8135307871179966,-0.8349385154122871,-0.5589603170971948,-1.4536749362862385,-0.16955169231992911
125,0.11923904444741533,0.8646336868816403,0.032230297319474716,-0.9739394796245233,-1.787895716702171,-0.39373747714675045,1.2576399684981576,0.525487880564132,-4.705510584725762,-2.5641945855070114,-0.6289947405690652,-0.4283666808964609,-0.941095485792301,0.33213095316328417
126,0.08207309933568623,0.6326734769249385,0.07874678772197244,-0.8963458174899561,-1.439489062221174,-0.6307435047655825,0.7044237001138386,0.41759367390698793,-3.751477720637137,-2.0634619528524736,-0.35817947813701384,-0.2533838641552546,-0.3787887987343564,0.7430017151290286
127,0.02796557569257094,0.372651657938848,0.10078919147921232,-0.732995137147038,-0.9737023916924353,-0.7805774992185126,0.13854519961127626,0.28635533673770375,-2.518606905451379,-1.3857924268079234,-0.05508777940831793,-0.05575737446925653,0.17408547182704087,1.0346950122270588
