,AF3,F7,F3,FC5,T7,P7,O1,O2,P8,T8,FC6,F4,F8,AF4
0,0.15763921918145554,-0.3919647475972904,-0.047181372715933284,-0.1760923628131449,-0.027910833094430137,-0.2691142407001643,-0.09569803507446882,-0.15171002629564095,-0.14254618565443417,0.3166056808956012,0.008733418718187573,0.16984593488656888,0.24080760048749056,0.03945862342347161
1,1.1216266904297556,0.4668851306515289,0.12070000505486604,0.37997332427169034,0.648662180859073,0.6979796709934811,0.5688204378041065,0.6007568476483535,4.268540968143613,4.12490957133455,1.8102748265307989,1.1639178365673934,2.0900953469827077,1.5115376870886061
2,2.024640288723015,1.274819334495157,0.2771635366494633,0.8954714012383396,1.2380529316063484,1.5404279912602248,1.1282479919271282,1.2826618913266676,8.200493668858954,7.525062088038119,3.4629064953608886,2.1186538543156033,3.773520419907435,2.939290922249246
3,2.7748370115233856,1.9502221972504543,0.3813620464358229,1.299556360784632,1.6750875242544305,2.155596950641916,1.5002018604846805,1.8240362100917267,11.270587556419105,10.226204352250601,4.859485477058033,2.9724964651050847,5.170686212426001,4.233649081926428
4,3.2912879071139955,2.425908756457927,0.39764298714064816,1.5348211425353862,1.9140867362233454,2.4726618835818814,1.629834137245981,2.169651591580957,13.195478594651957,12.01016377164022,5.914554772706153,3.6632539443460295,6.184976988610521,5.302844035134424
5,3.5131459054506022,2.656189817865202,0.30110853166939366,1.5647561040571023,1.93445298824875,2.461529279828926,1.4975923184010003,2.284782516912988,13.820522248168906,12.750921845292954,6.568658629819922,4.132118018237102,6.7499347660279,6.058101111545797
6,3.4069834826091436,2.6214312394290045,0.08196946280858755,1.3785481868222667,1.7428940652464453,2.136055292406124,1.1217260319615818,2.1588151817950676,13.133631800164117,12.42424340241184,6.790668722346812,4.328805319650126,6.833184167545855,6.42137403754222
7,2.9714377020868206,2.3296661942106027,-0.25188854780625997,0.9926422499426869,1.372007626950713,1.5511943530178487,0.5552544657594835,1.806330843158278,11.262284356645354,11.106643646806443,6.578235353223858,4.217408897835516,6.437784674351654,6.33447519806989
8,2.238598207166181,1.8151837972011036,-0.6744880306686838,0.4489148598168229,0.8754605440934332,0.7945878502307551,-0.12202668811394425,1.265566698514413,8.454378492224444,8.96400404004373,5.956553769857024,3.782275950207929,5.601066043750275,5.768476111688855
9,1.2719105607769863,1.134358288962415,-1.143612278919149,-0.19026308077362683,0.32046796209156075,-0.026111040705164217,-0.8151783264716996,0.5944331481725335,5.045625274956221,6.231246548943602,4.9756625356252275,3.0330187077688024,4.391133007609782,4.731896896227607
10,0.16071104844994946,0.3592642389518175,-1.604806042086717,-0.849428587018728,-0.22135778031061645,-0.7983019055679079,-1.4275718229273306,-0.13549075378780806,1.4177652990058311,3.185430314450738,3.7064899478071607,2.00767419379402,2.9013196642191925,3.2760621454603918
11,-0.9881625178422692,-0.4301761100212785,-1.997175806205557,-1.4489740532444126,-0.6835097016499094,-1.4197303859106047,-1.874160261196278,-0.8463750361450504,-2.0470483880321884,0.11534695320222357,2.235863446006413,0.7731028985981635,1.2429575385271339,1.4961433087218934
12,-2.0609429017333025,-1.154655630268081,-2.260438484015597,-1.9145677973570077,-1.0131372609973657,-1.811890629260995,-2.092703632784003,-1.4622408883461673,-5.010001586517323,-2.70892277762038,0.6607177460773835,-0.5780220294038437,-0.4630828766984713,-0.4731430316301094
13,-2.9486979157763167,-1.743673454083676,-2.342499439508253,-2.185951348263073,-1.177502427217267,-1.9297637101000447,-2.051496375785535,-1.9169617105662005,-7.212169787232222,-5.063026657895713,-0.9182126082854082,-1.9338496144729995,-2.0955054693798045,-2.4674938109518396
14,-3.5591129344194106,-2.142628758810159,-2.206721463929367,-2.224113560017111,-1.167512872526589,-1.766699526580002,-1.7527325211885993,-2.1613758595937114,-8.499573820198616,-6.788876277626328,-2.4028606077677535,-3.17327419560778,-3.5416775829880005,-4.308062064002361
15,-3.827023783606,-2.318118042798377,-1.8379964226938996,-2.01604186982094,-0.9979286600776008,-1.3539634115997243,-1.23129434871435,-2.168773335493474,-8.8340283204394,-7.8064378712500035,-3.704031881820211,-4.17823536113928,-4.705948923971593,-5.8201062837064645
16,-3.7224577905337877,-2.26092273025767,-1.2467746443607435,-1.576531810788121,-0.7043105630269862,-0.7552070050940377,-0.5493647428242165,-1.938128155293535,-8.288994075038703,-8.115623073971808,-4.746893518853524,-4.846988822597086,-5.516465900566056,-6.853016115143933
17,-3.2551074201695234,-1.986404847789136,-0.4703594566004746,-0.9468663940146802,-0.33723037395862704,-0.056789488891508706,0.212231427363474,-1.4946306776889051,-7.031652989624954,-7.788412660163587,-5.47532122323575,-5.106628387455717,-5.929858001370901,-7.299031641930884
18,-2.4744746924810115,-1.532285710117317,0.4289654389531391,-0.19052003241917784,0.04536799957042807,0.6446052852084236,0.9646978787775544,-0.8873326414206028,-5.29423742164045,-6.952644714658967,-5.854776482613204,-4.923075433401909,-5.933379300692274,-7.107922439193584
19,-1.4653695641566933,-0.9540452065925819,1.3690586303324133,0.6136399318918739,0.38653445104379053,1.2552936482684274,1.6225080768034377,-0.1840346231196218,-3.3390017102452925,-5.770015089868068,-5.873538059191875,-4.306966622555893,-5.544363404193016,-6.295277265349042
20,-0.33898467665511633,-0.31842625663134133,2.2559721908229577,1.3799185327546826,0.6382151323836591,1.6970194389340265,2.1137715241906383,0.5361166100336786,-1.4219226195422399,-4.411596205033928,-5.542293080677963,-3.3143450659287867,-4.807152905398798,-4.9428393718042765
21,0.7796532703799185,0.30426116064120934,2.994196835433567,2.0252057214319543,0.767603262441303,1.9168160447549982,2.388448432631046,1.191543225051537,0.23984107224570012,-3.0344537275027457,-4.892268607717287,-2.041735224132546,-3.787947385962456,-3.1904021245904293
22,1.7665111380597966,0.8481917250122781,3.497998306997111,2.4782246649066355,0.7611041648342629,1.8930329212249581,2.423455836907202,1.7076523991195613,1.4924858973633919,-1.7626759089763144,-3.9722215391670908,-0.6159644926039197,-2.568232403044655,-1.2199982632907516
23,2.513885800543185,1.2595190929155733,3.702475857995793,2.687610780287961,0.6254462125206386,1.636824783400523,2.224140380629666,2.0256257920251652,2.2592272886175833,-0.6753574113440773,-2.844676223119817,0.8201314533370531,-1.2375708618808545,0.7657133526544425
24,2.9442558257394382,1.5024304994245743,3.572864195887143,2.6279217573252796,0.38589068789463665,1.1890623627575818,1.8220850566720874,2.1094848141865605,2.5419489678657063,0.1970873362366633,-1.5817910342907875,2.1243400659716367,0.11346199949827501,2.5680276737374714
25,3.0206964881626246,1.563015587862046,3.1106890246153895,2.3028770052418244,0.08190634379851705,0.6132817840608552,1.2697058506386028,1.9505159121789157,2.411508107760124,0.8682798612540769,-0.2611541171681165,3.1718580110205967,1.3995358920203127,4.016372349715829
26,2.7522370095674242,1.450436210993708,2.355686477551509,1.7454017476755705,-0.238982506183794,-0.014155385240739744,0.6325105558134606,1.5684528440871035,1.988978950207807,1.384251003950093,1.0383146027124703,3.86995966888989,2.5455566941227,4.988686716347988
27,2.193137935817737,1.195192009310117,1.3828881934213257,1.0143837752484195,-0.5282392967833629,-0.6151553518814589,-0.019825627326038087,1.009215280862764,1.421299616489861,1.8072771443034565,2.2402984811849933,4.168523238186111,3.4901803613389286,5.425092378791366
28,1.4358700269031326,0.8446300458746715,0.29490533942444497,0.18841019656974317,-0.7432307004153488,-1.1205831365370102,-0.6223030346640199,0.3394433931890387,0.8553861460533216,2.1982855374604062,3.274877182340746,4.064947812320257,4.18787525665853,5.332896602622253
29,0.5984805565152546,0.45620701112656176,-0.789864711107312,-0.6428981246751833,-0.8530560573037639,-1.4790301979209433,-1.1221651575415537,-0.361512281404815,0.4147365087912924,2.6010565149900886,4.082208393413925,3.6027850380435518,4.60974211295252,4.7822403870126475
30,-0.19209473947002098,0.08933275789302451,-1.7517407378149865,-1.3890345000589823,-0.8425237207909481,-1.66249334894358,-1.4842318897067415,-1.011149804564288,0.18189987482610853,3.031020599604565,4.616065223278082,2.8643113861529863,4.743401943588306,3.8930991464549654
31,-0.8185170343744862,-0.2031427423517242,-2.485109899902505,-1.9690999091758288,-0.7137985049318655,-1.6683142347275295,-1.6934009866191981,-1.533726963248876,0.18905508224677278,3.470548721450852,4.847075991002429,1.9581424738368354,4.592271686409475,2.8156470826712785
32,-1.190668460703301,-0.38262835470472695,-2.9125220270758083,-2.3214051016047024,-0.4855905748520898,-1.517317306214103,-1.754154343987155,-1.8692908231022072,0.41752537169822085,3.8714262049644104,4.765375484693283,1.0037050830803933,4.17447767528536,1.7070027719465324
33,-1.2597371129418953,-0.43054828791681216,-2.9954683064776013,-2.4109844933575624,-0.1901027673743412,-1.248653730336944,-1.6873471191015121,-1.9807179307401046,0.805596790757426,4.16390182868861,4.38227043678918,0.1148260210008662,3.521537655318787,0.7079212980684793
34,-1.0264811577394486,-0.3512348765189195,-2.740153359929395,-2.2340179781549407,0.1317511091366845,-0.9123229781114337,-1.524941725320459,-1.8579229315626449,1.2627447063414288,4.2705396158875075,3.730487669127544,-0.6151997222951455,2.676810247528094,-0.07701075351174605
35,-0.5421701921267548,-0.17140276633847318,-2.1972226336032072,-1.8184973269236981,0.43613719107578836,-0.5606387078712379,-1.30362094265704,-1.5187590620605511,1.687497221488154,4.122270054984673,2.8626353525949346,-1.124954229853216,1.6936031297153196,-0.5926993344005747
36,0.09823196973405396,0.06386059523760894,-1.4552620475930917,-1.2209324019227015,0.6822821807521388,-0.2399971148503745,-1.0583380571489063,-1.0065497452425198,1.9857886035625314,3.673674355623095,1.8476735208905386,-1.3911234779038555,0.6327780600672742,-0.8384677809276103
37,0.7698848054011849,0.29811055746184245,-0.6288139686921935,-0.5194121217884106,0.8378365476233881,0.015808476622744292,-0.8168223456733557,-0.38460139593422554,2.0868054659372643,2.914696530415158,0.7654488414492491,-1.4288767653326893,-0.44028772102939057,-0.8640263104619584
38,1.337003590435805,0.4725881761819902,0.15750010269048983,0.19616223271915986,0.8829313883277441,0.18977872180254032,-0.595864555211563,0.27159955056242935,1.953946364242623,1.8766334536006573,-0.30033196151107716,-1.2865654400683293,-1.4594227353339722,-0.7573582099990063
39,1.6741567442698249,0.5359483041362645,0.7865392266779152,0.835450697608677,0.8124468373774941,0.2828860782751095,-0.39989191448168565,0.8835494393039756,1.5894745741930072,0.6312850756206008,-1.2699919058384592,-1.035746370193395,-2.361936816560961,-0.6266487708485217
40,1.6867296066908366,0.4531784231330109,1.1653866068658885,1.319196375515362,0.6362750201927634,0.312213784771,-0.22195812353277944,1.3791626806622213,1.032566818975426,-0.7166357158453108,-2.075683302378476,-0.7581866745724575,-3.0931259631164925,-0.5792662687638706
41,1.3274074798239015,0.21230448547528058,1.2388717036028642,1.5893973458933264,0.377642303372078,0.3065056679921324,-0.04688439426827426,1.701382236130454,0.35155029192900833,-2.042561458673905,-2.668028585839848,-0.5318822140627333,-3.6105103506606087,-0.7011939186794259
42,0.6060774738314918,-0.17220189412965858,0.9979204493634846,1.616793124646465,0.06980960836144695,0.2999551585198868,0.14404544603388975,1.8149675448698894,-0.36800454890193934,-3.2184150856057485,-3.020607999091574,-0.4181873587669204,-3.8872226351111836,-1.0401708406417662
43,-0.4084986903685044,-0.6599125283935616,0.4815211241462729,1.4046683755410545,-0.24834027377831985,0.3252896763795013,0.36766274741218674,1.710657614072948,-1.0371397547678312,-4.129572703101496,-3.131571557129952,-0.4519200785600978,-3.9140046522736687,-1.5951757279452488
44,-1.5956859491283097,-1.18885171356143,-0.22800561511013762,0.9884446158388637,-0.5372137873342695,0.4072612300352296,0.6336924658917201,1.4061850084375909,-1.5769994097047637,-4.689778463854475,-3.022086515908287,-0.6358267265742817,-3.6994495687123123,-2.3138943032623738
45,-2.7978320068258915,-1.6832800391131337,-1.0158166012270506,0.4310684454456473,-0.7612853557297249,0.5575427099527956,0.9406254684648049,0.9439596117601832,-1.9299096587719622,-4.8518069424077686,-2.7318518406578502,-0.9401435872009164,-3.26841205572321,-3.0986081345457595
46,-3.841020570697984,-2.0638246580313453,-1.7499951751363194,-0.18525345117643616,-0.893178436067851,0.7717828294752221,1.2734197546794315,0.3856251859243335,-2.0665769384795536,-4.612470071811948,-2.3124156031941054,-1.3072667716185504,-2.658833478203933,-3.8197008430143193
47,-4.55891051892088,-2.258591971352905,-2.299582439855213,-0.7699419228980325,-0.916613110207333,1.0292392999387525,1.603510028775138,-0.1959156973369871,-1.988666301896792,-4.011537707069017,-1.8194123444276444,-1.6608280073421844,-1.9175095955390096,-4.334865860022688
48,-4.81639426176497,-2.213750001680819,-2.5527996932046224,-1.2361659275927552,-0.8279538680564414,1.2950437304297093,1.8912869202985447,-0.7260556010571748,-1.7267764792448193,-3.125100144817939,-1.3050096448513642,-1.9178570810478281,-1.0954946635052472,-4.511263674417471
49,-4.529804955987232,-1.9021227168194916,-2.433053911575703,-1.5126175240461326,-0.6362739818437163,1.5247994180792277,2.09086206060534,-1.1383945327361693,-1.334483310227943,-2.054687118274431,-0.8117762506551178,-2.002270079316604,-0.2438500731081336,-4.247424395914114
50,-3.6808422455745653,-1.3285887205451559,-1.910613251965557,-1.553374753045855,-0.362024527202387,1.6709079379885834,2.1565956830020085,-1.3836670886616733,-0.8795945504898967,-0.9139581477889083,-0.3688741775423022,-1.8577170145851734,0.5896926285296067,-3.4916811237246805
51,-2.3222057121081936,-0.5314882718357914,-1.0084052207719352,-1.3445054150126423,-0.03453796867795887,1.689786562350804,2.0505617035478996,-1.4364045399866847,-0.43400585394393304,0.18505756734920045,0.008998627602834597,-1.4578857060186656,1.3628414753426794,-2.2543519659062268
52,-0.5740152378136927,0.42023989294119746,0.19884700667133526,-0.9064713488123519,0.31130274437901395,1.5489977501230927,1.7498985148444972,-1.2983162541467081,-0.06357346394097693,1.1443523881755704,0.3200297747626278,-0.8126886873625521,2.0396285313566187,-0.6117088951813153
53,1.3886839083700826,1.4339162489039134,1.5920744480714444,-0.29193907027110644,0.6388419527345897,1.233284357600946,1.2528846158048441,-0.9978166903778872,0.18073626021077346,1.889551621648252,0.5716878638337479,0.030681645800884262,2.5903669584010913,1.299124348702753
54,3.355845339754618,2.403179060300509,3.0209802621370225,0.42078169865838855,0.9134738460551192,0.7486033476765428,0.582627233089483,-0.5856838167627688,0.2694367365056887,2.3758839091959163,0.776049186268497,0.9921275702541702,2.9911797924957773,3.293957852494762
55,5.107288394970973,3.220035397946977,4.321195508021473,1.1378491614150117,1.1061302084218843,0.12347723744719805,-0.2125158250264121,-0.12742557920261705,0.19820146746086284,2.5902261011141547,0.9451427421060613,1.967968211067904,3.2236514670615026,5.162395354545452
56,6.439342587931506,3.7874369809595168,5.333353083036577,1.7622275297355077,1.1961073277813972,-0.5926803758260928,-1.0622496745524912,0.30654549599239844,-0.011670692983730642,2.549445859592645,1.087291728686162,2.843995448708258,3.2750413924210955,6.693130432397334
57,7.189845337239691,4.030841797550233,5.921754670278382,2.206604194684811,1.1729848022392355,-1.3341982937065024,-1.8813107548390693,0.6514658717218708,-0.31598645956366744,2.2956451554095088,1.2051174219736251,3.5104783120930154,3.1392555770564736,7.700359930471935
58,7.258268313692998,3.907346581909652,5.9904046451769295,2.4051386086867943,1.0374853755965698,-2.026247212532784,-2.579402128371421,0.8579013882509811,-0.6532718974314171,1.8891413652197788,1.2954360018660702,3.8770127135696195,2.818464906117186,8.047772362508278
59,6.6183819204006165,3.4112776230224755,5.494564516200244,2.3224392563637095,0.8012291609154644,-2.593540804774242,-3.0728490416464282,0.8990666254310175,-0.9526946130632353,1.4001221789696066,1.350824107344336,3.8851029855481283,2.324968903394417,7.666846624242231
60,5.321851405107123,2.5755680629735678,4.446578001237264,1.9585345523494473,0.4854377880850373,-2.9695212218477587,-3.296329937624508,0.7746441411724606,-1.1434940357078585,0.8999067438126563,1.3622603387850982,3.5166657248556032,1.6827080571420492,6.566941883588447
61,3.492359859564353,1.468771429196146,2.9154417481696706,1.3491497344567311,0.11873679740262784,-3.1048188597600066,-3.2128875436508544,0.5104990513369553,-1.1649317373341124,0.4526772559359933,1.322052663325952,2.7972260307009136,0.9277830088360848,4.835772571343295
62,1.3111079771948637,0.18809609578091427,1.0203503598810126,0.5612506754731591,-0.26571663283431407,-2.973854755069526,-2.820564767580925,0.15432696999321893,-0.9756356179859472,0.10844608195215527,1.2262765465751402,1.7933498028760626,0.10746779674821713,2.630186589916105
63,-1.0043312205950221,-1.1506760719363143,-1.08087355775435,-0.3155245050862112,-0.6334928304075754,-2.578689838247998,-2.1544347720353074,-0.23207657038042862,-0.561151255374145,-0.10209317797212347,1.0761575957777287,0.6047048244150217,-0.7225168235493075,0.15850376151565834
64,-3.224988029325851,-2.4251647574734467,-3.2070307769736166,-1.1803510894819902,-0.9522107564001986,-1.9495841822839362,-1.2834508122688058,-0.5826880129624125,0.061428125555872876,-0.17032631310301571,0.8781652970394656,-0.6480715719132799,-1.5023426818725825,-2.343182230486832
65,-5.136063565028827,-3.5188460368919077,-5.170739458241614,-1.93402511060352,-1.194589183220106,-1.1421616122765688,-0.30233377390370764,-0.8376800577009845,0.8426658786514307,-0.10977787235276362,0.642943883405816,-1.8379319818317235,-2.173544205780605,-4.6375600962058305
66,-6.559893166013677,-4.332571822669114,-6.795763902703785,-2.4913333758273453,-1.340923110487356,-0.23151987446902692,0.680483649775266,-0.952720935539791,1.7043414906341585,0.04659152805903443,0.3834975034756503,-2.846344467482918,-2.6848720256875276,-6.512047731087848
67,-7.3735988978586855,-4.793921869576754,-7.93281736849435,-2.7913279589560136,-1.3807412539883808,0.6959800722424839,1.557165430817614,-0.9056679655024625,2.547335826985626,0.25160184016100184,0.11319877482673928,-3.57656465440148,-2.997665536605154,-7.80088967775308
68,-7.519571092067171,-4.863488231713058,-8.472492441524379,-2.8041933131267056,-1.3134891622065226,1.5522262648664298,2.2349213033355295,-0.6996263292359842,3.263163779993953,0.4509976125910726,-0.155829034688691,-3.963593889291254,-3.089935391172091,-8.400854878944138
69,-7.007978041752146,-4.537612905077074,-8.354385902363855,-2.5339222444099394,-1.1481896327296968,2.2570088503455574,2.6483962074369276,-0.3619698620991373,3.74783390908671,0.591618443843371,-0.4135781142106196,-3.9797612283693438,-2.9585626966301204,-8.279003601719051
70,-5.91159940588588,-3.8475381199816243,-7.571924657502466,-2.0166327770898325,-0.9021447832269226,2.7466683916662573,2.7680740854137547,0.06039538101559686,3.916208367412769,0.6294752286804924,-0.6521560063245477,-3.6355828259908622,-2.6193465562184755,-7.472159805528729
71,-4.354242794184851,-2.8553201228488727,-6.172801687179526,-1.3149606708119228,-0.5988490411360246,2.9807500597413434,2.603373439139491,0.5086276680407582,3.7147864578042884,0.5365517412664139,-0.8650767063541823,-2.976249228855343,-2.1049888492990996,-6.078846839585447
72,-2.4947019606424976,-1.6471555028501166,-4.2552550309819095,-0.5094653132502472,-0.26536815107055334,2.9459379206066276,2.1999480144334207,0.9210689830065558,3.1309194066006,0.3052872887483513,-1.0462054988270377,-2.074650350877868,-1.4614146406673212,-4.245349028860003
73,-0.5085719019831478,-0.32495246273595424,-1.9606545149660857,0.3116725311053747,0.07050311388789589,2.656872115963142,1.6316317953968609,1.24235834067423,2.196896755339624,-0.04997609624957822,-1.1888098925225583,-1.0221913507905687,-0.7430274081111483,-2.1481281380747834
74,1.4297654753886817,1.0029527514943908,0.5369903062599154,1.0632401912370337,0.3829702749828435,2.1538078468698973,0.9883256685410842,1.431091837424877,0.988071028793014,-0.4948262367176003,-1.2851277774477998,0.08124766672380021,-0.007563829751817586,0.02499983639654187
75,3.1629914708068267,2.231066982008534,3.0438971081456794,1.6725125700500325,0.6505412864756903,1.4974293670644108,0.36177280707826914,1.4649111222820683,-0.38490982570269455,-0.9796044309385216,-1.3267083168193006,1.1369786851458024,0.6888473263739396,2.092712036589949
76,4.563097319110936,3.2652408142293186,5.360987610986937,2.0865916318584197,0.8576509211552021,0.7614575964713466,-0.16849265483444578,1.3424052107736433,-1.788770425542029,-1.4464397333218524,-1.305554861310959,2.0558585715809197,1.2959687830140425,3.895306926430612
77,5.53926658406183,4.029797667282285,7.299152120800751,2.276836765083649,0.9954602552858447,0.023954035167389965,-0.5467697770373606,1.081784379202294,-3.0834100225907224,-1.8373585629480953,-1.2158613582667854,2.764760795388813,1.7728222274234828,5.30600556092112
78,6.041313140493598,4.472866124699154,8.694409628815965,2.2401040437397524,1.0618136511140712,-0.6416116222318469,-0.7485339836616787,0.7168181544989046,-4.138590375794526,-2.1021838442624565,-1.0559437762042634,3.2109750846304452,2.0900689950689864,6.2379878558325155
79,6.059165044486719,4.5696595414153744,9.421983355431912,1.9969529129800478,1.060465918509772,-1.1744317166282763,-0.7823566789518908,0.29092905396327795,-4.84916179870166,-2.2050199169569438,-0.829873229861526,3.3646473278077917,2.23146890902314,6.647310693728081
80,5.619261400796779,4.323592182754071,9.408219637385903,1.5873472049680168,0.9997924928703613,-1.5325895700756058,-0.6861680835186164,-0.14945723810008593,-5.146773839821086,-2.1284148238885336,-0.5483435790164759,3.2195517838615384,2.1945379435132715,6.532268818486044
81,4.778877434126009,3.7652382160462485,8.63921878023534,1.0646278903119546,0.8912419022852915,-1.6967263547189015,-0.5185861742152517,-0.5612015120210437,-5.0066339997236255,-1.874735969204936,-0.2284508759589837,2.7925276120480262,1.9905006419717348,5.9299649725751085
82,3.619329303964263,2.94923797429289,7.165074029526355,0.48864848570708447,0.7477767112367774,-1.6707831219191498,-0.34687327665927453,-0.9094578556128465,-4.448687475787035,-1.4647946092911432,0.10770694160575675,2.1218342963812353,1.6435541449502435,4.910865259007579
83,2.2387958269428205,1.9493525582830236,5.098786518452947,-0.08105247483997388,0.5824904987966255,-1.479856415017989,-0.23365529642017027,-1.1707897628871942,-3.533436679952309,-0.9342079071550173,0.43543895138582583,1.264540572780596,1.1893714284126502,3.571984268345229
84,0.7452177328812659,0.8519810583486969,2.609282163330095,-0.5912878932225326,0.4075109488572395,-1.1655894356868812,-0.22474343268953015,-1.3341677378885812,-2.3533525832580033,-0.32830677057660124,0.7304765920769016,0.2929304567217293,0.6727218469331699,2.0291547503907195
85,-0.7505140419692004,-0.25140760215090285,-0.09149235476155569,-0.9999029136912895,0.23322947373840608,-0.7798307672025283,-0.34019603227548145,-1.3999938683783566,-1.021339797838809,0.30347086649599586,0.97204969852847,-0.7101471679195929,0.14411759854197131,0.4086750131370827
86,-2.141029717376657,-1.2723268686574034,-2.766717924899943,-1.278760154212227,0.06785100454517819,-0.3774857845544707,-0.5701833542198335,-1.3776030844718525,0.34205147440014094,0.9128248342623647,1.1454528597289229,-1.6570072845956656,-0.3444808931996929,-1.1614450349164231
87,-3.328611943423346,-2.133082003424122,-5.176667114304148,-1.4149207924344358,-0.0827665130586715,-0.009538661655855894,-0.8763714194841782,-1.2818840763961834,1.6210188845333204,1.456816715329058,1.2436260503793002,-2.4618036314769656,-0.7446713331378438,-2.5603847033119176
88,-4.230944449282054,-2.7735537873874474,-7.102378744147143,-1.4101274659692216,-0.2150247125016716,0.2828644330616943,-1.1985722535207608,-1.129727671624901,2.715132660243103,1.900716662530153,1.2674608147177127,-3.0478019045651945,-1.0168811927790975,-3.683192905981222
89,-4.786330510997778,-3.1562223046196944,-8.368467726127562,-1.2788728001138485,-0.32730018061153315,0.4725859792386398,-1.4654882433866254,-0.9369521723362239,3.5472405677466092,2.219427487767796,1.2247843003098902,-3.354683211674912,-1.1352813175208198,-4.448739919960353
90,-4.958104646391322,-3.2688613935454454,-8.862340802542017,-1.0454619207508848,-0.41952342799611825,0.5485229257594073,-1.6076705171238816,-0.7161962883822772,4.06818378000421,2.397694964936033,1.1282243974315156,-3.3451399062338814,-1.0916309930917307,-4.8063157065348845
91,-4.737846337000365,-3.1245957828382167,-8.54731385128131,-0.7405361147885846,-0.4926896413974265,0.5154093910233853,-1.5704375090986469,-0.4760448684874154,4.258310371677451,2.429472208869947,0.9923764923381573,-3.0099477897477565,-0.8973729351616435,-4.740197004840987
92,-4.146940562139738,-2.7593275331738822,-7.4677321157841146,-0.39751357467913195,-0.5483672772932,0.39162347945313264,-1.3245199402564296,-0.22140155136600861,4.126139372316369,2.3168579511257112,0.8308367357049868,-2.370736101373032,-0.5834466154710534,-4.271542045684919
93,-3.2360471537892748,-2.2268535218184042,-5.745115070774063,-0.04933019410341898,-0.5882561037138988,0.20547237962463674,-0.8726016689971651,0.04511129515091308,3.704767933595314,2.0689819076355485,0.6537090720209643,-1.479837559347195,-0.19754733879517017,-3.4571153117236086
94,-2.082158147500949,-1.5922649846284258,-3.5654587716845625,0.2742508735881048,-0.6138240839955654,-0.009412812355970161,-0.2506360052319588,0.32112339630049636,3.0467203347079135,1.7010865766682437,0.466119730473144,-0.4168775202497775,0.20110143590473967,-2.384602220863935
95,-0.7831401819887512,-0.9244110019466361,-1.158972910521673,0.5486208794578232,-0.6260322959148112,-0.21888675867469873,0.4762935418370073,0.6023536162310883,2.2179300126698664,1.2338880825186682,0.2680893326804426,0.7178699823060362,0.5490177755135043,-1.1646335427222252
96,0.5500419526367097,-0.28830202064527555,1.2254550831322324,0.7555752663866063,-0.6251476010132849,-0.3926628818136751,1.2228867493840752,0.8808154572383299,1.2914611503236277,0.6931325006514102,0.05584665409093096,1.8129115830580997,0.7869677721716278,0.07993429352664257
97,1.8028844296479414,0.2616781331896712,3.348035404945899,0.8838936170743672,-0.6106461062251584,-0.5077351002539814,1.8958540010741407,1.143814622902335,0.3414553676560164,0.10913808422599473,-0.175634852295684,2.756884254150638,0.8686163721587108,1.2265044001509073
98,2.8678267295733257,0.6869874026630083,5.004700925372258,0.929355857693459,-0.5812213392103894,-0.5505161706673543,2.407479955544375,1.3740151778612535,-0.5623336230716095,-0.4839458779572554,-0.4293797775690599,3.4506086233703726,0.7680708855479889,2.1656502881044704
99,3.654557724227027,0.9679929636421571,6.049284189778771,0.8943081128860275,-0.5349206050926321,-0.5175675626515008,2.6883713201696384,1.5506608884017163,-1.3591568026111809,-1.0494131663410908,-0.70313856563303,3.8184102862674556,0.4850848530023163,2.8129041222457976
100,4.098949160124743,1.1045766334276288,6.40849313183936,0.786878114019722,-0.4694330275243489,-0.41499499796143813,2.6974239476126796,1.65183639964337,-2.0008525387703004,-1.549957666321939,-0.9868782708665575,3.8172458845816934,0.04691994407285398,3.1178858039922916
101,4.169503299770187,1.1142727029258257,6.087866481913869,0.6199245553218745,-0.38253845433318207,-0.25674718790076445,2.427550153609101,1.6574702395643928,-2.454264941334504,-1.9503006135098602,-1.2617245162692738,3.442365189325014,-0.4937032716293443,3.0694977662700382
102,3.8704639546984034,1.0282531431436384,5.168086003874338,0.4097981687085367,-0.2726979069122395,-0.06216492166029093,1.9064310931660362,1.5526444760639078,-2.7024193749124032,-2.2202855674039808,-1.5007992001964994,2.728642926300504,-1.0645574790302386,2.6963980096121323
103,3.241141725550154,0.8857594168010776,3.792305482824418,0.1749931219230381,-0.1397296724653041,0.14682242982412358,1.1923660067347657,1.3307023850319757,-2.7444411870704735,-2.3380679584898205,-1.6720453431160425,1.747266420668365,-1.583132289577395,2.062603883500983
104,2.351478267493749,0.7277817090789737,2.1463354130449934,-0.06523291377429546,0.014519612758321225,0.34846234176428,0.3660377660169465,0.9956452244060852,-2.5942883030157584,-2.2929173840223096,-1.7427356317676235,0.5980813825850015,-1.9679388816259877,1.2587660747926492
105,1.2943476152881517,0.5908733058331902,0.43442763144269647,-0.2921982274582505,0.18562340041104092,0.5235699198958107,-0.4804196707386192,0.5633822516046253,-2.2784664485862915,-2.087133884208736,-1.6850006505352904,-0.6015154955888049,-2.1503081194730997,0.390273147301805
106,0.17549902600611617,0.5019494184273394,-1.1460875840200089,-0.4890335509369405,0.36626502302594316,0.6572972187913046,-1.2553614386519234,0.061534568148579355,-1.832989873319158,-1.7366651669945914,-1.4814578042804325,-1.7297789580572374,-2.084933987210114,-0.43619879210069606
107,-0.8976685467448917,0.4747649902152849,-2.428011123212772,-0.6417590841236314,0.5462781352117172,0.7401451327264698,-1.878871298035358,-0.4723242880776425,-1.2999183013211923,-1.2701901495733712,-1.1299253433431762,-2.674271435436497,-1.7575294914135642,-1.1258637507155436
108,-1.8271840047448908,0.5085179847855746,-3.2924394792341,-0.7401493809474369,0.7131129365910632,0.7681981922981186,-2.2918340121983656,-0.9939005408806477,-0.7238217327882152,-0.726674643029796,-0.646290933984543,-3.344278005770277,-1.188346914156452,-1.6069690048685097
109,-2.5341666579456805,0.5887172670334294,-3.679789633963063,-0.7783413920417642,0.8527493538097461,0.7426697234752814,-2.46180698596247,-1.4565839168907362,-0.14848725620939213,-0.15165867061595598,-0.06486062533210094,-3.680466473760046,-0.4309106116009533,-1.838474463469901
110,-2.966019155606726,0.690130658645973,-3.592648824757909,-0.7551549712190156,0.951011462203994,0.6689309841208742,-2.3851898021561064,-1.8165323928183885,0.3859078645720548,0.4072564466464005,0.5641000688769275,-3.660662680449505,0.43398060234442726,-1.8133746084623596
111,-3.1004340293718062,0.7813357904092547,-3.0905678872159403,-0.6741094423367663,0.9951677726735914,0.555254005557529,-2.085726979057012,-2.037807778937678,0.8450499760166077,0.9051373524311805,1.1794715869534702,-3.301132323915375,1.3082202664863998,-1.5574111420529286
112,-2.9459086620667247,0.8301750928719724,-2.277992851620357,-0.5431287717821953,0.9756401470212213,0.4115161289434385,-1.609842382709579,-2.0968703606471446,1.202171373636195,1.3040746804154004,1.716432291501363,-2.6533406884880515,2.088978879669952,-1.1235704950187597
113,-2.5388928785097726,0.8092960157058708,-1.2873771709216202,-0.3739332405812393,0.8875995288115605,0.2480890218957874,-1.0196442407769162,-1.985779527411415,1.4392277350806566,1.576663566460443,2.114699217984537,-1.7967245917497494,2.682163017264717,-0.5833218124626037
114,-1.9380861918053216,0.7009533078181114,-0.2600322291837185,-0.1811255178141473,0.7322078325337688,0.0750675795578081,-0.3846378381192054,-1.7135945721034131,1.5476391960184035,1.708250735054507,2.3266785353033432,-0.8284905064527447,3.014865246024241,-0.015956893568629515
115,-1.216710419884834,0.5003607157544571,0.6725924900479034,0.018997514209404185,0.5172793521812784,-0.0981039625650869,0.22675961048955998,-1.3057122037159767,1.5286088771767266,1.697756446297761,2.3243000635450026,0.14820485657989013,3.0450518427259987,0.5024062463517168
116,-0.453772758368967,0.21708834185004444,1.4047504478133876,0.20983640309763682,0.2571862224213627,-0.2626607482669755,0.7548764986201486,-0.8011774830124264,1.39295235651041,1.5570450374278166,2.103455066872521,1.0361711251392907,2.767120696495675,0.9086234104558962
117,0.2746143275007159,-0.12571775585362246,1.8674748897096969,0.37596647498576413,-0.028080056438804964,-0.4103498726830949,1.1547669780327443,-0.24830867415611585,1.1603110062919428,1.3089735630418955,1.6852827793423468,1.7547157325917466,2.2125502100111385,1.1598453509005924
118,0.9028772041866497,-0.49419955265736315,2.0337964018569474,0.5045459790271016,-0.31466320938213527,-0.5332743600444663,1.3999238598157286,0.3007735467284831,0.8576228501291667,0.9843902502181768,1.1140162896696295,2.247547157402149,1.4455699443376548,1.2375082723215505
119,1.3818154520230215,-0.8483278376581178,1.917899064105938,0.5864891024026527,-0.5772568694738615,-0.6239538158773561,1.4834525280822024,0.7959719618434306,0.5168055154661894,0.618472417682462,0.45162858286815866,2.487212810870328,0.5545096626745877,1.1476804672444556
120,1.68213684324363,-1.14745328031759,1.5688720515234877,0.6172586026474345,-0.7919049383348863,-0.6757371806991017,1.4167749670213798,1.194626185947137,0.1717526636518736,0.24686610348685284,-0.22997791839071793,2.475742082288027,-0.359892025627327,0.9180044490081762
121,1.795516040530833,-1.3560388355822608,1.0604126073041737,0.5971795414819714,-0.9388278711936696,-0.6835817346366236,1.2262503394932793,1.465838435764883,-0.14508415589151769,-0.09790420170290577,-0.8581098389053003,2.2416924048967397,-1.1975192030594308,0.5919487612416182
122,1.7332967124894911,-1.4487093982180772,0.47828313076581247,0.5312375412093279,-1.0048808230246262,-0.6450732324257459,0.9483440826959727,1.593222017550898,-0.4061144136004054,-0.38935410166245704,-1.3684203817120408,1.8342626346860746,-1.8714006613218028,0.22141203284492011
123,1.5232056226657218,-1.4138562611761418,-0.09252582400628159,0.4283906234720296,-0.9852757145047675,-0.5614435164674364,0.6241155811777425,1.5758219630993173,-0.5915448424626198,-0.6090102407853277,-1.7127341491903638,1.3154783257661635,-2.3180063439523986,-0.1411325261230372
124,1.2046298016902075,-1.2552588070365716,-0.579119510172555,0.30048292301108687,-0.884286090453511,-0.4382789092999716,0.29381199906034533,1.4272093773528958,-0.6913746160785559,-0.7473131543346766,-1.8644757159487535,0.751627262279706,-2.503987883245316,-0.4498057605351136
125,0.8231146635201977,-0.9914978786951372,-0.929092824291383,0.16089412000758846,-0.7147917072592221,-0.28562976242199545,-0.00773902867580223,1.172981526419409,-0.7061102995309908,-0.8034826016260364,-1.821010913121927,0.20511937144746203,-2.4286024208438013,-0.670862932105052
126,0.424769127359168,-0.6532812959329001,-1.115132271646109,0.023086162185974157,-0.4966899265116235,-0.1173361237025287,-0.25442970321030056,0.84708136135311,-0.6460561902368124,-0.7844957707365979,-1.602691541874771,-0.2722221560975435,-2.121714853681469,-0.7859857619941445
127,0.05121632465873016,-0.2791224849292272,-1.1355897034663696,-0.10078333673782065,-0.25437659633338516,0.05044066230518206,-0.43059826686088826,0.4874637744476147,-0.5292724296593891,-0.7034053126432158,-1.2488830645506415,-0.6437265138155747,-1.637907532085903,-0.7930846956768847
