,AF3,F7,F3,FC5,T7,P7,O1,O2,P8,T8,FC6,F4,F8,AF4
0,-0.0024834262893932936,-0.646781276993557,-0.008280494444377274,-0.15343061210220998,-0.30772158030258,-0.25692877900899636,-0.08922554399731857,-0.27660552476650385,-0.8884274060111835,-0.5593362531759806,-0.7755984754084713,-0.23424959642002802,-0.3360493817232092,-0.2091931806065955
1,-0.17816818591975053,-0.3705914947526759,-0.5012929916648303,-0.9452035934094308,-0.6929298278487402,0.475572519826255,0.6208874167398359,0.7358285767066063,0.9387041028464078,0.6011678571551886,-0.6002943715341752,0.7961043246756065,1.2083359689784021,1.018983561040336
2,-0.3854565492747466,-0.1517274013909023,-1.0182363091337479,-1.698445673927677,-1.0636378693041237,1.1449956798263554,1.2427940272404394,1.7313213719789242,2.7003910555153565,1.754422939524266,-0.41731231480285097,1.720916277622927,2.5990108616634653,2.0941558503724713
3,-0.6439834507725144,-0.0549654996234138,-1.5614498875825307,-2.37150427473191,-1.400387290913864,1.6857521733803424,1.699173585737891,2.644637133091488,4.231076814340898,2.8087210573236536,-0.2503028181899045,2.422324275700839,3.6914735003046926,2.877348488525037
4,-0.9652107250448105,-0.12129554840062205,-2.121238487163204,-2.923716866459629,-1.6825742755336994,2.0488234313140277,1.9353188882486168,3.4141068051610457,5.392143591078385,3.6804397041314094,-0.11677118693964329,2.810945047938046,4.375883497881031,3.268167083363682
5,-1.3483361363541735,-0.359861150816822,-2.6729108709261498,-3.3169749107320454,-1.8890545615671754,2.2072007874061215,1.9260595736749964,3.9856788846725664,6.085980903441234,4.3019759181187665,-0.025434036952282274,2.8368172469015356,4.589921206927168,3.218022949851011
6,-1.7775510928966112,-0.7449558751972405,-3.176702609478437,-3.5181037936787596,-1.9992460206226947,2.158355310683624,1.6786370933209838,4.316586011629951,6.264699517776676,4.6275930935128535,0.025001780195095087,2.4953493901371107,4.325888983143791,2.7364248227341657
7,-2.2212323182638207,-1.2186381963743411,-3.580851121483335,-3.5019613987548412,-1.9947571997902158,1.923443328591013,1.2311573272264837,4.378435628305387,5.9327003457702165,4.63667631927449,0.045396932931356944,1.8275678487011817,3.631124809151875,1.8895154804251648
8,-2.633470073746094,-1.6986569363314106,-3.8275616879301047,-3.254912415660284,-1.861464034366627,1.5434178240244703,0.6468660986067315,4.15955473220466,5.143153068569331,4.334298774215064,0.05408174328080127,0.9146863994092931,2.601649064892722,0.7911001136668417
9,-2.958053761239531,-2.0905519656150977,-3.861095476556896,-2.7781357547344014,-1.5918438930743182,1.0726659247312094,0.005091412028283783,3.666446004270044,3.989234352930106,3.7493660258757355,0.07338383132259241,-0.13225316083655517,1.3698408915885956,-0.41255526257513736
10,-3.134684266738045,-2.30214420350348,-3.6368095119534254,-2.0901150604099796,-1.1872760419813333,0.571151727159361,-0.6098223734197448,2.92423949866035,2.5916018386732027,2.9308661086196732,0.12530835170319027,-1.1862910710024628,0.08772208738614057,-1.5620363248080014
11,-3.106814222260293,-2.258258837249953,-3.129755558741001,-1.227679421689775,-0.6599510940237612,0.09624639381015629,-1.1199818793837484,1.9760439528149423,1.0839495828839636,1.942879103393172,0.22706298285602527,-2.120195014491705,-1.0919994370863355,-2.5055628797977634
12,-2.8301971833210344,-1.9134923597106712,-2.3414434628349516,-0.24511216695759883,-0.03401498774059366,-0.3045627369810554,-1.4641755928088165,0.8811174854554259,-0.4014376126507959,0.8589897094029283,0.3871661562107192,-2.821843774077956,-2.034693574931208,-3.118469172848878
13,-2.281014645362142,-1.2611333023661657,-1.303598643145851,0.788889973569488,0.6543870750052221,-0.5990732968906202,-1.605452400330819,-0.2881948736845102,-1.7464235897240616,-0.24337091138313177,0.6027945876622649,-3.2074455603422143,-2.639996828611818,-3.31887049920731
14,-1.4623879497935661,-0.33691714268872536,-0.07815586563769858,1.7962955129472389,1.3584060582970183,-0.7732022465393593,-1.5350641937178504,-1.4507496029186222,-2.8567725106166697,-1.2882992283407253,0.8588348196213789,-3.2310297127908036,-2.8534104982015984,-3.077593243855326
15,-0.4081884559708594,0.7829634078207072,1.2467369705033127,2.696413278788161,2.0232221653326836,-0.8310003020857818,-1.2723544446744623,-2.5220095986515028,-3.6681807679769594,-2.2063197755394137,1.128843615000131,-2.889177558567233,-2.67191551930272,-2.4212584604161695
16,0.816671856482842,1.9893790640376428,2.564366159562997,3.4134561099462846,2.590142958541248,-0.7920342788050739,-0.8607799766744908,-3.4203175494740634,-4.148434663194124,-2.9387320506006676,1.3778396767666112,-2.2205868721232505,-2.14299880124703,-1.4283253175908828
17,2.1198826427205155,3.1523714052291947,3.7598998013532907,3.884126933008687,3.0018118669857032,-0.686712728220372,-0.3608052787500157,-4.073635439437307,-4.296061643743717,-3.4413540064305184,1.5665841107625698,-1.3007092753007545,-1.3573313488824328,-0.21879702656321634
18,3.389228488930613,4.136325935736565,4.722399469338491,4.064329634887607,3.208096856356921,-0.5504075098620438,0.15917160692747334,-4.426205906362464,-4.136242433382646,-3.6875673195112526,1.6567918396323882,-0.23228258994954837,-0.43613265390078115,1.060945069498162
19,4.5033262584566485,4.816326005023703,5.3569482668736175,3.9341979627703707,3.172077795174251,-0.4173542119096373,0.6324712044717681,-4.444488541882838,-3.7149776518324384,-3.670479021883443,1.616579826273154,0.8669666687193909,0.48509880289382085,2.256172174542328
20,5.344513505332318,5.093679604952949,5.59542655096792,3.5008260692975037,2.8754453026053297,-0.3152835128083967,1.0029561536152853,-4.121681054823139,-3.0925274742083584,-3.4039207698563816,1.4254210969151757,1.8779010879248532,1.27438720409207,3.2224285097217993
21,5.812417107044205,4.908726171488455,5.40462634359848,2.7983416077039793,2.3225867949989056,-0.2615550658551429,1.2318133675958685,-3.4801663649875203,-2.3369760887453137,-2.9219556968799476,1.077937794622059,2.6932091395662323,1.8203568169770314,3.842486267350859
22,5.836522342262992,4.249359037396012,4.790709238870679,1.8852513083357654,1.5426866314844019,-0.26127338765726654,1.3014483620532133,-2.5713451950647963,-1.5184728374182814,-2.276591585304538,0.5860138170867983,3.2288069824478987,2.046451863706585,4.039669069001952
23,5.386069163127144,3.1542004244784527,3.799442209113185,0.8392788181466052,0.5893176267924056,-0.3075191744132713,1.216121561363498,-1.4725276940404046,-0.7043655178998679,-1.533533290497364,-0.021088346034365407,3.4322101266762917,1.9205464397710923,3.786091677042013
24,4.475847373883907,1.7099874898904304,2.512143327618357,-0.24981896890057165,-0.46275084819679024,-0.3834914342126352,0.9994654792281733,-0.2808609695229854,0.04483039169036668,-0.7660510493607311,-0.6986854465534951,3.2871033426900715,1.4587848044261877,3.105032621513993
25,3.166932344231469,0.04340519346013656,1.037778690836532,-1.2887489189327082,-1.523476051491172,-0.466078332241886,0.6894840460853289,0.8953642432874037,0.6788181956768847,-0.04736812187106522,-1.3905378975875438,2.813824786038859,0.7232261141953084,2.0673924309794263
26,1.5620401915328168,-1.6917427559897236,-0.4978896579699401,-2.1896287474640226,-2.495776374597914,-0.530194893169241,0.33197942376643835,1.9473001656882822,1.1604295468717645,0.5576774846453456,-2.0342214852366247,2.065964252725535,-0.1863503517414904,0.7828954512530917
27,-0.2041077257138848,-3.330581727920115,-1.9648580049637683,-2.878454266624684,-3.285301576471603,-0.5531636387613494,-0.02647522343083553,2.7769494141552418,1.4680681425745477,1.0006462499121982,-2.567423275286785,1.1236910508522395,-1.1453963199414101,-0.612724655020023
28,-1.978345434544253,-4.71461173192124,-3.2417019214321066,-3.3021916504789113,-3.8106780196420917,-0.5184698700208562,-0.34491869548351733,3.3080783215213816,1.597477452685499,1.2559742014912834,-2.934469622018489,0.08472478343930682,-2.020640606223784,-1.972925773117057
29,-3.6049442517232952,-5.708571256580597,-4.227221332443963,-3.433735122216419,-4.013006329384126,-0.41837656503778703,-0.5928412800519259,3.4952379376568476,1.562425062633761,1.3247418315738095,-3.0923717828198214,-0.945981492738728,-2.6872080315729296,-3.1561517455183017
30,-4.94189282374509,-6.214817181901193,-4.849640663692489,-3.274193260138857,-3.8633883436106573,-0.2551003560437783,-0.7529125778114718,3.329609827300933,1.3938096720065216,1.234831952570528,-3.01573375184018,-1.8667577992338587,-3.044683381214667,-4.04049214600973
31,-5.875601108332969,-6.183619044327972,-5.072425432190133,-2.8522533895686046,-3.36743465556185,-0.04048893341835616,-0.8214247480117227,2.840717666882829,1.1367829691672036,1.037058595496405,-2.6999921953503665,-2.5889394447346907,-3.03014902119895,-4.5357414613694065
32,-6.332277346799797,-5.618249753559066,-4.8962180081020055,-2.220691061885289,-2.5660364186653233,0.20563914886677032,-0.8066655579430455,2.093550451912935,0.8457526470545021,0.7974863056050459,-2.162630185208462,-3.0449718991494943,-2.626619200804624,-4.591794532541619
33,-6.284685017604875,-4.574359597197816,-4.356883224354433,-1.4504043989640576,-1.5321312560489033,0.45816234415417756,-0.7257500989253068,1.1812608094103028,0.5775505221193719,0.5868422522164961,-1.442205318203689,-3.1942892471348547,-1.865870809138675,-4.2027840553747025
34,-5.753604559558173,-3.153771440066595,-3.5201175090769774,-0.6226278198818589,-0.3636934734051486,0.689903388562275,-0.6006347291514118,0.21423316819775026,0.3835134275188591,0.46852347029213437,-0.595243111077727,-3.0265867855708626,-0.8253502757421963,-3.4068286361312143
35,-4.804008207981552,-1.4934564702292163,-2.473448406741448,0.17981252574454806,0.8263327309226753,0.8750018529549995,-0.4540877454809305,-0.693146373555893,0.30160950149001087,0.48709295584631,0.30874509116823723,-2.562333133171056,0.3804659545156557,-2.281664355876222
36,-3.536607014796179,0.24902794436890982,-1.316686729083932,0.881225065147014,1.9220292457749257,0.9919934973151967,-0.3062991634123731,-1.4363335666143873,0.3499342842599122,0.6592454263945481,1.1936710608013008,-1.8505716597408681,1.613242001055082,-0.936751940945518
37,-2.0759582364346065,1.9119906425390405,-0.15196710630670476,1.4207844809565,2.817031754085835,1.0262574535838018,-0.1726028586045783,-1.9332843051484596,0.5228293342392559,0.9689620248062333,1.984107261140225,-0.9642359247762451,2.7269565672988985,0.49732297913548085
38,-0.5566639619232696,3.346129591957864,0.9255704781658821,1.7584123999024786,3.426101376474797,0.971596468987748,-0.06250735695656844,-2.134271274384882,0.7905332158224999,1.3679833342505243,2.61266130153637,0.006650590405543026,3.5852187164133227,1.8812025072034917
39,0.8906826998125138,4.42934146768318,1.8356122814952818,1.8781757750432382,3.6943539211863943,0.8308291740576622,0.020051730312354,-2.0275786882977185,1.1027166545349112,1.7818959855706937,3.0267636644657614,0.9633933461366235,4.077740728484064,3.079843940711805
40,2.152234118090282,5.078265991541317,2.518448358494653,1.7888710975483288,3.6030400930610704,0.6153882245355166,0.07555679386005787,-1.6403476068120544,1.3955858820355418,2.1211844145012586,3.194173213559014,1.8080449946740806,4.134078243278871,3.9753096814759687
41,3.1410010737042513,5.255407620437742,2.938423651430649,1.5217971748188597,3.1711921380749963,0.3440281861509057,0.1073096573510019,-1.03449081413125,1.6015911749067515,2.2957084201426365,3.1065906589251293,2.4530823530131562,3.733041006794633,4.4782440843892175
42,3.803423093247378,4.971186063878559,3.0850525179682116,1.1260468077383685,2.45296249955668,0.040841988750871555,0.11987449185293436,-0.2982445126490694,1.6602783715045883,2.2303915572514956,2.780912049095519,2.830495455902955,2.9066301092835167,4.537065404519262
43,4.121929150295075,4.2808342930830445,2.9719847520463025,0.6619287124443102,1.5310110070146976,-0.26714921612315085,0.1179615668298031,0.46551235440364763,1.5285675727013712,1.8795763661690577,2.2578496970295454,2.899381097859265,1.7379224196530496,4.143983321226089
44,4.1134831459650965,3.276627698721085,2.6341346769387366,0.19333372172065255,0.5067785612278956,-0.5525427283338399,0.10597622262863961,1.1526332636257741,1.1887847345464297,1.2375918918961342,1.5978897477748872,2.6511505686735304,0.3529521048860886,3.3370968555295493
45,3.8245329290450294,2.0764307020503825,2.1233432809353077,-0.22003677590396187,-0.5111457849446714,-0.7899683780926301,0.08823386519569677,1.6710350694583678,0.6530997450443922,0.34358439944474645,0.8748324919299211,2.1115854825497684,-1.0927148384846195,2.1980621594339924
46,3.323133437117315,0.8099347563340805,1.502959696420652,-0.5296646950560228,-1.4191472327809673,-0.9581634861805057,0.06962170861992237,1.9522735447530353,-0.03642409922899235,-0.7204905105202243,0.16745796729957793,1.3392242748896181,-2.4314051852029515,0.8451666712646309
47,2.68926976153751,-0.3958053978361219,0.8417309893558288,-0.7036201668296125,-2.129751469626083,-1.0415884046624102,0.05632758824713938,1.9599005657080082,-0.812287735854673,-1.838758170258475,-0.4498493502032339,0.41993268569205205,-3.5029340460244947,-0.5778965631442131
48,2.0045501208513743,-1.4298772825805264,0.2074023788018586,-0.7297581659790441,-2.5805404941637176,-1.0315432920943597,0.05620271758505413,1.6935743510859136,-1.589946214542008,-2.8761394668168494,-0.9164385351271328,-0.5420256015934387,-4.1741768028252855,-1.9167311471539277
49,1.342464640323467,-2.208534474202525,-0.339536433908702,-0.6163477870235229,-2.7398324153820828,-0.9267959722774656,0.07840002938133243,1.1884566588133771,-2.278948332900859,-3.6968634506002074,-1.1934734577827866,-1.435605076661998,-4.356271126384614,-3.0230611729124632
50,0.7603123122471882,-2.682532270964902,-0.7514786539637004,-0.39008116444036983,-2.608566671296975,-0.7337398044526477,0.13211793313103157,0.5100471256057376,-2.795213662589816,-4.184077640113386,-1.269554183264724,-2.156016097140178,-4.01721561809376,-3.7718761221739774
51,0.2936914199806154,-2.840037105628473,-0.9981907939569141,-0.09173334785566399,-2.218329914247939,-0.4660838220662161,0.22453505991141925,-0.2548053364439183,-3.0726544329215852,-4.257594833672422,-1.1628813570328185,-2.617597569152319,-3.188033822581142,-4.076830401775085
52,-0.04585657245554611,-2.7049381391489824,-1.0696688164416461,0.2299485057151779,-1.6259546764723944,-0.14406139014917338,0.3582822225265758,-1.0094859805076228,-3.0724519639872083,-3.887020370055881,-0.9193597905889692,-2.764821020634986,-1.9613497750454787,-3.9018254792596747
53,-0.2698364875670765,-2.3309808342559766,-0.976945082367927,0.5253008879298108,-0.9055519422834621,0.20685000467575065,0.528998897905283,-1.6602390354094758,-2.7886612772762387,-3.0981492461532776,-0.6065780762740013,-2.5798535946579633,-0.4821149720637298,-3.2670040923273795
54,-0.4086210421627771,-1.7926746269777365,-0.7505954628138529,0.7507719726291976,-0.13913430888286707,0.5576700457484534,0.7236104823818666,-2.1281600916919343,-2.249374820912643,-1.9715085146493867,-0.3042148786873484,-2.085490168339616,1.0687627611075519,-2.2479914592064683
55,-0.5047077809990596,-1.1743229409894786,-0.4369390060581368,0.8749311492686042,0.5928961993778132,0.878034873261654,0.9199111546678007,-2.3589848338993358,-1.5133299775544626,-0.6330922634153453,-0.09201511610777359,-1.3428596677018132,2.4961409743796668,-0.96806787871522
56,-0.6043640149984528,-0.5587268868874564,-0.09222120849629098,0.8825912362166588,1.2201964020041651,1.1385530383246594,1.0878481451200068,-2.3294172888295783,-0.6624893534893982,0.7614901122095958,-0.03695259282865786,-0.44403816686414055,3.6151299960501353,0.41606289051426126
57,-0.7488565914116474,-0.01709383337682575,0.22461751782505265,0.7764303561852046,1.6889153710555225,1.3132141783770919,1.192608715940053,-2.049226564039448,0.20833934083956956,2.0472422824786,-0.18146169591639036,0.4995489162186331,4.275223175828042,1.7332860741022422
58,-0.9665560229957623,0.39856046239895904,0.45972194757954044,0.5758636572508422,1.9655354097459472,1.3816528197578346,1.1992653284923898,-1.5589325142143877,1.0034171725515044,3.0715261644465306,-0.5346142288830271,1.3714051089889547,4.380815900376981,2.8194707220506685
59,-1.267116119741866,0.6596560776898921,0.5716242993012974,0.3133359070914516,2.0379709033859257,1.3310864226990802,1.0784022927514796,-0.9235139455582939,1.6379468655565634,3.714250701933997,-1.0678118510781571,2.0649591152370235,3.905187922421311,3.5384005529907694
60,-1.6386567240091992,0.7616253485180812,0.5370319360232644,0.028617364855906744,1.914179272262879,1.1577813540961146,0.8118918333934959,-0.22311686465225677,2.048389931381085,3.9036761613497815,-1.7159833337083659,2.497182585649977,2.8957972716308715,3.799367120947032
61,-2.0484437037664383,0.7210818716906142,0.3542248804203594,-0.237981598603004,1.6188506285746886,0.8679345690359971,0.39785965888959113,0.4578680013931054,2.1999531959221463,3.625659607476247,-2.384490646445624,2.6189301443284916,1.4698679335073204,3.5689672199042204
62,-2.447023322390165,0.5703530594970689,0.04350912394637275,-0.4523628595546722,1.1889216391457544,0.4778807353069355,-0.14608955497204054,1.0418093096799792,2.09035083972029,2.9251247232322046,-2.9610697946913755,2.420604561411767,-0.19940171276542934,2.8754480343352995
63,-2.775212266644976,0.3505116058190519,-0.3553931661582798,-0.5922182180863867,0.6686924162752593,0.013546227487999746,-0.7821233798906899,1.4674281503270474,1.7494266746395353,1.8996585510288113,-3.3313001720820123,1.932473258797689,-1.904326289198614,1.805005105345547
64,-2.972870081955682,0.10419877240383307,-0.7886636108492305,-0.6504517000789188,0.10522638932851629,-0.4909129338622883,-1.4543153361953938,1.6967627814443693,1.2347477611287447,0.6862535547237137,-3.3954570564434188,1.2197768067532806,-3.4290849636142413,0.4905886584938637
65,-2.9880807886782987,-0.130545202867558,-1.1956458590743078,-0.6358068032194523,-0.4554848672389306,-0.9953131794589984,-2.0936481661057904,1.718725981597604,0.6237956188288901,-0.5568453023980258,-3.0842812046574064,0.3735258121022174,-4.5773618597927594,-0.9051726620375775
66,-2.7853087328661776,-0.3245275824672549,-1.516984551168248,-0.5705380529996215,-0.9713597380976502,-1.456434000346321,-2.625431905561274,1.548994791650521,0.0038181931981387364,-1.6706079085476968,-2.3712712114411407,-0.5015538045238194,-5.197492330429117,-2.210534812677082
67,-2.3512865913836642,-0.4592721835782593,-1.7024860641715096,-0.4855051673228491,-1.4060834658154386,-1.8316356143414267,-2.9782846546821267,1.2264829397151884,-0.5393021812919571,-2.5152081251613003,-1.2795722670090932,-1.300179337567633,-5.20170002923366,-3.2658936495988873
68,-1.6978011116635303,-0.526582902877717,-1.717633675601087,-0.4135641832725477,-1.730195149522283,-2.0828165288284612,-3.0935315967533574,0.8070728068485366,-0.931711848104944,-2.9869501710378223,0.117671845736018,-1.9290313934778658,-4.576893298203739,-3.9429720948626232
69,-0.861076641007447,-0.5263489204228905,-1.5479417149543169,-0.3824796025855038,-1.9217215990759309,-2.1803115860853004,-2.9337366354641143,0.35557847652464775,-1.12043870404478,-3.0301117375048277,1.7036549170708917,-2.317149542923432,-3.3857384488512436,-4.15960432088382
70,0.10199268713255792,-0.4634596760789702,-1.200686068783342,-0.4087074434200197,-1.9666742518948943,-2.1062647885331605,-2.4891200223947827,-0.06294547669562438,-1.0793908977712565,-2.642483267750633,3.330089348828684,-2.4231440095709527,-1.7581315462064153,-3.8884934891110694
71,1.1200467610726514,-0.3447989363077496,-0.7039343728017421,-0.4932689004097092,-1.8596278480688622,-1.8570191405326535,-1.7808432048416591,-0.39144406858620867,-0.8118870587479168,-1.8742760154400135,4.8335560973105265,-2.2386688191214614,0.12547974519037347,-3.1591829087593
72,2.1148799382664265,-0.1771560351990635,-0.10315635041047687,-0.6205685772396803,-1.604436140296962,-1.4441616613834614,-0.86053918612454,-0.5876933529015125,-0.3495968135142303,-0.82092184735519,6.053813394450276,-1.7881000710276436,2.0564240044226763,-2.0533622559248994
73,3.0093520002926333,0.033431020800801445,0.5440253464323425,-0.760477831536529,-1.2149553181888695,-0.8940346382554817,0.19402160951794928,-0.6290201991294796,0.25175029300516405,0.3890163510609211,6.851690644148939,-1.1247862619031588,3.8226657499308447,-0.6944139633137473
74,3.7345525345171113,0.28081862362624904,1.1742111862000781,-0.873402403654902,-0.7154880338259255,-0.24573772735932223,1.2866964480027625,-0.5145186473092064,0.9191399629522836,1.6091400828750437,7.124398114781303,-0.3245425240026616,5.23295725685434,0.767298461636617
75,4.23543204366281,0.5567430092004428,1.724941331147582,-0.9174945579560863,-0.1405715778260357,0.45214881862453815,2.3132478851027454,-0.26468319881241276,1.570547100893798,2.6918321281335778,6.816584362013161,0.5227665132847753,6.1373886805785665,2.1715403769139408
76,4.474464755116882,0.8483491620739327,2.141022024989624,-0.8567541348518344,0.466259162172236,1.1457338695262336,3.1728644125421246,0.08135332771089918,2.12366851628772,3.5043593544065477,5.926155482052125,1.3226562339067047,6.442154055592771,3.365746053810226
77,4.433283544633536,1.1361416447262338,2.379867632304029,-0.6685661554397442,1.0549907406028307,1.7804107305060182,3.7794851831505656,0.47058967519233363,2.5041918054404553,3.942870316706703,4.504597258381116,1.9855963510721908,6.117279370339645,4.221135066260461
78,4.112545414928684,1.3932058037801809,2.4154400265453826,-0.3492851021226683,1.5729835402309584,2.305407516746193,4.07151862070031,0.8424098221168838,2.6529121575265697,3.9430608892388403,2.652184717625477,2.4359395128738726,5.197039299947904,4.645835519657511
79,3.530483972067148,1.5863116400154298,2.240542194188717,0.08320708135450001,1.9699440258559158,2.6778833438994325,4.018760478937898,1.1357054838264486,2.5312754922577048,3.486690190389592,0.508933078051008,2.619503913591025,3.773669735415643,4.593839436047491
80,2.720658763954512,1.6791154333220235,1.8673732869360733,0.590524225369101,2.2035280208125716,2.8662607253836203,3.62568362779626,1.2961892546107077,2.125144053320156,2.603528556333721,-1.7575930342746713,2.5092008566830213,1.985655539315426,4.069070183757226
81,1.7293371903361825,1.6371973208646446,1.3263739470949973,1.118310536819694,2.2448568607013812,2.8525940254208373,2.930735330936598,1.283180928168709,1.446704467737052,1.368686649634974,-3.9664155232721474,2.1082011946740913,0.0022856226578951352,3.1243179127967236
82,0.6127900878612539,1.434217148566899,0.6634938893160964,1.6036018268317516,2.0831006542610475,2.633872501962175,2.00177651482201,1.0751471007275526,0.534474731073322,-0.1043868283939117,-5.938070290102482,1.450274156105882,-1.9936775317766444,1.8552683567890187
83,-0.565393815249537,1.0581354726372094,-0.06388794419669819,1.98383894522209,1.728300059289474,2.222235491161341,0.9282716626987622,0.6733324614939712,-0.5486375064256446,-1.6746303020329307,-7.5092666892121,0.5971311931527902,-3.8234273759276167,0.39029073389556873
84,-1.7370148058049164,0.5163073424031629,-0.7920611489659831,2.2060831571676838,1.2117768348725377,1.6441364284951387,-0.18876869072432287,0.10296294379773754,-1.7192582304545654,-3.186903141650232,-8.546309666486485,-0.36712891171466366,-5.328068666994972,-1.1229610716554521
85,-2.832114806280043,-0.16165363324407261,-1.4566775236485157,2.2349638536344094,0.5838052055084607,0.9385361881044443,-1.2478298992354853,-0.5882659444218957,-2.8794074473904487,-4.487140151386163,-8.956382191365664,-1.344070269343684,-6.381830343490113,-2.5327728517729176
86,-3.782113652620127,-0.9240409127160475,-1.9985496354039114,2.058117254924925,-0.09137204070762882,0.15424170660747327,-2.1575663281630297,-1.3343937359613212,-3.9240975186367795,-5.437729709815533,-8.695846506631193,-2.2307538020268396,-6.901619499178616,-3.6988682858854034
87,-4.523314723745557,-1.7005921749920947,-2.3690352201502742,1.688298217207803,-0.7426714878558613,-0.6534596898609804,-2.8458456057158954,-2.057726819277585,-4.750251481774189,-5.931614616245455,-7.774818227050445,-2.9303860300531235,-6.85237209893132,-4.506587292146716
88,-5.000761667301415,-2.4092073127385993,-2.534511925181234,1.1618843217955745,-1.3005658506829412,-1.42668208521751,-3.2661628550274378,-2.6770090124541097,-5.266276784490636,-5.9036533747508715,-6.257442215134201,-3.3626564607940863,-6.248029901772361,-4.878276314474949
89,-5.172295231375642,-2.965138533246762,-2.479522981194321,0.5340487699851858,-1.7056386540926678,-2.1091099414185823,-3.4008048902972856,-3.1163010868706333,-5.4014113883044645,-5.33798458668598,-4.257582851566307,-3.472614015540916,-5.148332218053764,-4.780715897844404
90,-5.012525004340207,-3.2915212144607855,-2.2082941367540165,-0.1286301479152874,-1.916117463686323,-2.6501856024414865,-3.2605876462617696,-3.3135273123489233,-5.113833040825192,-4.270507803806687,-1.9300319778115358,-3.237056122289347,-3.6519374184098483,-4.227847842644685
91,-4.516319603902286,-3.329848456012145,-1.744470145247219,-0.7569966275532262,-1.9133144945839358,-3.0090152065392424,-2.8814294822309643,-3.2276855227889616,-4.39653881094258,-2.7860999261619495,0.542202346847778,-2.6676618021782064,-1.8866607015564139,-3.2785910512460643
92,-3.7013491702079513,-3.0489215831960963,-1.1290783485303613,-1.2882736936747867,-1.7041711966515805,-3.157679108141149,-2.3183981870367854,-2.8438955854108543,-3.280176682610367,-1.0107678396210233,2.9634986461002213,-1.8104591667890606,0.00219132425742907,-2.0300777325293025
93,-2.6092006748312233,-2.4509474314115147,-0.41688343692327334,-1.6738564903255608,-1.3204919743123742,-3.0836474035724963,-1.6381358575074367,-2.1757431242777177,-1.8323220327132996,0.9004817777206379,5.142695669986161,-0.7416303894338974,1.8643097613486532,-0.6071250937278845
94,-1.3046419705827201,-1.573788071000641,0.32855886009570706,-1.8848603625921132,-0.8149064847135645,-2.791052120694871,-0.9106984863969421,-1.264710877335953,-0.1530907539043081,2.7787755725767918,6.909967608125491,0.43993022942517357,3.5566201290344313,0.8508742576815487
95,0.12725669440311496,-0.48885720063390875,1.0407185112385957,-1.914709383905748,-0.2540560696383707,-2.3006563051661146,-0.20184026520332607,-0.17682759325725744,1.6325918000564246,4.457879860898975,8.131782656112259,1.622525865896048,4.954289983584286,2.204236208661348
96,1.586224651147116,0.7052673579180312,1.6562532201841347,-1.7785168097943393,0.29010587724920517,-1.6484769610934393,0.43336299845643095,1.003040649227612,3.3853512131767176,5.790295933636264,8.722398002241858,2.6929775959339293,5.9597059647845505,3.3269610686829956
97,2.9639249500427782,1.8928651867892516,2.1209334705600273,-1.5094984253473542,0.7497330306995572,-0.8831445477693467,0.954896695062126,2.178612761029485,4.963330773356313,6.661220557518243,8.650714120515882,3.5481334099101516,6.508840773973605,4.118982961457051
98,4.152630909074835,2.9535767256564562,2.3947401227661365,-1.153096399925691,1.0699403540903119,-0.062196561639592925,1.3398502557364385,3.2505615827639405,6.234566339891606,6.9989166099677735,7.941823903058059,4.105310022126439,6.574672271855115,4.5154653930989515
99,5.054682301602166,3.7758843704380953,2.4555980816738683,-0.7598080494200937,1.215871689087033,0.7524056968268352,1.5821087577969712,4.125039894293896,7.0885535939000786,6.780481637233373,6.673175933939306,4.310522103640433,6.167559577165005,4.492224143441142
100,5.591765095274238,4.269913680663353,2.3013336584501367,-0.3778635370753793,1.1769983897844734,1.4991834137045281,1.6899988868899298,4.72164031771997,7.445927542851907,6.032559104819666,4.965854057160632,4.143606101864737,5.332713409743595,4.066767966227881
101,5.712986496253833,4.377964308114577,1.9496315046900516,-0.046859213541799304,0.9680523585070872,2.1220779906175498,1.6824514408462783,4.98019574955787,7.265428435342654,4.827130993016552,2.9719929976326,3.6197172704764813,4.145111541448804,3.2949280783718393
102,5.400783885673245,4.081460575943888,1.4359962020916435,0.20675936049998886,0.6264750724352216,2.575018179019713,1.5844048669573643,4.865986049413843,6.547648422045007,3.2730815589900235,0.8597480123583342,2.7871219887863012,2.7023956402626514,2.263551799983491
103,4.673903682140413,3.4034667425169696,0.8099585673283926,0.3718170753294594,0.20676513763331292,2.8257333975866668,1.4222224510686459,4.373070311719957,5.33538211095463,1.5046613704631089,-1.2025281225928057,1.721657534144329,1.1164298871570764,1.0801991137241398
104,3.586984388924434,2.4064740079240146,0.12996940212058716,0.45199995935605236,-0.2274457982729872,2.8584781418765117,1.219826741666331,3.5255869740158263,3.7106922259198747,-0.3317432293227247,-3.0612063843941293,0.5186172968532446,-0.49571260111591436,-0.13887085638246457
105,2.226635184414775,1.1857513086051612,-0.5424381862431376,0.4631963972378334,-0.6124359547241927,2.6754067850844026,0.9960811571143516,2.3769482711038243,1.789018908784236,-2.0910463359187865,-4.589873044323695,-0.7169187091157256,-2.0205600800396173,-1.280966807354645
106,0.7042748021769731,-0.1409197301711646,-1.1485800210460848,0.42920564678962914,-0.8932544491986285,2.296434920860757,0.7636965851119047,1.0069116240094524,-0.2891956340378033,-3.6417267734660252,-5.6982226406066845,-1.8801842152020962,-3.3561506814667483,-2.2480670876614215
107,-0.8536507947768603,-1.4458951085412413,-1.6380312799383716,0.3766433807468375,-1.0311469533105295,1.757540661962273,0.5296494175566535,-0.4834362022735365,-2.368806738584693,-4.875821830273957,-6.336686362188156,-2.8761888686609844,-4.4184955736813,-2.9655677984026667
108,-2.3171510188880786,-2.605222398313086,-1.9729906973908908,0.32993714081434455,-1.0085224605149887,1.1075943666089052,0.29681732671577643,-1.9786637218595466,-4.291566260491166,-5.715942776349858,-6.496698863503714,-3.6276571070295938,-5.146256521060396,-3.3878599703121695
109,-3.5647358361358683,-3.5115474549124706,-2.131210224726553,0.30721766591770383,-0.8308129725341776,0.40395014084339875,0.06632358778919502,-3.357692043507801,-5.908329143897489,-6.1190345313972765,-6.207052504069259,-4.08082418595096,-5.503509042905484,-3.500367406095593
110,-4.494789573605987,-4.0849391339355146,-2.1072722960760784,0.3176987544965819,-0.525042992688674,-0.29282698763735854,-0.1600273148954077,-4.503751075289981,-7.0910934362660845,-6.076997506043819,-5.5272278230417475,-4.208766110443691,-5.480647236952428,-3.318139330462855
111,-5.035085968986433,-4.280480104977236,-1.9121844347813777,0.36084333716471195,-0.13541056024946033,-0.9246050808059193,-0.37782069638094073,-5.314904429807155,-7.7440079933318176,-5.614592145727735,-4.538859736324851,-4.012223102049487,-5.093621916443841,-2.8815071896047604
112,-5.149443879036964,-4.091880955313598,-1.571443010818935,0.4272940459743993,0.2833905210011383,-1.4411278623114239,-0.5790676905354871,-5.714221504566299,-7.812408961762309,-4.785223183894404,-3.3365673990643465,-3.5181110487405998,-4.381777797682524,-2.249626423790991
113,-4.840822796573953,-3.550853546675637,-1.1218681984656178,0.5012599567503245,0.6740743528513387,-1.8046640015957323,-0.7524361459566157,-5.658505681367238,-7.288935438924279,-3.665248922510516,-2.019245265159327,-2.7760786511716633,-3.404565740688407,-1.4928903468931458
114,-4.150529189166953,-2.7224654213571267,-0.6076097825672419,0.5638428624582901,0.9847241116548747,-1.9933294931279657,-0.8846362697557734,-5.144438078298847,-6.215872252344025,-2.347405313629561,-0.682624895383568,-1.853552377014119,-2.2373636858014603,-0.6852091200019675
115,-3.153607605669748,-1.6971329271854605,-0.07576174900420887,0.5966828247509888,1.175686081953709,-2.0026887173725254,-0.9626647790316466,-4.2111126197440845,-4.683104247468489,-0.9338163446837323,0.5864563200431676,-0.8297305860861114,-0.9665726977667844,0.10299213259479623
116,-1.950888624408209,-0.5802537209469398,0.42798904186896397,0.5853085885954366,1.224476928035468,-1.8454451157525962,-0.976421738155075,-2.9382398449003446,-2.821445833908881,0.47107050482977214,1.7140159381646585,0.21102741978231965,0.3158978090653329,0.8104426649914092
117,-0.6585245907405097,0.5192992049165691,0.8633026223260921,0.5216795499442418,1.1281104095428158,-1.5492750322298914,-0.9211296028029015,-1.4397676181513577,-0.7916030757364152,1.7673871549127091,2.6413467857170208,1.18599109952154,1.518641260447891,1.3890332960563587
118,0.6038736752327682,1.5005187866056606,1.1984057014051381,0.40557551804349146,0.9026424569081095,-1.1531016750640217,-0.7990198907973279,0.1467462207312718,1.2304269387311337,2.866390534229472,3.3262904688781423,2.0206070754677534,2.557075220009374,1.8061007266715112
119,1.7252178621426983,2.2802051894968174,1.4123643930150607,0.24469533316891287,0.58013426753171,-0.7023114026175467,-0.6198998129973243,1.6740536641053407,3.070193068273132,3.6964264528320916,3.743776104438557,2.6543794296989076,3.3597535168767383,2.045137343206958
120,2.613734607820314,2.8004802222242726,1.4962708453665807,0.053531243488581355,0.20358586763101988,-0.2435460853985739,-0.40043667756071666,3.0009186781526203,4.572124408383536,4.208004941587275,3.885928388255079,3.0456484490408786,3.8741942642377865,2.105198983914605
121,3.205394532458485,3.033168179244337,1.4532954872975261,-0.14873746922557912,-0.17934913881155445,0.18026221443672727,-0.16225235375895697,4.00770479301522,5.615395383958763,4.377582485703774,3.761859967611459,3.174849253278242,4.071623045034183,1.9993198367007439
122,3.4690818551350424,2.9807250530022085,1.2976475034677128,-0.34096320599735325,-0.5229253039524479,0.534022231468954,0.07085180696810858,4.609817639737851,6.126373200345389,4.209583743215153,3.397054245391564,3.045890679512663,3.949983645478124,1.7522119013988189
123,3.4080019436054516,2.673804400933977,1.0525748494344485,-0.5029323606937509,-0.7892106222974102,0.7933524856425039,0.2760631828351232,4.767141733536632,6.085993727167372,3.736215751772562,2.832082607586015,2.685412716313032,3.534634537083182,1.3974604099398238
124,3.057278938991525,2.1659224803145913,0.7476168724359444,-0.6180299310837952,-0.9525470725527251,0.9459755976683807,0.4345837233685473,4.48808438810205,5.530970468320317,3.014763201688812,2.1203410239712808,2.1398603572661217,2.8763414556378235,0.9743641984256363
125,2.478150403037722,1.5259868555678495,0.41538930702633364,-0.6753132049892215,-1.0020318116815365,0.9916425540337461,0.5340181269373595,3.8275610264989353,4.548504535908377,2.1223096307830445,1.3245658926777042,1.4705426082124786,2.0464850348919055,0.5245407856194209
126,1.749563868235847,0.8296547012285004,0.08822497402179909,-0.6707518395447941,-0.9418037852483487,0.9407721346685295,0.5697536935334472,2.8791192596644732,3.265032919187849,1.1481812525531883,0.5120933259137923,0.7471030921511995,1.1297925945643719,0.08843363120792962
127,0.9582744650159235,0.15057525810324662,-0.20499086923412493,-0.6075198746414527,-0.7892525851954622,0.8121139014623959,0.5451437782994284,1.7622665687743273,1.8304027220440942,0.18480117377565233,-0.25088126751006207,0.04007476355115337,0.2153156871332008,-0.29808089114017755
