,AF3,F7,F3,FC5,T7,P7,O1,O2,P8,T8,FC6,F4,F8,AF4
0,0.1717301671002188,-0.22918062297299138,0.049204528952375454,-0.00132608232263987,-0.2257692542992412,0.016706918021592094,0.08212378681040901,0.13167286078398874,-0.037048255758416596,-0.029665197468109788,0.1700063055022462,0.15352256566092126,0.06399764742413085,0.16446688212894092
1,0.40192874385211763,-0.562068550271715,0.8914986933358744,-0.0036468606038864435,-0.2390511825563808,-0.49880970111701584,0.8343537985841665,0.3953883035192103,0.21937176436479985,3.0315233083034085,1.9069091690765352,2.4464929145870826,2.4635349987609665,2.902867921912901
2,0.5349334869160194,-0.7573937291792167,1.6042770473204198,0.10452542911353119,-0.13136355147541665,-1.032996154386961,1.335753518052341,0.5441546840849891,0.26582172775637486,5.219566456758387,2.998974736458934,4.145765877882788,3.985948094406673,4.91680521339502
3,0.5603028231567067,-0.7779355462423905,2.0866142455751957,0.36435947730924206,0.11278230114774523,-1.5515946099033537,1.4686769742938017,0.5289860744670615,0.006523296551051337,5.940422280526006,3.091563836898326,4.887792396505136,4.111079095708552,5.72969989030404
4,0.48646176159016524,-0.6554586427482669,2.2451539561895446,0.7112969320136951,0.4354134738377025,-1.947547009579688,1.233444475996148,0.3541987758550104,-0.49360347148817457,5.038045861166274,2.1621478131111806,4.546316850080318,2.8039990934001553,5.181889036364794
5,0.33506487688698294,-0.46994311198192246,2.0135090172690338,0.9953041621424015,0.7239658955994804,-2.061135217723787,0.7410063622864163,0.07586271718518889,-1.0231439235267659,2.8308651925366317,0.5253820536819286,3.2513543704037415,0.5258418639567842,3.4621910158705766
6,0.1359967622535455,-0.3048058633168505,1.3829378836974422,1.0471098720203744,0.8570828163618236,-1.7404165947546597,0.1683438636188242,-0.21750564847664378,-1.3064182516574783,0.0018334910728369735,-1.2739974408132246,1.3435858098049656,-1.9282279003574734,1.0447503118932235
7,-0.07610562788019863,-0.19981201899497897,0.43002247891184153,0.7618441471556141,0.7582109759496384,-0.9199221247522941,-0.3068879599928418,-0.4351283116519769,-1.1229381716831972,-2.6198585351100507,-2.643520339809774,-0.720466222212161,-3.706324375066112,-1.4479694883556822
8,-0.26463405331410345,-0.1260987992050886,-0.6760923714527322,0.1622244421306885,0.43370057672871676,0.3158007856185633,-0.5684338627443083,-0.51429000226914,-0.41603650476859033,-4.313491173021852,-3.1386994753410624,-2.4849134031827713,-4.194689510443914,-3.415213406466776
9,-0.3947615854515979,0.0011581971046367788,-1.698652368188443,-0.5894190825181398,-0.022141998693310138,1.715571174060485,-0.5973071961710124,-0.44011765812988474,0.6559996481105986,-4.676569920205656,-2.6066524343264503,-3.601148600208882,-3.227154138258213,-4.432593629365885
10,-0.4392756912356542,0.2741732287865222,-2.389494144876673,-1.2400899165078985,-0.45911443283819,2.9085638114432757,-0.4682997716702311,-0.2480834153987258,1.7526980957371632,-3.7256699827925894,-1.2308380815621933,-3.8981934505051523,-1.137479709987778,-4.349499621707415
11,-0.38587490933957713,0.728102204740175,-2.5611656053625746,-1.5398075121131942,-0.7286223071292579,3.507971267071782,-0.3090760459203138,-0.008882551421497128,2.4625112826173527,-1.8620721677089835,0.5357347888219285,-3.402230859747494,1.3611603894932216,-3.305556168311701
12,-0.2434040634299122,1.2916059864010816,-2.1501312902086895,-1.3435761212950115,-0.7435778359402556,3.2408894334699885,-0.23861281320872693,0.19824229030114532,2.4550602069472216,0.27943357149650155,2.123860317622429,-2.3058491672712016,3.424743121447221,-1.666660356269676
13,-0.04366466132595851,1.7808893719470624,-1.2464051667517333,-0.6795810497713297,-0.5156002644850717,2.0597475288914384,-0.3104367146309019,0.3136118337661008,1.618370934049319,2.043574650910311,3.034891308515841,-0.9011440101610908,4.366546499124778,0.09575255948791642
14,0.16357747153710575,1.9496187485336272,-0.07555113175553063,0.24664626559528685,-0.15290730500439692,0.1919317207239607,-0.48490484609971274,0.3163446994363267,0.12672203381645553,2.957641635868424,2.998269151017897,0.5008556075895642,3.884784371645819,1.5433252180148507
15,0.3222503564076054,1.5832135607343067,1.063882093256162,1.1176024249161365,0.18193394887394548,-1.898023221600682,-0.6436255320119708,0.22805399199095605,-1.5924612846181778,2.8604054314153173,2.049139022578544,1.6411055286047798,2.153371772989835,2.385458421281456
16,0.3853364808828676,0.6040723657484219,1.8876776018680268,1.616474066337163,0.33855221621641796,-3.6304007691795133,-0.6419885807741337,0.10037367147368484,-2.988042989999672,1.9211310689371417,0.5040177026154576,2.3568268060370814,-0.25065852374407865,2.5382951655229444
17,0.3292368965612616,-0.8558888211872581,2.2087085241734803,1.545339371468492,0.24311071841952023,-4.482828341881448,-0.3793125595841511,-0.008211688880053608,-3.569874029867816,0.5514021395084633,-1.1524973386496722,2.593075253468233,-2.5520138612829304,2.1158035688812067
18,0.16256223553107552,-2.451928439016013,1.9874148618748042,0.9038390023790036,-0.06616780188144356,-4.1589932820247135,0.14286245022586208,-0.05684590216759764,-3.0847390101504266,-0.7524566483114543,-2.427919018637157,2.3867918454930415,-4.038725644740694,1.3631342171399192
19,-0.07346890045207138,-3.7059029366085277,1.3341753391037143,-0.10253488324734895,-0.4481833727191165,-2.696224018391893,0.8010886810073314,-0.038396449484045185,-1.6193035300083989,-1.578581593685661,-2.9736623832400606,1.835990432932195,-4.288922941759438,0.560010590986222
20,-0.3133836107200445,-4.150850727988965,0.46508712172116984,-1.1292166615453185,-0.7113295271033603,-0.47177031344019854,1.3815620029197537,0.019143792667552853,0.41068188144471335,-1.723553975254001,-2.679651693145974,1.0680126842244513,-3.288262236601963,-0.07110516646815351
21,-0.482739970491776,-3.4957487351545167,-0.37135346986344586,-1.8111453101548254,-0.6902409775181741,1.8999872637852657,1.6550298662247924,0.06646329490572482,2.3862345095811515,-1.2344473115265635,-1.6858971224594388,0.21623943612228835,-1.4057757310936572,-0.4227449900435558
22,-0.5171307920257487,-1.7526747354739283,-0.9704416261972619,-1.890775644156725,-0.31772744767496897,3.750252173649347,1.4682794297015178,0.05641684470709391,3.6860091916939406,-0.36322986153802267,-0.3154078539033898,-0.5928242254479708,0.7530735403937375,-0.5117518703349372
23,-0.38104309698435385,0.7235811830507216,-1.22533908561347,-1.30990759062113,0.33662339725272944,4.560831401775049,0.816074313511231,-0.032360524102865974,3.89400993159377,0.54186884027239,1.041046824727794,-1.2466239692853225,2.556466136213121,-0.444334471059624
24,-0.08249975646995886,3.3065938512700845,-1.1439897894446025,-0.2331366559716918,1.0780356290464002,4.124345417899381,-0.13783901139392576,-0.18167666706299695,2.9417093993091283,1.16433781262328,2.0448991705337494,-1.6546146315811818,3.543102895150562,-0.3559789636802454
25,0.32055125585278293,5.266174575384163,-0.8280139935322833,1.0046144091903604,1.646807141429844,2.6060743834160722,-1.1040835242084328,-0.3363354832521638,1.1338657149120681,1.3209608167010858,2.4949676408198465,-1.7613412947335403,3.5413763343377678,-0.3516782013711026
26,0.7256604899091166,5.984827077014058,-0.42552037430699446,2.0074670585586496,1.8074563754948805,0.4863578281613724,-1.7640149905784415,-0.4233056928907704,-0.9523747180355417,1.0054488032263282,2.356138307217533,-1.5624272431104638,2.6801116223084835,-0.4681534892045877
27,1.0052013701553977,5.155316675992266,-0.07676318027299409,2.4469584654045553,1.4356456999708278,-1.597229559215501,-1.8857020690058668,-0.3810906526035504,-2.660949679807651,0.3665100335137603,1.7333328334061682,-1.1153900171752362,1.3017079995511123,-0.6683310348110664
28,1.0386348304543596,2.894853244524094,0.12890236654328663,2.1665468326242574,0.5716403630392358,-3.0546855556943044,-1.4158411933693604,-0.18824853196875985,-3.476015476226113,-0.36318470404280473,0.8120716684980217,-0.535221560634146,-0.17819975784175768,-0.8646114534324114
29,0.7521667511319602,-0.2640231825073249,0.17287224119478484,1.2292295194756935,-0.5798017569761779,-3.5264764525473056,-0.5102387350021057,0.12062328164713872,-3.190688028059595,-0.9552799012024018,-0.20493535856980383,0.031243721944981467,-1.4071451212233652,-0.9572282916476115
30,0.15527255939195467,-3.5076796670163537,0.10135511430462162,-0.10449483470683221,-1.7048548203860832,-2.9839298653098885,0.5130762393252918,0.4592235183292068,-1.9672021463547018,-1.2575287626783216,-1.141155001554202,0.44890160527467265,-2.1808061391923395,-0.8709605635503794
31,-0.6396092512250704,-5.963588887430178,-0.0005768061139858952,-1.4580917709142376,-2.474132933139242,-1.7158166779303063,1.285039048620766,0.7147234951566778,-0.268845024643503,-1.2263876253982933,-1.8606870406667049,0.6421264073843836,-2.4561842887288963,-0.577807606843379
32,-1.4268166961132926,-6.946007009772819,-0.04421691767762501,-2.4517983448617615,-2.644138684787908,-0.20962087612588967,1.5222999346014479,0.7862501683390967,1.3105309578263502,-0.916007070076924,-2.261897400683922,0.6265978128298977,-2.3045344753394024,-0.10179239418336786
33,-1.9524240812538332,-6.153319793405537,0.029819928567461955,-2.8112718019060883,-2.1339918529559747,1.0277863723014289,1.1386408570387252,0.6233512527963369,2.257538333876223,-0.4368231777666356,-2.268653414727337,0.5073287245331497,-1.838773567717002,0.4898591221106309
34,-1.9884543625176565,-3.7595597182259333,0.2300307579329038,-2.4407975080683024,-1.0531889688145903,1.6454152934745454,0.2869345897725221,0.24998535832239357,2.3151833807115687,0.09320183573523737,-1.836314533367635,0.4366931127151869,-1.155439962839789,1.101140217048994
35,-1.4171382119926454,-0.3735290617945287,0.5088668010015525,-1.4428756942920682,0.3277514355411337,1.5578700177998683,-0.6883917541598445,-0.23614871868797863,1.561503293326909,0.5828560627538799,-0.9775523419906802,0.5436546274644225,-0.31777417085505827,1.620949249390915
36,-0.2966179874951466,3.1231154760750104,0.7746905125472867,-0.08284509704878887,1.6537723525960217,0.9528595800102975,-1.3753822687370205,-0.6907347671225703,0.3645169034955193,0.9763176559409261,0.20346823958309604,0.8612033478309289,0.6185894166846563,1.9349242861922196
37,1.1208625993775188,5.813600430822512,0.9178036654390465,1.2876650638618612,2.584768210665695,0.19739201968504325,-1.4522097288870501,-0.968593326928389,-0.7677032772282492,1.2395818360658788,1.492017488990801,1.2853443347510158,1.5602552359487802,1.9392432310858774
38,2.43596788281999,6.993836389469765,0.8445028119085867,2.3251899435953924,2.88812890865526,-0.3196961523440316,-0.8203997177208644,-0.972921346019256,-1.3848113563480784,1.339573927015243,2.5824202855138414,1.5911285316738992,2.3460130197678857,1.561237418848281
39,3.2111092475925433,6.362411392349038,0.5108954431831478,2.7812970093164697,2.498123518799847,-0.348359431737672,0.33860094382183004,-0.6906731674585797,-1.2655465660781238,1.2338668277592681,3.1462401179667845,1.5102859320366566,2.7608323258269087,0.787451569690365
40,3.113411266469676,4.101198114323331,-0.05291419123805774,2.560730170287716,1.527250916758587,0.12013243580508205,1.6100140362711375,-0.20077610724950393,-0.4985883987187733,0.8821471591119272,2.9362859327795654,0.8482865463852468,2.60063408662765,-0.3078503166304506
41,2.045776471635232,0.8249168463064391,-0.7369643747718818,1.738525845849466,0.22943667391809872,0.848236882354582,2.4849724360744374,0.34899324236125445,0.5571162881120835,0.2773096252641621,1.8921399949474758,-0.4028772471398079,1.7668031396170272,-1.5475191107461037
42,0.21628432632724987,-2.5865195686062914,-1.3693211695900278,0.534468083629403,-1.0716500120481183,1.447680619834472,2.546747082058094,0.7895349097962286,1.417164666566041,-0.5191898778635767,0.2031093230213092,-2.005943663165675,0.3489399452706038,-2.664792922449348
43,-1.8889319908450541,-5.22732718961135,-1.7571556364491054,-0.7467134729957565,-2.067589701720343,1.5403223490072995,1.6380177670129907,0.9863707754810311,1.6664133207589085,-1.3595514490625795,-1.7070443874529857,-3.5091416229995525,-1.3484690542532594,-3.353398856920832
44,-3.633586665222623,-6.411680640619805,-1.7428587446149735,-1.7935324768582328,-2.5404603573816735,0.9234549806034017,-0.05395865253325076,0.8845185042706698,1.1291210136073129,-2.0270277892213437,-3.2836435159973365,-4.370654302264837,-2.8620184293583315,-3.349311652526924
45,-4.427620634828813,-5.858744667013328,-1.2601160179453754,-2.3648165438658886,-2.4101001516127805,-0.32490641894957273,-2.031433546229001,0.5263536335515727,-0.05119659691298049,-2.2921395385563046,-4.009018305945039,-4.143637267708537,-3.7022305114093053,-2.523439472599003
46,-3.930616907295897,-3.765764696402935,-0.37146548125918954,-2.346917351954771,-1.7440846668951815,-1.8448214207814246,-3.635730464948139,0.03600003662537044,-1.4542996442257954,-1.9931895484654376,-3.58192688034423,-2.6597561661877673,-3.523406154562055,-0.9537513168858445
47,-2.1910840313905826,-0.7485163960269142,0.7287712637150483,-1.7773217385070907,-0.7312678682684752,-3.1039399300156987,-4.266672646588406,-0.4242300874939779,-2.534329199267817,-1.1121340432774798,-2.0439255722630767,-0.1411964636419002,-2.2690500788369525,1.0547363697669707
48,0.3340845274122067,2.3348842528857765,1.753660414897197,-0.8292279021520215,0.37158838718155945,-3.5831761052240476,-3.5984599689366386,-0.709785568146471,-2.8246344748973513,0.18689344537875485,0.19970825196889333,2.8108367171183986,-0.23262221829585292,3.020966916197454
49,2.898223415203559,4.62784041446448,2.3993279008057105,0.23848147321834134,1.305187922619678,-2.9739940507244245,-1.71543806275652,-0.7422938568456485,-2.120607370352921,1.5793205580592944,2.4834045836641034,5.363414954965376,2.0010542404334695,4.4060602920932155
50,4.6922149917593545,5.517920876855868,2.4379173509882537,1.1523361425147503,1.868792068262653,-1.3152260609351332,0.8849364492838089,-0.5334551489758854,-0.5718510242308068,2.6642882756321398,4.084114823084496,6.698919338491414,3.7263925347478724,4.769783254062481
51,5.109997554129663,4.8086196491931545,1.7993589171934878,1.697046879015184,1.9631099078523755,0.9843366845590963,3.4308776708622797,-0.17652154219184832,1.3526301231169504,3.088958777895127,4.46007949522232,6.285946527225406,4.34892616993293,3.9179567576001695
52,3.962677392762146,2.769841524875019,0.6127514106644643,1.7698379938949242,1.6062409895767962,3.252979004268856,5.116625726240577,0.19067552871326307,3.016698762367014,2.6721577676095065,3.443926894798345,4.082284338888777,3.5996929508081092,1.9898186396874542
53,1.563379419933844,0.05134658376260688,-0.8122728015793955,1.4013204369892236,0.9206360472182448,4.762829157372594,5.366889400101922,0.43699465785775216,3.834675012899192,1.481871324294339,1.3188690208353377,0.5937769632865003,1.6526641638479813,-0.5513659588485824
54,-1.3545121081947245,-2.5161835049367847,-2.065784244589026,0.7376418737589177,0.0958915823714013,4.97011723708461,4.036161347587808,0.48460138415058746,3.478103210036327,-0.1663654746464585,-1.2560774799862235,-3.2431337295874796,-0.90506078922961,-3.0320314740940284
55,-3.8664791717756883,-4.173446614962886,-2.7597442444924187,-0.009696389023007354,-0.662236323517516,3.7082848817551217,1.4727679224965322,0.33423284349807386,1.9986738388344434,-1.7967402736525007,-3.4539086683665365,-6.328780409550441,-3.2503477975145865,-4.758910466588171
56,-5.160937641535272,-4.461719368691056,-2.6553665881065753,-0.6300958938366185,-1.1832059686362828,1.2663459061151745,-1.5782487422515776,0.060700880119113315,-0.17676597971172395,-2.9214341463338185,-4.553941165237334,-7.737736197874411,-4.594641351118093,-5.230078327242744
57,-4.8155601116022035,-3.3581275952946696,-1.752668450460605,-0.9751805601366594,-1.3704426183097194,-1.678630868100799,-4.204819280056011,-0.2186394869684098,-2.378861987636484,-3.200929506791575,-4.18896561233333,-7.017636215925324,-4.456884918812367,-4.298144617640743
58,-2.948167581143095,-1.274187303802984,-0.3076440752052334,-0.996284074453724,-1.2182621540820273,-4.258236850335303,-5.6157650746013585,-0.3899012663164986,-3.911847044338462,-2.559880367171103,-2.4771866318604463,-4.347889096879118,-2.8414853014934534,-2.2283428637565983
59,-0.18493149233168948,1.0826851757877332,1.2356950710010368,-0.747596907705246,-0.8040269824187597,-5.678801656863983,-5.391919694834685,-0.3856579877117059,-4.2805531175927465,-1.2153517410046024,0.011233787522857743,-0.4997179817050151,-0.2534801297465318,0.37370848086889946
60,2.548405337828218,2.9410898182389613,2.3823565011969112,-0.3562689955383833,-0.259554267618248,-5.472906185651202,-3.6173552488236322,-0.20906434359583145,-3.352650197579933,0.3955232682813181,2.445522626807165,3.395850559488193,2.461083828117728,2.746590405393158
61,4.343051681868446,3.7163790350724377,2.750408827372672,0.028172137009454416,0.2686549977158188,-3.6553847874059757,-0.8480776706732389,0.06928071237131962,-1.4029191745033494,1.764895806549995,4.0190173502505555,6.200021469560358,4.398780083816978,4.212351968275383
62,4.6214546378531915,3.198320653481097,2.2066373342910865,0.28633439138538486,0.6583587859074024,-0.7320262400663563,2.069688912449579,0.3397377090957723,0.973810661532756,2.4878970863415546,4.227544211812795,7.123726860956079,4.909044773217009,4.391284823754776
63,3.3373656945805585,1.6135837412523308,0.9239875386047802,0.3651235409895703,0.8390130194101016,2.4447852039712634,4.269627458555926,0.49595595785884283,3.0511866982369917,2.39783649437438,3.042081055871659,5.972088717746095,3.8211770983632514,3.3186676374009694
64,0.9885709243932186,-0.4579469849353868,-0.6648419197237894,0.2862420154562754,0.8015140962280056,4.930918210111822,5.133996782139959,0.47492738588929223,4.199233004826126,1.613416924163413,0.9131066954800215,3.194356739079777,1.505719445784119,1.4221989210651844
65,-1.5641963636155083,-2.2849683383943074,-2.0077888472225784,0.12643107850590712,0.590035066538775,5.9778993368743665,4.474172461132348,0.27989957021285083,4.078476838861833,0.48099627327856725,-1.3955158301197395,-0.27652919531697795,-1.2538150484690092,-0.6329080022804875
66,-3.4082178212058163,-3.2362810122915673,-2.6233246684226352,-0.020715812998008627,0.28115329209764656,5.263783659808161,2.5685800424347947,-0.02185842165569236,2.73998311122692,-0.5654085887263414,-3.083128711959349,-3.339073710026772,-3.5345950089507774,-2.1771353789528862
67,-3.9075551668329,-2.9962287744024847,-2.274583499255815,-0.08526215987039884,-0.04144932882828642,2.9951543893744113,0.052633046761498055,-0.324815339318573,0.6025673953104674,-1.1720712828525506,-3.598595748964982,-5.085086277652815,-4.596108390266838,-2.7657182264287403
68,-2.930035281726841,-1.670232577011331,-1.0641692724549159,-0.04773559835256789,-0.3084763124477483,-0.1524701781417752,-2.296200610401904,-0.5241708830522667,-1.682121431992249,-1.1961602182350268,-2.8317506495467093,-5.085660759910674,-4.134407338769913,-2.322255029828321
69,-0.8893946357771999,0.25574539612280567,0.5887724192694226,0.0575644573098786,-0.4772476193016101,-3.2383866669313117,-3.8036100553262995,-0.553313433304752,-3.4315896070504155,-0.7481607901080628,-1.1403611816959556,-3.506717452130292,-2.3778667271829685,-1.1464450367756602
70,1.4129664906657082,2.0875119405559115,2.0868879370488607,0.1627251704472576,-0.5334249133777891,-5.3422219614627116,-4.094556310799745,-0.4061883115737407,-4.137735649719665,-0.13011422443048293,0.7958578670167268,-1.0200874448110786,0.008696230811891373,0.21491592825775202
71,3.0884630602110588,3.1667149463768918,2.86383619554581,0.20027149686869938,-0.4848908630490516,-5.843229516762233,-3.1825966858834613,-0.13718878457263042,-3.613313353588332,0.3045043382562501,2.238082860459535,1.4525571522035094,2.174411419982004,1.1844544043969445
72,3.493306786947434,3.1017344182581223,2.591793348298793,0.1360628539686618,-0.3526165001512729,-4.607220970652389,-1.4334957648017714,0.16028668252257258,-2.0381370041793145,0.3112867330309724,2.6683531974441137,3.068824263843506,3.393630080203517,1.3769637799966232
73,2.469422812603209,1.9051157614385252,1.3118002162087619,-0.013246534995145635,-0.16315682967988718,-2.0237102148421555,0.574381046515411,0.3878765396707745,0.10463617159241055,-0.13142502514824278,1.9809406014621032,3.351179911370872,3.3228780535024667,0.7450719037091053
74,0.40511838228716224,-0.010087775411818331,-0.5638018679644303,-0.18579887931810213,0.05475967023055173,1.1175079499976863,2.2402682323617307,0.4762110825771479,2.1789703270609415,-0.8048055784874402,0.5133771690360034,2.3314126894325287,2.109688258153857,-0.40653300679579757
75,-1.9073921733156278,-1.9735752540649008,-2.3832613057934315,-0.300981322468925,0.2700374783339833,3.8711521031924545,3.1189734864452503,0.40692264114250776,3.585796450618765,-1.3382316639604541,-1.0934313470341037,0.5091897291873612,0.3157878083661669,-1.5434390832062608
76,-3.5657676866251906,-3.2907965233956586,-3.479553474465533,-0.2956329568243255,0.4481967731099675,5.425840031149955,3.034517025005962,0.21579501010117566,3.935672465433657,-1.3708436799547832,-2.1514844190944964,-1.3531843169276905,-1.3129984816855167,-2.1142604024281337
77,-3.895062943668141,-3.4849684432054637,-3.4096584620971595,-0.15457643630463508,0.552890352827806,5.3479524767629805,2.102924889154737,-0.02286928797900951,3.155074376549915,-0.720871610514992,-2.1995458466681446,-2.5207534971675654,-2.1405825191434404,-1.7734482861807492
78,-2.7050460715387197,-2.4645281074988787,-2.1235722162747193,0.07793734544344356,0.55195514037173,3.7050041163154424,0.6680848187598257,-0.22412798229573727,1.4980402287723082,0.508384556626648,-1.1890812157055894,-2.554407028061667,-1.8855685800244042,-0.5294466969689783
79,-0.37215631602187954,-0.5582846647512385,6.675152568039514e-05,0.31169527079754356,0.42736850991601594,1.0322882564576474,-0.8202999168662014,-0.3222351193401222,-0.5371378750890109,1.9343868199654672,0.48983284541262334,-1.4628215865382284,-0.7242380736302015,1.2393718792549693
80,2.2856696725124244,1.5940188597613287,2.26916649634399,0.4446005200189975,0.1858083768006822,-1.8435996633539071,-1.944639704467543,-0.29214199205221913,-2.359383074606446,3.018521294815687,2.153933317093105,0.3128891996459212,0.786951684873467,2.909848127404438
81,4.298084529285823,3.2585874340675365,3.908376073062967,0.4044519922092633,-0.13494026898424058,-4.065902750932773,-2.432356363262309,-0.155817614463259,-3.458856126472653,3.2653495871112903,3.0895935453673418,2.071701530336492,1.938886496639704,3.8367423244205403
82,4.892510467248912,3.8581111388052416,4.326575447914991,0.18185698064312078,-0.46798075034695247,-5.009595263336746,-2.2153893594268252,0.027960330259183225,-3.552417953138792,2.4243759916845664,2.834001429702866,3.116709435533036,2.159453567684129,3.592692322386648
83,3.7797519621437203,3.1706261577315336,3.328611728424377,-0.1594791685919534,-0.729523220551795,-4.462022225208555,-1.4264783710392535,0.18608925563012593,-2.658621102643824,0.6157995461786778,1.3676635442184124,3.013998476158991,1.253241333541082,2.137468363671125
84,1.2714825093807893,1.4087217142803978,1.1954966579236987,-0.5005671485368799,-0.8396048627846284,-2.6684596832103344,-0.34081194650869717,0.25775370118753893,-1.0815680795291966,-1.673197836335348,-0.8565930609714221,1.7534757158743388,-0.5026472835142547,-0.14694743727285672
85,-1.814744914329752,-0.8485211306440097,-1.398293386754966,-0.7079046601406369,-0.7461705631711005,-0.233519931110886,0.714887872714866,0.21597830125149695,0.6898042923565685,-3.7287142587792417,-3.0625213702032337,-0.2448779474879121,-2.4467151598411525,-2.571126288331459
86,-4.432012612869878,-2.8486548295588268,-3.6053733983643803,-0.6830832849351663,-0.44530197477246153,2.0843205621246605,1.4578406022272157,0.07691140548491716,2.1351682222906274,-4.843391264127435,-4.4254827611277525,-2.2802930549902913,-3.7756630235260493,-4.364706228318476
87,-5.666429662725235,-3.919311339827475,-4.690146225473095,-0.4031610613321567,0.009529367870253724,3.615026842651187,1.7231235226507569,-0.10613905098107752,2.86132235985076,-4.563096721398015,-4.374488026420822,-3.6219037009605235,-3.852849188219588,-4.936309762864059
88,-5.0585957695708075,-3.6963444748404215,-4.280268320943674,0.06368603426284228,0.5139056933792546,3.97728185528125,1.4980735606540445,-0.26179985567144326,2.7167539194864756,-2.8596523298665626,-2.811136907884766,-3.7712710311340083,-2.4674245694416013,-4.076236888312446
89,-2.770798895002172,-2.2490309327153244,-2.4975821423363906,0.5744546267942376,0.9351307468712132,3.175143768835571,0.9110398520822658,-0.3263699526576084,1.82702066806289,-0.1659126896472293,-0.16463675098268446,-2.6434515511890844,0.05498908754372282,-2.031217690794602
90,0.4599791188592831,-0.059078890020554324,0.0780957259877728,0.9556702949099191,1.1467353145661034,1.5662167977880297,0.18081680454230825,-0.2674239674187468,0.5408047563324644,2.7436554904409243,2.7392801324201486,-0.6023123221127863,2.936231127470289,0.5747299302954487
91,3.5685518563417693,2.1404382738160836,2.601570364648751,1.0618332251178701,1.066167125294133,-0.2803317647821782,-0.45668218882271483,-0.09704050284579864,-0.6947826927654178,4.990432056402465,4.951306067473934,1.662861410136763,5.199744509827173,2.945792974207524
92,5.523134923134098,3.6123690501605865,4.2463540941725055,0.8283722959937788,0.6847414720203022,-1.7825697422639202,-0.8222790937897412,0.13031556425795882,-1.4878319608473838,5.869755501914451,5.718959897501561,3.376674299092782,6.008117498460309,4.375366610946694
93,5.677322757449777,3.865300767659913,4.483334869969287,0.3004373029003092,0.07963514962434307,-2.5325646025338573,-0.8459635732837524,0.3351689317911937,-1.6324353947210382,5.077991004085113,4.743700745007529,3.9492314523493075,4.965554021955267,4.4735850321867074
94,3.9907130250892653,2.820679539091656,3.2584721072921337,-0.3738333124031569,-0.5983375283568819,-2.4104971836618416,-0.5823071621866077,0.4403051722122379,-1.1720330347867653,2.813791545383061,2.2866379906976717,3.1846728911343085,2.277248155081166,3.2851927268876433
95,1.0418114189023364,0.8396564295024457,1.0083797796833296,-0.9854642046554429,-1.160878731770631,-1.5935604075530492,-0.1843128259060095,0.39883657906556486,-0.373198964017215,-0.2793119151541204,-0.912473068124192,1.3527212136359332,-1.2935991818791313,1.2602156845972567
96,-2.171245820179102,-1.4001972448329634,-1.491629306342527,-1.3301481140423215,-1.4344578490819075,-0.464536273280415,0.15591679003948342,0.21314388859722666,0.3813716668133922,-3.3096394833557534,-3.8742954243278014,-0.9031899877148075,-4.660580117119748,-0.9094282163629921
97,-4.573149695970195,-3.136566010609207,-3.3946658728002292,-1.2765248432503062,-1.3145324724558907,0.541331643796442,0.2802469216827805,-0.06261477982603673,0.7430553751156297,-5.409216403977057,-5.695527937704431,-2.7904188438974447,-6.763740493387443,-2.5290505545546504
98,-5.37855474313902,-3.7830755095558315,-4.072347880553084,-0.8145535706105359,-0.8048748127223475,1.0938708339679812,0.12637100260707293,-0.33835374378887684,0.5364597539011611,-5.99374582308565,-5.835555517457501,-3.6463553091685865,-6.917115204846016,-3.133209256228235
99,-4.357075393285496,-3.129207007509549,-3.32769142357631,-0.06662503042572815,-0.027523454209511827,1.0746743411451876,-0.2440215605526649,-0.5177527499880018,-0.16450016490186728,-4.929768687879745,-4.280717585607918,-3.1741735110786733,-5.037210672498412,-2.6318414863881268
100,-1.9051174631535146,-1.4104650190792125,-1.4574892313841783,0.7445225164539727,0.8035121816940134,0.5988370972187983,-0.6628548372006725,-0.532020985560191,-1.0546084931980055,-2.560109516562762,-1.5357911304798937,-1.5509323992658828,-1.6754951229134634,-1.3225297768039288
101,1.099032856548684,0.7751866081804675,0.8567467186931658,1.362931653128907,1.4405786945891987,-0.05040510412576975,-0.915617968007262,-0.3658798092276413,-1.707153431629306,0.41471709460398426,1.5492637601148498,0.6320068557963001,2.1559906620432994,0.23229532663014357
102,3.6049445399577857,2.6751292874764747,2.790479217195825,1.5812431304254235,1.677281173594715,-0.5451059118618257,-0.824594438822116,-0.06599484450265915,-1.7391315174451556,3.156144320404491,4.055495693271068,2.5771703035883946,5.307420518212338,1.417699948505007
103,4.7556496050543755,3.6415418632876055,3.665543758033984,1.3107827178467177,1.4170817420802286,-0.645661938357996,-0.3261863394520219,0.27213605735517066,-0.9728156978152626,4.935917815084067,5.281097766581586,3.5654096067785708,6.854923274263403,1.791984540363965
104,4.181583041156033,3.35238806171935,3.1859827709157504,0.6160270047312191,0.7123027976004215,-0.2937686423083493,0.4872404643697607,0.535246633681661,0.46767052153132416,5.336284038518367,4.945410081637236,3.2159386417032687,6.385718103516098,1.2456084705775012
105,2.1214919210337992,1.9179620462526303,1.5382435333445723,-0.29967431076535217,-0.24208917664016677,0.36781719752770264,1.3801537690183168,0.631032041547211,2.16614560744305,4.345278483727627,3.2499815164557453,1.6285788870679305,4.113356329110026,0.03704011437541766
106,-0.6696457342206212,-0.16240115426785792,-0.678402053508604,-1.1544775385374832,-1.1615989882599462,1.0538593785240922,2.0420681178525757,0.5210058915880922,3.53556895237319,2.327089557046584,0.7855416602484409,-0.6443591324333733,0.7900571308523884,-1.307011300559126
107,-3.1909265225443506,-2.1763603219110377,-2.6656318665729226,-1.676308307434124,-1.7580488697604775,1.4498390201294513,2.1916419895249373,0.23553046520409396,4.015225572203029,-0.11250919826742843,-1.6757649218537318,-2.788849492571379,-2.5490159764781337,-2.1911766234119536
108,-4.547634926407687,-3.4445014133930814,-3.708052176623525,-1.6907985383360298,-1.8317772302355504,1.3365971451457956,1.6822360211790883,-0.13488134395858262,3.278303655097295,-2.3156202376722277,-3.4290248889856603,-4.016498723687555,-4.920473572426001,-2.178997834089674
109,-4.261638540849933,-3.550287682514972,-3.424074710749885,-1.179923370244731,-1.3399046334131761,0.6799357107159301,0.5709625524095745,-0.46946892079831526,1.3758843364819733,-3.755258056738429,-4.044199785496338,-3.8470034981018095,-5.694741916577979,-1.1658881724502257
110,-2.4329546440296927,-2.475494979308543,-1.8982147107333418,-0.2913527029858678,-0.4167210874178305,-0.3477801522218298,-0.8767564959149877,-0.6580947577078461,-1.2390007905866642,-4.159792841903022,-3.4702976345316534,-2.2849326941650205,-4.7693759977655,0.5664805246168121
111,0.3011599620079361,-0.5970928778521332,0.3502031993173858,0.7055682033777521,0.6628020840583485,-1.4218974726022866,-2.2542598593170218,-0.6387455248674752,-3.8248465240825213,-3.5508946369612047,-2.012108205818041,0.17308397069905382,-2.5646886278068672,2.436520602781772
112,2.992088939106309,1.4495715747608298,2.549184353502257,1.5037235586753563,1.566594140526698,-2.1761392063177905,-3.134662672646299,-0.4184237489726593,-5.57315086850978,-2.196729762440922,-0.1988660152847541,2.7046519326884755,0.14606012145113814,3.761646645498123
113,4.709514749189553,2.990609253478642,3.941816078934893,1.8551754034655459,2.0101303113417988,-2.330302126424788,-3.2081119651448007,-0.07013007363127514,-5.869085134342566,-0.5069543912414711,1.4025546759799121,4.44362127458195,2.505895240077441,4.000734635137856
114,4.859474831045875,3.5389471370871513,4.045610268607858,1.6497370021036828,1.8481580590018203,-1.7900848705082424,-2.389783784567082,0.2927650853618301,-4.505277986777067,1.0912931821096257,2.364500740164523,4.778949412129068,3.8483613069661993,2.954440882572512
115,3.3819846222804517,2.9486720626259726,2.8140750755432875,0.9496213018072309,1.1229620384813952,-0.6844304633410935,-0.8608399464353593,0.5553957420792602,-1.7743031815379848,2.258879712025621,2.5101767398052233,3.565825933580127,3.887511346004444,0.851519184632708
116,0.7634259358650431,1.4492180541247317,0.6469754930575997,-0.03096105415218047,0.052620475112777045,0.6721834733174605,0.974380840203984,0.6396122269266826,1.5968356636695125,2.807161558282183,1.9322428289250866,1.1760037779851504,2.7691911390513013,-1.7111834366516827
117,-2.135895645957793,-0.44659510002261354,-1.7506349353248787,-0.9942631913727531,-1.0374017235960746,1.8792548504027666,2.6041749056004986,0.5282391248870728,4.655236240579818,2.7109380852579332,0.9242864824982737,-1.6285928869221333,0.9795394570793078,-3.9562264595583545
118,-4.375502313799085,-2.123560092719454,-3.6085004303924855,-1.6528743149263687,-1.8170541769444204,2.577689616910314,3.5628956456217566,0.2675248832813068,6.510268673374753,2.0811102058406297,-0.14106433851116648,-3.9530399831086775,-0.845855249001628,-5.177314807089059
119,-5.247027467484269,-3.068910573400955,-4.346045327286733,-1.8184167288205362,-2.0552350882689794,2.562679198121561,3.573311533372693,-0.05197356198127726,6.609642164622892,1.114899601401348,-0.9404580917188261,-5.066973137552495,-2.1400200211919644,-4.970032603045633
120,-4.499542873182653,-3.0315248586885053,-3.7558345013633523,-1.456809545831078,-1.6904169594374845,1.8454572139715775,2.6320454854928985,-0.32818108021378,4.913559578351183,0.04175803729539689,-1.2919445343464773,-4.640465061515454,-2.575986197611066,-3.3641978230076752
121,-2.4058101610282665,-2.0856521756138076,-2.0571706240657055,-0.6934387204355914,-0.8460302722665898,0.6452782562309389,1.0104437197103096,-0.4817102537126982,1.9094259644613525,-0.9226113318581901,-1.1864440205766262,-2.8403684809728182,-2.1407680053086438,-0.8148320769019705
122,0.34610124346883486,-0.5845349831908043,0.19215391375145277,0.2316751337029023,0.21313934501148693,-0.683583177143067,-0.8292450784067589,-0.4795742502869669,-1.5383476845812745,-1.6091670833230103,-0.7580536967159383,-0.25962038034239887,-1.0989513843190462,1.9429963043305163
123,2.8919786899209132,0.9729121632791308,2.289716529063047,1.0424563872714117,1.1678351281779478,-1.764058626637973,-2.3749818707116774,-0.3411320191444968,-4.454655583420854,-1.9158298423952715,-0.2133162050257887,2.290148121822162,0.12905496605344854,4.125094811626562
124,4.47577569485645,2.1119312313532355,3.6183538635384007,1.5126283609656677,1.7450567807718116,-2.310395023799303,-3.2177848004058958,-0.12588856918060584,-6.04950753715313,-1.817250876248712,0.24986432889816362,4.047452146577028,1.1236627614206816,5.1378458880785
125,4.6827577410158545,2.5296079875486535,3.834579009854542,1.5312582721810284,1.7996617975963634,-2.2080265887552892,-3.1679843610249416,0.09077843427340894,-5.948277785600795,-1.3648000661452737,0.504695167307198,4.539002621756263,1.6016566755225514,4.749793796731503
126,3.547747928940095,2.173983869762039,2.9567130259181527,1.1283936919708135,1.3514472590423767,-1.5360913751485914,-2.299794908474566,0.24422906519395132,-4.284922025912448,-0.6756625099704453,0.5218543151949483,3.710115381110503,1.4886133648566497,3.1437416189414056
127,1.511072462519453,1.2350179157168952,1.3311737043086147,0.4552043783617843,0.5681042043722047,-0.5293012808071053,-0.9134722061699296,0.299999911712606,-1.633720519020348,0.09009752765668019,0.35778554000669294,1.911385624327186,0.912585345620299,0.8390640682063307
