,AF3,F7,F3,FC5,T7,P7,O1,O2,P8,T8,FC6,F4,F8,AF4
0,0.5566903844455161,0.21134334901045648,0.41884995421589644,0.004622678026557469,-0.09330880366733205,-0.14068671714311815,0.00596249849437534,0.22692948650226066,0.04085536471510509,0.4555470524162401,0.508430866553864,1.1621116100863433,0.5451970557237376,0.5879910928437962
1,1.2651237390776264,2.1277138153522452,0.9284519924304176,1.2246842077392908,1.2507012936191184,1.9474068723758085,1.9271025553295742,-0.9375807757338501,-1.7168621516600384,-0.8270696377990732,0.28184675207959037,2.0457152565334575,1.4311437589920237,0.49223228532115587
2,1.8706615188376163,3.629419321009708,1.3566931287341415,2.186246757946674,2.289545939720131,3.4998646161271925,3.34178697746721,-1.8535462052358205,-3.1008930845615823,-2.015462047652162,-0.08148197919511373,2.57397934786725,1.882961849863278,0.3832886589057689
3,2.444870558069328,4.502483820583084,1.788105965285385,2.746401374144441,2.8170895727344667,4.106303246685043,3.9276614746492258,-2.273386965298349,-3.781803277104584,-2.8651114637021364,-0.49449535441361686,2.7796537207564764,1.8013485096310364,0.42295853659948285
4,2.9855803200365143,4.643258641653056,2.2474531400702773,2.8405256358439988,2.750242579728159,3.6244865734048046,3.5973586364304206,-2.090212164029043,-3.573162339935138,-3.1612060945400753,-0.8244935619789605,2.720486350530108,1.2599771949566583,0.7010621744030889
5,3.3823836985980824,4.058379076860029,2.6609661049391558,2.482686069056591,2.140623185292164,2.217495226224566,2.506551315280135,-1.3688331284689041,-2.4824231969109904,-2.777304365047316,-0.9374705078732911,2.4323820153876823,0.4707007451810163,1.187246886622342
6,3.4323345907839267,2.850167529670815,2.8581073043630227,1.7516339721879461,1.1530590347438512,0.30128734788972816,0.9878517572187268,-0.3255233763344843,-0.7264737784569805,-1.7292320318806884,-0.7530736748664164,1.9051317178287743,-0.29908471786538765,1.7211422166371595
7,2.9071661851965978,1.195608496183082,2.62077225179458,0.7693756034344974,0.018583899368501924,-1.5809323251752383,-0.5623331743711665,0.7374480742049523,1.2987060658683829,-0.20241579969740806,-0.2883296113626749,1.0941449903930351,-0.8254278564966242,2.0504169111878063
8,1.6542781503901733,-0.6749138663516178,1.7702036961829695,-0.32014029394927096,-1.024006231588678,-2.9189521872929713,-1.8023337318322685,1.5225187401468452,3.0966173734096376,1.4659668581657321,0.33046771490616555,-0.03309094910112234,-1.0052453971462867,1.911749101441919
9,-0.3019072007193744,-2.4974076289280314,0.2651305630637334,-1.3672964417511906,-1.7819369341582691,-3.3816443423074363,-2.529121441909858,1.8249934388801279,4.186476313617574,2.8564416365580674,0.8981125135128514,-1.4334877855131756,-0.8824489054754341,1.1337503371638789
10,-2.6979440462669135,-3.995594231498319,-1.7256993144882506,-2.2275852329812436,-2.144281068204183,-2.905185300677576,-2.7040215960018386,1.5916936161198225,4.232333098524087,3.5767112095282108,1.1975224013313814,-2.9370098819325965,-0.6131926528231744,-0.2710539623483206
11,-5.041663562926358,-4.909104523932407,-3.811755015262218,-2.7704908389393634,-2.093061479750429,-1.6983062369098163,-2.420710878191238,0.9322740516674308,3.1501798596477544,3.3820613066521976,1.0820562793969772,-4.237817422145432,-0.3852247103457517,-2.0606946553289607
12,-6.707921123070267,-5.032147610258942,-5.449226903665508,-2.891581388407895,-1.6907896990968494,-0.165651348488984,-1.8376365271758828,0.08008747255793558,1.1575221883315998,2.2678047252272724,0.5425304504677345,-4.9464270464191955,-0.3255744152646228,-3.7905366144958528
13,-7.104821546471305,-4.260459444180517,-6.082938687911536,-2.5308734928012733,-1.0521960170164637,1.2243652877842208,-1.107747742533653,-0.6847637232615248,-1.2584222983476288,0.4979830439644048,-0.2696953868416601,-4.699375847652168,-0.4366689881917541,-4.917428935363605
14,-5.867601665072164,-2.636614030102648,-5.3259958825246985,-1.6956363625204869,-0.31110895488975104,2.0843826359229785,-0.33469670411497277,-1.125634912584486,-3.455398854620997,-1.4485774494178492,-1.0786139201037488,-3.2978310914654423,-0.5904246930936492,-4.959886974518515
15,-3.019750863552511,-0.37763978351167315,-3.1208971252301696,-0.4802427142500262,0.40744272852339775,2.220239480925397,0.430926381615175,-1.124011637714927,-4.808508090399099,-3.0075207710332434,-1.5723814926582311,-0.8281490192349009,-0.5864266943731583,-3.669526348972066
16,0.9584823917628241,2.1321465912083233,0.17745922804579345,0.9277610888356189,1.0039989078425826,1.6769507921047424,1.1617877285454599,-0.7147756377133655,-4.8932319747366675,-3.69907251063182,-1.5177185922456116,2.286063898930743,-0.25290192496514247,-1.157356361639335
17,5.192722794753221,4.394105688322427,3.8386737544793563,2.2652738809624204,1.409929574331603,0.7071687204548098,1.8124756292958855,-0.0708365874395228,-3.623296442487616,-3.2863287327003836,-0.8593340497078897,5.335566381576887,0.4512296321359455,2.075313406341207
18,8.609086870834963,5.892492477664228,6.920250751778931,3.238921921637607,1.5853856661342205,-0.32414406463483675,2.2932262471119214,0.5577212960958939,-1.2966938785938893,-1.8673557668438223,0.23546115700077674,7.484843267360985,1.3795313888366345,5.2271889473361774
19,10.218378202174259,6.218697165542187,8.521914287263606,3.592422866328458,1.5159473374459398,-1.0652908078518608,2.477196532189831,0.9299829495877161,1.4712135860218063,0.1359275323385754,1.4107750658698914,8.005481058658203,2.2183970785161398,7.397517025000333
20,9.412694178500235,5.191773817013109,8.060155410320181,3.18044117184711,1.2124842193358114,-1.2918556717315948,2.2428931747209373,0.8975704111942765,3.913906704000362,2.0969372374601662,2.2316652353136304,6.518120091857555,2.5874017986873,7.847502326797839
21,6.183784837269058,2.9386279100495973,5.477340884689944,2.026801778730905,0.7148850172015537,-0.9729153669284215,1.5353024620990894,0.45730886156782863,5.333086968290169,3.379601354706468,2.337144654853241,3.164087108096577,2.1890897544903263,6.246489449776037
22,1.1870805924769015,-0.09748438470184945,1.3119058883959547,0.34507264453148384,0.09606419309431811,-0.2702871480152463,0.4180386616359669,-0.2447151863697076,5.305852041985418,3.5485736251932187,1.5844921247094363,-1.3603090362104489,0.953013632242676,2.822044073385313
23,-4.384057435401516,-3.234886358483535,-3.4062046971039606,-1.4924404114617948,-0.5398272006593086,0.5257972568496152,-0.9104819841829621,-0.9598067483545518,3.815515503272903,2.5237506164981895,0.12991631968545386,-5.9375894504441105,-0.8862318820812891,-1.6453775449039607
24,-9.093459508012113,-5.708342421413774,-7.418053457584983,-3.036826657101201,-1.0702887630481919,1.1007815205918077,-2.151156280629376,-1.4194213554837907,1.2638906534005603,0.6227139360219471,-1.5918425592065386,-9.31060967804359,-2.818730776077971,-5.998882652921408
25,-11.651910392603693,-6.866244627881355,-9.58791473738191,-3.878581031106287,-1.3795863396633772,1.224075457247238,-2.9831523916005103,-1.4272303762090288,-1.641094238419424,-1.5300434677824295,-2.9929265803432,-10.440691333938165,-4.2012122174262085,-9.014922276156344
26,-11.291599546330778,-6.357591868917361,-9.243369870290932,-3.7665276217870187,-1.391077305570262,0.8262563444374436,-3.163297896064049,-0.9300421125643011,-4.0899197333980215,-3.2031569973240366,-3.528204301967301,-8.83816342222247,-4.472369722079596,-9.761934054451357
27,-8.011941885124138,-4.252387734543722,-6.39799514770136,-2.69326324698512,-1.0962385885368657,0.02144025587978842,-2.6110231307056555,-0.04337763084689528,-5.406745513008713,-3.804209991538271,-2.8972557726145967,-4.75841916368744,-3.3693860891886502,-7.899775170113622
28,-2.61535459286144,-1.0525867239582147,-1.7810231733247675,-0.9166834360635706,-0.5679180041274123,-0.9304353473817571,-1.446554728853965,0.978155279034365,-5.2442645492189595,-3.0883715889285606,-1.1793563234086537,0.8113762539950137,-1.0643552665917637,-3.821403026732891
29,3.4890298615276847,2.4204817532234264,3.346125238829374,1.0959664872451313,0.0513718870084097,-1.7075475081668157,0.03480349355334316,1.8175983804995737,-3.6794774365586496,-1.2557008633085733,1.1543142037454721,6.389994699354676,1.8397651134787898,1.4192401609367573
30,8.666034864400006,5.239637367379435,7.541330374710981,2.791621836377879,0.5871054559614184,-2.028760260830949,1.447064033507637,2.195660175080062,-1.1825500479392532,1.1014654560686508,3.367415883131376,10.408810886676214,4.468034430308377,6.385078063713216
31,11.51337731923874,6.630330766688292,9.601541284015093,3.6898082297996746,0.8869426530484029,-1.7428687064585693,2.429939037898923,1.9619278664415774,1.5297317533992794,3.188667278760035,4.6912502946609145,11.673155593299882,5.945723158667778,9.665338596203975
32,11.264700420243692,6.1992813698617395,8.925102647476272,3.528941655490751,0.8736688965686643,-0.878150132846354,2.758120723467536,1.1473638018389296,3.7090765435766495,4.27590157608098,4.589585747480546,9.737716110169117,5.696853894012993,10.29615304196672
33,8.015115196001274,4.061990631894377,5.703457552843092,2.353579218653435,0.5766393165918865,0.36110112891405227,2.405921288291224,-0.03967221448076946,4.792473965112295,3.9505834960511512,2.9640936858366924,5.073025628493402,3.665097374788671,8.062010970956232
34,2.6984443008697125,0.8245942799748048,0.8779617552008508,0.5114223013533361,0.12703612878323164,1.6484981539825418,1.5450702451159675,-1.273368933720785,4.555119287589302,2.2687686780445646,0.2234430826688864,-1.0406323424593884,0.37292499346249197,3.5796001332114256
35,-3.1805512165955037,-2.581525011829317,-4.1312682834027274,-1.4438010739957228,-0.2853943748819397,2.6235988722886523,0.477200328047853,-2.2075728937997847,3.155832181796852,-0.25047197117678127,-2.8177888987913375,-6.871621764217319,-3.213146077762904,-1.8693543375856043
36,-7.981144971447586,-5.16788620545114,-7.846151835882509,-2.917092479138199,-0.4815246327132518,2.9896329503231898,-0.4740000116143186,-2.579149468599711,1.0662296197426482,-2.78944620035292,-5.1863466465143855,-10.745378299623125,-5.976564399165807,-6.711308938704528
37,-10.399552292737221,-6.181209919778247,-9.174176206599219,-3.4548948255242515,-0.3636952947476659,2.5955014207594735,-1.0716006377069691,-2.2849226506465996,-1.0886694024573935,-4.501891496301883,-6.066960246548565,-11.548221741410401,-7.01128305215039,-9.548892498566232
38,-9.83866787710543,-5.330850020002689,-7.738323878907095,-2.8882756631142965,0.03922495643991383,1.481877009765922,-1.2360410824713173,-1.4086489659320964,-2.7244726584598165,-4.7980297712648765,-5.083404285447892,-9.068210391756429,-5.928296797922332,-9.580116925367442
39,-6.565304005579763,-2.8800095091593745,-3.990731450123771,-1.3899865319811096,0.5725660589145274,-0.11953647280967776,-1.0532434309323675,-0.19122697818096424,-3.464142443142343,-3.5473878471662785,-2.446147634014808,-4.0628502212348625,-3.001473347832109,-6.838451903906832
40,-1.6110267818844626,0.42968491850496454,0.9258962600806727,0.5746419692542216,1.00621083059253,-1.8338884391900068,-0.7199510972192534,1.0441859328319119,-3.2276946369741415,-1.1292369472971595,1.0894466488278185,1.9709695105534595,0.9020424599496879,-2.1785731162437028
41,3.5489573163128925,3.599186230032093,5.526493991654678,2.38926117341127,1.1192831423564547,-3.2285334198798306,-0.4500350917134047,1.9866519699360847,-2.222800311156246,1.687868655765655,4.447575534051911,7.254233108070752,4.588904214565614,2.9877648703065187
42,7.437861801242502,5.671946481386696,8.433564844729823,3.476961359794975,0.7891880428031891,-3.9181346004518525,-0.3802226942699402,2.421396992729112,-0.8475663310620596,3.9976788552231537,6.569826465388532,10.266513295369482,6.918217312383223,7.122924855632366
43,9.005243721147949,6.021160392020666,8.789971844359918,3.480022223089659,0.05097886133287915,-3.66650225786614,-0.5132969741390364,2.278779512823432,0.4555575786965762,5.054505882851869,6.756849327263696,10.199971770719207,7.166777438090324,9.027167149337906
44,7.91403272046039,4.536614044032469,6.508834705990245,2.3724685543113413,-0.8980406485933927,-2.460479887856535,-0.7213504788555647,1.6372393969448202,1.3428116438552768,4.518091522769777,4.9007488730662185,7.185664660756103,5.2597153324356185,8.192017515377541
45,4.606838666696092,1.6548492430019135,2.287208450609201,0.47019863206175366,-1.7543722826085935,-0.5343410312294334,-0.807208866130938,0.6850284843327088,1.6624707495472266,2.563646966073358,1.5299269925553394,2.2259824513420625,1.7908416987048,4.937044099486807
46,0.14130799035325717,-1.7748610646907852,-2.6154572027752425,-1.664141742734507,-2.208363189314614,1.6679401440177961,-0.5983931280288161,-0.34197885461536737,1.4726018855684766,-0.17832951331387523,-2.3502372839676,-3.137922224486713,-2.171941889728683,0.2933432966766916
47,-4.145954243110649,-4.74580780766493,-6.76101744566761,-3.391379337316007,-2.0541372171219674,3.5909236118926118,-0.03447788211489137,-1.2240707494621317,0.985395834013433,-2.8305547959398405,-5.5699936404768025,-7.311495036941108,-5.4290970440663875,-4.323802737574198
48,-7.039073366273552,-6.39140036760131,-8.958343208912034,-4.187992831424706,-1.2699230487470332,4.707738087584357,0.7890911323446549,-1.8041644047180017,0.46539376964308526,-4.554993436626283,-7.159888600075578,-9.128226751365249,-7.025165876651081,-7.547222820260732
49,-7.785311959568263,-6.2351886124153095,-8.60264888615826,-3.801303013763901,-0.03840320325643757,4.667906119749455,1.6405228825567326,-2.007564072224826,0.1225695604564757,-4.821442965586037,-6.649987728230128,-8.178242698142935,-6.535557687909971,-8.461033461261552
50,-6.2834821908892895,-4.320668482811225,-5.8315052930751765,-2.321520518855555,1.3026024717826776,3.4109671255194147,2.2290797188637126,-1.8368091300963718,0.039368020989652044,-3.5716351892938745,-4.2089631691727725,-4.89038043685175,-4.175898097531678,-6.85499275041767
51,-3.0733697175694705,-1.1868269160680232,-1.4600099509863496,-0.1513019255507728,2.3639896001698757,1.2077532036211758,2.3115578984002316,-1.3516336237667317,0.15523746293369617,-1.2282358688283828,-0.581904453976477,-0.35650339062131536,-0.7072896810136665,-3.2607193849669
52,0.8571985636235975,2.297358241899153,3.2749832590377097,2.1147285797015107,2.8288890478089836,-1.3918017619475433,1.7870288158793655,-0.646408815943584,0.30944840475131313,1.450021202604089,3.1486101937229996,4.032090903592263,2.8214995442862874,1.230704946254197
53,4.3789240997727115,5.185382038325615,7.077403758647136,3.8615398197136415,2.553740964508732,-3.6984878766236737,0.7431052506034839,0.1661754206371753,0.3216162159251514,3.616178551306046,5.897982106467712,7.012791311214825,5.403720217003674,5.305255865707613
54,6.544973414268378,6.716220155752948,8.951597764303736,4.624298685771374,1.6127803422482045,-5.076319358509316,-0.5644470289896923,0.9634656149880456,0.0767838544139341,4.603682938885683,6.903768764173737,7.810421750765381,6.368255636802784,7.810576958425064
55,6.839169494343433,6.513163725503221,8.458100836081838,4.209535462029086,0.2719198150753575,-5.131586012880084,-1.791372662920527,1.6180752190481205,-0.4179987601138513,4.1300272382610315,5.9390186668412275,6.325177538882733,5.549278104801225,8.075402650311675
56,5.285387014993132,4.667167061790262,5.801967122633375,2.736161997940596,-1.097294663844882,-3.8380081479190116,-2.6141710432335032,2.0075463479607567,-1.0267656026900744,2.3736821013755804,3.354908714407601,3.109480949888216,3.291234511339975,6.076983871484997
57,2.4004310340700075,1.689734753894559,1.7422930233676943,0.590856865591905,-2.132879476600618,-1.5538212884043068,-2.82898106292389,2.033515525007842,-1.5296997593024249,-0.09484214893998112,-0.050768844312379637,-0.8390936714868221,0.3043793530115647,2.4191252694580174
58,-0.9817516209813747,-1.6422030447626246,-2.6381835627529786,-1.6834475599667982,-2.587640075604093,1.0801377750115149,-2.405773610545053,1.6490130484267609,-1.7035711233196227,-2.5004871363641192,-3.2889105116991755,-4.390209125299116,-2.5690077458182015,-1.8607405089616307
59,-3.9542277127364063,-4.499465071773942,-6.230498555977311,-3.5311290501425288,-2.3912079799275316,3.3326006807121455,-1.4822202299503735,0.8853534717361695,-1.4084836676632382,-4.106949080502212,-5.473669790574317,-6.598690618363144,-4.597586967522737,-5.591404802411918
60,-5.777689222394973,-6.211120969493705,-8.180765568513033,-4.520212831441088,-1.6528369427224934,4.603525133329433,-0.3053236323782679,-0.1340749645005032,-0.6497539121904786,-4.43906902214585,-6.0664978286621976,-6.93983028231355,-5.341475755147711,-7.786885440147213
61,-6.055287998067349,-6.418666822499831,-8.085452990743125,-4.438848848222977,-0.6103088586561458,4.602441637755895,0.8522787044986854,-1.2043719538615276,0.4077824152610416,-3.4179267747947932,-5.002564733722536,-5.409622991587544,-4.728768172971091,-7.898948147882365
62,-4.804523992145748,-5.140812284321649,-6.06037672846128,-3.333187627288427,0.45223452716613805,3.42421326644993,1.7679849842358826,-2.078072421667925,1.4798409070695142,-1.3720595268617053,-2.6733127883497,-2.4820969010867917,-3.02458781001303,-5.941928360178127
63,-2.4200584995954224,-2.7423053962076938,-2.678883213598243,-1.4839286038588875,1.287258489055932,1.4981170444053369,2.3113860503508032,-2.5259364332231975,2.2459542052403414,1.072871913644843,0.21664924360715593,1.0458062848830971,-0.7210209569039662,-2.466302054249968
64,0.45105657748204675,0.17549162195500645,1.1935972526657361,0.6675045273286517,1.74161279590923,-0.5693537654267619,2.4452415185855774,-2.4032168115619568,2.450409355040383,3.1878840064704503,2.8659783232654394,4.269206300571217,1.6076713039888824,1.602731122707532
65,3.0825506553706608,2.928470102667919,4.620757754389567,2.6233987783138843,1.776181100450084,-2.2001836855963277,2.196792363943529,-1.7001623507468244,1.9890098830757534,4.3575054603486985,4.599159474008734,6.3936576129458675,3.441745812033497,5.213403778836369
66,4.845853998721202,4.908862281347831,6.817519081021768,3.9415198631345203,1.4500930695642826,-3.0251885323772885,1.622566034250145,-0.5580962018677778,0.9532870842410841,4.255741151797441,5.034136588138443,6.910534324985351,4.415861421513547,7.456479644823457
67,5.351343085496352,5.714598346115069,7.323720317283032,4.331735033042983,0.883821530928128,-2.9767971408887024,0.7887792197337352,0.7578409143999032,-0.3840808032526246,2.9322279814559886,4.156227938159345,5.699765863097209,4.371410797637543,7.788746593875309
68,4.526699869424422,5.224730461287174,6.094732451390451,3.718835352788837,0.2190057232812833,-2.266931776137305,-0.2232782911681686,1.9243916168208863,-1.6415710887816213,0.7875069358009645,2.289203603852828,3.047266606932348,3.3645776425100604,6.158813535977404
69,2.620348233067141,3.6101786289509192,3.4939577539654274,2.2589533009944702,-0.41177864840871187,-1.267218759874295,-1.2951372059355286,2.6464105649550986,-2.4400860236101987,-1.5514692916817652,-0.017786153277393017,-0.4214261744876122,1.639715593321711,3.008339643425189
70,0.13309124906599376,1.282257356025062,0.19303835789202914,0.30503419795731596,-0.9011570998888346,-0.34535595004462544,-2.253804936198282,2.7381794243178574,-2.521338108433843,-3.416934301897958,-2.1496864429345806,-3.8782249707079317,-0.42265673599438275,-0.8481708078101662
71,-2.305514155317553,-1.2073452187510119,-2.9954880906147117,-1.6733713958047816,-1.173128958348824,0.274388888160404,-2.882067034776618,2.1751642523975807,-1.836976281772414,-4.292576171106914,-3.5866095961837794,-6.476567872957083,-2.3766252775948202,-4.43341736294204
72,-4.088990829125087,-3.2931655486568645,-5.3142902671705645,-3.200316779890202,-1.1867778795392065,0.5722007972199029,-2.9671690839440545,1.100537716271342,-0.5781249673219648,-3.9576999231799825,-4.026330709718369,-7.548566677448382,-3.7944222870355824,-6.854578330485809
73,-4.78063200244845,-4.5225172642299825,-6.240824441008168,-3.909320134721487,-0.9424881773508252,0.6962298803842306,-2.378047935341961,-0.21514280174359918,0.8691055923269617,-2.5432218166870957,-3.44155169921656,-6.773618795085975,-4.3533908476759215,-7.5262994041752505
74,-4.221266674856003,-4.655157543187708,-5.608191054870999,-3.636545594251904,-0.4894686029370984,0.8516192970703234,-1.1420793676954946,-1.4483531681288722,2.0345553208531584,-0.48501352166724404,-2.063535496871472,-4.276059263676763,-3.9112486964481303,-6.313666613663302
75,-2.5710729168829953,-3.714037347207497,-3.6380063473248487,-2.4660085170371677,0.07227152809045014,1.1693205958132493,0.5156197023773146,-2.3085060679066824,2.5117658353692516,1.6104102739906878,-0.3022316764966994,-0.6195946627122526,-2.550426414803612,-3.559242241365334
76,-0.2723121941609696,-1.974828295541008,-0.8767615252844463,-0.7120360563337239,0.6037409768158927,1.6165514361055109,2.1986373081719828,-2.6104195850763077,2.0978807446441645,3.1475983749749195,1.3722553185154502,3.311599073457568,-0.5740936225028578,0.012241744000517248
77,2.0612829693732446,0.10471903126175043,1.948844253855646,1.159777466357922,0.9565158160489572,1.9917855589200675,3.4364865849975326,-2.3140109890723193,0.87881388588271,3.7171393117775726,2.5541044529250785,6.525094808274899,1.553785971529042,3.486065247747138
78,3.803243167649434,2.000091631855974,4.12089924868305,2.6545905745456007,1.0155504843835435,2.0097683069921164,3.8284518646215884,-1.5229934128282336,-0.7741666627033933,3.211644884194837,2.9998594696237957,8.17616318151909,3.3162317705821036,5.995483309423473
79,4.481349996092201,3.252502458659774,5.1145403032432535,3.3814211572516553,0.7422139502997893,1.4418748065198186,3.1868360102597886,-0.44695777883576776,-2.3043736548586264,1.8480607546951082,2.6764863676855217,7.799304134694907,4.274096534666151,6.942354147729687
80,3.908128464285292,3.585052592003654,4.728967638078293,3.1605415816795137,0.2002411158672408,0.2509406529179837,1.625748452395949,0.6588691872936587,-3.1423953507879037,0.09019313916551305,1.750207948245859,5.447834305596976,4.184401919609757,6.142582400044316
81,2.2374919243673066,2.971565694049454,3.130684180218795,2.074081436134969,-0.44977482064149454,-1.3413920420971466,-0.44429738002051433,1.5575174288639002,-2.900486720141484,-1.5035835516572928,0.5233735278961169,1.696052015493477,3.0706164319064815,3.859725783808451
82,-0.0711778279407992,1.6383875328927164,0.7983044149990968,0.44399261411348606,-0.991702158957079,-2.8917890901686776,-2.4245922748538615,2.0809259418543378,-1.5247486463108082,-2.458728589146906,-0.6595403354418183,-2.50329021441406,1.2214484760369455,0.7211240481111267
83,-2.3749665547498355,-0.0028168520921085984,-1.614661273369293,-1.2579192947310032,-1.2216447195606188,-3.872314610318547,-3.710562911930648,2.1569174019677777,0.6509582314689045,-2.531896761342978,-1.5084319730433902,-6.070542020505232,-0.8844731297910428,-2.4572391820601367
84,-4.023952606419768,-1.4737143407965567,-3.4602156841256257,-2.5433661395168374,-1.0208521326514612,-3.861410851065109,-3.889988479314256,1.8103610323710733,2.9773192346506967,-1.7801725214834692,-1.8594683642276422,-8.090229839493974,-2.7079497981690914,-4.8872775404004045
85,-4.543851984343158,-2.366320166319737,-4.269347075656585,-3.046698949634908,-0.4074910750927762,-2.717583052305633,-2.888787489300176,1.1435853609191706,4.6755294339896265,-0.5306835755400258,-1.7043315772692944,-8.058731288638846,-3.795554612885322,-6.007825661040747
86,-3.772702660921627,-2.45884890633248,-3.871416819529204,-2.6297901827953285,0.4541728942673025,-0.6664575380121697,-1.0103828510369648,0.30516712153038156,5.084520334167161,0.7381080329586562,-1.1725488691327515,-6.017467756832462,-3.9004603447643764,-5.614717217850466
87,-1.911155206314728,-1.7761016877830988,-2.428491018923914,-1.422035246768815,1.2950463498209708,1.7391686180178259,1.1506701488570925,-0.5433741128202925,3.891937137303734,1.5630768845811673,-0.4766439099895133,-2.5341104077488943,-3.043079080844751,-3.891642966603666
88,0.5299524297609307,-0.576010346740512,-0.3781035472687699,0.21670319828827642,1.823052856409592,3.780926161703967,2.896847956659974,-1.255854684408697,1.2708332880314475,1.6551186159071583,0.16019776979212869,1.4609766813941187,-1.4952849601342484,-1.339705785659621
89,2.8713154398488436,0.7339326276877327,1.6965090977887274,1.8001092059272044,1.8202686280114657,4.807128320898563,3.657123101810418,-1.721174687642539,-2.1300696741591767,0.9969694312431194,0.5710472933913645,4.933949544670641,0.3050059601283668,1.3693973189884587
90,4.456274971770352,1.7250460790136875,3.2303121940372987,2.8566832116134773,1.222876805900078,4.456288360591136,3.1806677332156426,-1.8742754448440404,-5.349801013071087,-0.15213871114457467,0.6876956231739598,7.0269385747422195,1.8818393268069573,3.573151343137894
91,4.836383417195063,2.0811150041055835,3.8282561191038513,3.0674010119516435,0.15547263754418544,2.792260124077591,1.62755935903273,-1.699942610994153,-7.389827564111105,-1.3462100052142845,0.548643175078752,7.279029209368604,2.853269793158596,4.782043285230957
92,3.8977171452095525,1.6957488405994108,3.3640583790260448,2.3595504359328308,-1.0946074579984317,0.29996452874657453,-0.47730213066177557,-1.231451108860575,-7.519540478492014,-2.1066268772324723,0.2735454298013238,5.729808336471805,3.0293269261389857,4.786520299624054
93,1.8915650168474478,0.7029730029219827,2.001631340930541,0.9289981427468098,-2.157680109573131,-2.261656887422103,-2.4148636761572297,-0.5453209310811995,-5.518462509214203,-2.089594932292811,0.014598838187389978,2.8823779917897547,2.449451269074675,3.6844518174111687
94,-0.6386555575530294,-0.5683813290139185,0.13728367979675385,-0.8160436101389157,-2.693191510665961,-4.102808332711846,-3.512060265721941,0.24761404529213404,-1.7769751623843297,-1.2114140515191518,-0.09889904311815588,-0.45664781308531316,1.3519719125866272,1.8292039304083705
95,-3.011911145289688,-1.7015837443763877,-1.717362255020865,-2.37351082116292,-2.4976671745577836,-4.66090110894788,-3.3713295095069626,1.0153123977367922,2.7816829609523617,0.3103510378257391,-0.0056917691839560615,-3.409303344042217,0.08866561508628398,-0.28087182968066265
96,-4.599688386801013,-2.325583281451562,-3.0767220139090288,-3.2933765280898495,-1.5746901505852333,-3.785658619508029,-2.0112950873568822,1.6221464565887551,6.941806413266888,2.0148095005330617,0.265988644255635,-5.262738622273236,-0.9867832383936967,-2.1374904828534826
97,-4.9965710231037,-2.2321552045603132,-3.6073646690092027,-3.3077535714460833,-0.14376576599821905,-1.7874815473810335,0.13090885522790058,1.9502873238947107,9.531902271253,3.3381398008189236,0.6069432194595604,-5.645255726056858,-1.6211572651604527,-3.3451095660397154
98,-4.12338554624493,-1.4392557437260376,-3.2061221859767075,-2.406800968737475,1.4162601790067684,0.6680530851368137,2.3390281662337884,1.922348809020747,9.760963206106267,3.7932817876856464,0.8630736332608556,-4.598145508629648,-1.724324775207391,-3.7016418256428296
99,-2.2363943062459315,-0.1813456147798052,-2.0127779321227766,-0.8385842872781805,2.6732728211315653,2.7836780147092877,3.8539965439493624,1.5209913671151645,7.455716665104708,3.1325867937276954,0.8884205054875369,-2.531241575503779,-1.375626904997539,-3.222121891524656
100,0.15559887606433453,1.168252995039374,-0.35893873390000475,0.9657493180859026,3.266150412506689,3.89537081954772,4.1287727036440955,0.8001652311236718,3.1278066529834274,1.4413375925348593,0.5990996113523227,-0.0828633448412492,-0.7764092809950204,-2.107074515715708
101,2.437955037933381,2.215818351534983,1.32833486490019,2.517640336839926,3.0102874876715413,3.688344276895894,3.0161000576409855,-0.11684845010246418,-2.1511802377855935,-0.8694172617382978,0.010912733911632364,2.0705644536936827,-0.16839813657712113,-0.6714209756599617
102,4.056004211156493,2.667060599893579,2.639295513458632,3.4091783193031993,1.9531381500860998,2.2915003304071333,0.8255155641827804,-1.0551395785063027,-7.033190554450589,-3.171568673737175,-0.7526653392434509,3.3996336610707196,0.25231765903809605,0.7425462973380734
103,4.65314502477964,2.4102888613356357,3.2804638330096996,3.4228206728201642,0.3635731110259449,0.22067520353862313,-1.7703724400942922,-1.8203641896927942,-10.256124534181135,-4.79951997914641,-1.4871113162332132,3.6519136840076984,0.39633728469019525,1.8445113226268814
104,4.146210449314689,1.538945715023605,3.1364132145556907,2.5823717648928004,-1.3415792460460663,-1.8064419314935671,-3.9498673497411523,-2.239882420866809,-10.98318170115443,-5.247393544207796,-1.9625424108807374,2.895603388577245,0.2980544605913644,2.4504418980951868
105,2.7238630609233065,0.3107508401813887,2.2831053229396807,1.1339262440697284,-2.712313659107138,-3.117312269779204,-5.00602100716795,-2.203833727297881,-9.024544622542914,-4.324220414338307,-1.9933002632062542,1.4714073523335247,0.0862606760715437,2.504080236319144
106,0.7763971296395416,-0.9386754953637975,0.9547970521817969,-0.5331748547831021,-3.388658157130094,-3.3076527754699176,-4.573929618756071,-1.6957905407793645,-4.881532526575055,-2.219423334952839,-1.5007110025790176,-0.12757334468256545,-0.07781407593422444,2.0673615959351817
107,-1.2171670730076027,-1.8968133123940008,-0.5225797255211877,-1.9985702007907586,-3.19776124393341,-2.3656881848598226,-2.7480505506868442,-0.8040749154125388,0.3954119146934385,0.542301629269633,-0.5489214453723678,-1.4098506719024935,-0.07028581107657673,1.28834623696532
108,-2.8108343937144284,-2.357386841037457,-1.8125078085194692,-2.922155251273134,-2.1984256520233525,-0.6590475267169493,-0.05304388620328466,0.29107933401664843,5.491266307682404,3.244240851593462,0.6593027822430549,-2.0282862424484565,0.14403904418479516,0.35824815805123217
109,-3.6907928985013982,-2.262526169156223,-2.6435881278666353,-3.12379900212564,-0.661865671311288,1.2057101928795424,2.7203137063704554,1.3535338477202519,9.17183932484017,5.177045589871107,1.828460983333645,-1.8717190502437109,0.49713980008924064,-0.5314219898628214
110,-3.7310082887373452,-1.6968147544162333,-2.8637684831729104,-2.6130939688270587,1.00471768506624,2.5977478655004442,4.759596951356594,2.143396603335492,10.595024771112307,5.835651490760492,2.646962337460184,-1.0815725843451731,0.8443489828569756,-1.2234983553211392
111,-2.998526136009662,-0.8424873674189918,-2.4636848612488995,-1.5669452710566054,2.3696619372067764,3.0744769921080435,5.476955482880047,2.473590957567339,9.506775436777703,5.056541693086548,2.8737696362774905,0.008337190703164906,1.0211782571784402,-1.6172677323603486
112,-1.7152090709491816,0.08390526956251922,-1.5673755075075302,-0.2676185547616157,3.0923302100300543,2.5198680615699067,4.680418657628596,2.2570638598297306,6.276269373148323,3.056823599501285,2.4102364450191556,0.9882041940820195,0.908824299486463,-1.6771675681288285
113,-0.1918199649715543,0.8905689350512106,-0.3955909230491749,0.977015665637998,3.011055346544227,1.1653730399265305,2.6199278536952355,1.5321738599060624,1.770559693851193,0.36640635120406057,1.335514384420122,1.5078947526741826,0.48403124766272054,-1.4296260761220918
114,1.2463293834860518,1.4483328073504234,0.7880628906363688,1.9078150284157787,2.180272483234248,-0.5072368929254633,-0.10106615544173869,0.4584402110933075,-2.8884754498858705,-2.323917970065187,-0.1063588601400778,1.3894424755253947,-0.1650119024595719,-0.9508760275197816
115,2.3251092376042735,1.701259900578104,1.7355167705270351,2.3654497399292436,0.8480463891327474,-1.941229276968484,-2.7154225264054466,-0.7180943810573287,-6.614297673546698,-4.352161551387362,-1.5659463003132934,0.6813232548048116,-0.8626666054644156,-0.34894820422059863
116,2.86735988813525,1.6550401678968825,2.2648679515715533,2.3099121821264745,-0.6181082026450291,-2.693991781471721,-4.520895071463026,-1.7227505964812158,-8.615722565438757,-5.257561579662155,-2.6791258029187732,-0.36215018521139297,-1.4014364016879084,0.25707088894478153
117,2.8141958171992774,1.3551026655516332,2.2936155012510344,1.8100977096180804,-1.8349661747052468,-2.574615396461266,-5.076526785434264,-2.319559099476403,-8.563824545054501,-4.888707230621871,-3.164186256539976,-1.3690005752486516,-1.6098689044454688,0.757681574059394
118,2.2229387608831863,0.8668669469695618,1.8491115253664439,1.0123963062015615,-2.507005099994031,-1.686850293363785,-4.310312617028114,-2.370838154960176,-6.632215708988613,-3.4216756972816493,-2.8980308104127586,-1.9760298227098898,-1.4094645319599763,1.0708799624482908
119,1.2461760439147527,0.2653571519243254,1.055713355003853,0.10016271605070234,-2.5006379305735345,-0.3701253611790507,-2.512659177427259,-1.8728677070706314,-3.4124096432868773,-1.289846016316771,-1.9497513888737883,-1.9515753663237003,-0.841423901571728,1.1549053075331401
120,0.09765337323052689,-0.36629255800160504,0.1027024056365466,-0.7453537577087389,-1.8698484302066027,0.9327526177194062,-0.226805177160137,-0.9572752572569874,0.2628817417336996,0.9481626865183747,-0.5618539296759687,-1.2737839784449074,-0.05470211465989608,1.0137999232817727
121,-0.9892686678480921,-0.9360497296876604,-0.7994462564488047,-1.3758889867253175,-0.8286472344626298,1.8295067394205453,1.9225533912555177,0.14314643494089158,3.5362771559443518,2.76096837893459,0.9155856297756093,-0.13850963123486304,0.739878195893945,0.6945625311062006
122,-1.8049151126738245,-1.3480742623735753,-1.4649188154233677,-1.6963024959968236,0.31867959221177433,2.09935537399431,3.4066645036755525,1.1555004254503374,5.725821078730823,3.774220300083496,2.119042731856966,1.1053181174264977,1.333494943148294,0.2760030143137662
123,-2.202247076667774,-1.5181849042158715,-1.7709070237393718,-1.6742050315957975,1.2670407431911472,1.7433360761750527,3.9244888934816244,1.838185997478394,6.462863939351577,3.8455485218578556,2.7672154929307284,2.070555805447114,1.5799747167421074,-0.14884540223253662
124,-2.1248058115275126,-1.3973091767873171,-1.680550523474768,-1.3401835420024164,1.7930352056971108,0.95497311925242,3.4565853292582687,2.04288117027638,5.742355357377993,3.0714256928296177,2.7315499125813005,2.457941137196947,1.4343247102667194,-0.4931507349819559
125,-1.617349923623704,-0.9940429350790024,-1.245950597875806,-0.7794042536470651,1.8077186956284204,0.0311839874461134,2.235635779088699,1.7499228037032397,3.8840357931711065,1.7330263284993441,2.0628201738722565,2.1512282609954863,0.9587979837536388,-0.6948453241497821
126,-0.815168668283984,-0.3848932165822167,-0.5911416795670122,-0.11508121527071402,1.3672435876833964,-0.7381718984713022,0.6529755963306718,1.06761738501861,1.4239829498841248,0.20368834593755492,0.9681615431995593,1.2504378953885318,0.2973984438128263,-0.7287764485285337
127,0.08748351726706417,0.2961307919252645,0.12053902093229085,0.5150039926841611,0.6421701909928454,-1.1612625900995606,-0.8639849713220981,0.19658427840585427,-1.0304910324149077,-1.1525968713113675,-0.25271126256108345,0.03390798903820476,-0.3704979709893813,-0.6094433052643216
