,AF3,F7,F3,FC5,T7,P7,O1,O2,P8,T8,FC6,F4,F8,AF4
0,0.3835381128424204,-0.029422391478378773,0.08622208766501474,-0.1596160930342419,0.004382190750625328,-0.10921499249585374,0.0201122569148992,0.24312327286225088,-0.9974466665573865,-0.24361218219688763,0.18674229278275598,0.26047497555373067,0.09205718537976537,0.3412163593005414
1,-0.13648215154125742,-0.9145385820565828,-0.9247878837325684,-1.3430934453484662,-0.598919421778772,0.015033383659718909,0.21129047893524278,3.390353609718737,7.631603888759937,1.4050320224451767,-0.9653426694410001,0.6257088154981975,-1.7674538311895502,0.8369985464208536
2,-0.6541544728651654,-1.5255671705261078,-1.7115344388236824,-2.1718712087424765,-1.1195112840343582,0.100299031036952,0.34538790822428217,5.655903655183455,13.990418440011585,2.5760980258314263,-1.81676483125369,0.8681571259860216,-3.048014936796973,1.19699067293312
3,-1.070372235234831,-1.6720379715545708,-2.087674746200016,-2.42052087929549,-1.4525799554829948,0.140653845458841,0.4128494892081398,6.453986597851147,16.17759336273102,2.833210009000177,-2.170488262998672,0.9120904880003984,-3.3856793547578983,1.33501548917529
4,-1.2973016829430102,-1.3138503875594165,-1.979829620452497,-2.0296866681902888,-1.5272141834182709,0.14978639761908036,0.4147348751665476,5.601349778045816,13.521401772409385,2.022991610776584,-1.989449109745959,0.7100986598101915,-2.7402078592451513,1.1877517614497348
5,-1.287372658668576,-0.5779840224042977,-1.4484865916070593,-1.1230329443287255,-1.3248954793634569,0.151674190610703,0.3544758045397513,3.3575621734181325,6.789617039101904,0.33497082599451017,-1.399498352779897,0.2568776808704165,-1.402172396777944,0.7290144583773221
6,-1.0520746735399502,0.28287708964005137,-0.6666243952131309,0.031475396236555285,-0.8841951991048858,0.16757077272289983,0.23395903486466826,0.3407485338815799,-2.028247636443152,-1.7412759761327339,-0.6355282262476778,-0.395737116286424,0.11999100845117205,-0.010333559859132875
7,-0.6612250877818305,0.9770230886944091,0.1375313577149864,1.1041583215574355,-0.2905095561889878,0.2046508955329612,0.056710247657668765,-2.652651368770136,-10.305134235019247,-3.5526886264837,0.04874861129498541,-1.1301699926256343,1.2911251181512635,-0.9248874100487218
8,-0.22067891937363088,1.2760788805734815,0.7545425541935332,1.8040952806830008,0.3453444826129799,0.2510078626982332,-0.16332493030696682,-4.868820876368883,-15.555707952797114,-4.476020595067254,0.473273370807434,-1.7710519673993712,1.7471482764451867,-1.8321547849813606
9,0.1645052237013667,1.0966814407467191,1.0592099354261846,1.965543285808555,0.9125860023220637,0.27929860452382804,-0.39283065016304203,-5.7939395175852075,-16.179432599691648,-4.112649800387276,0.5914445917304698,-2.1167175051940488,1.4250717167034552,-2.4961225373456206
10,0.42744091924396127,0.5312963199495385,1.0446701372750067,1.5927733496799856,1.3223802748442979,0.25795191121426164,-0.5770116059939796,-5.274295752996267,-11.945115922869856,-2.426795897457996,0.4948000270898792,-1.9927767088262545,0.5760776311638897,-2.6801299748347263
11,0.5616786038577474,-0.18460990988410533,0.8132577474950908,0.8494043635779841,1.5207482484668429,0.16570774508452682,-0.6494153764304729,-3.5311924912744383,-4.0702517476194755,0.21700236240700982,0.36136883518511387,-1.3153905022526633,-0.3433541780942549,-2.219896362579255
12,0.6176823087533907,-0.7590739678619476,0.527764696513883,-0.003253643983157449,1.4907836502115743,0.003593786213140373,-0.5536885672790269,-1.0747792382014154,5.131375028420123,3.1337893730922843,0.3685346840649614,-0.14323490242607742,-0.8607879269348621,-1.0955319056510295
13,0.6730114069328776,-0.953789070286009,0.34135238153878567,-0.6972441823218789,1.246364642165365,-0.2009405162703439,-0.27092102341398727,1.4508424378376714,12.931499252605771,5.498414757326731,0.605651946113528,1.3046894665817295,-0.6848968654454028,0.5248011706321255
14,0.7872622892936215,-0.6779286268997863,0.33270281120395234,-1.0469513950901799,0.8221582020954136,-0.4001759124874077,0.15855435110974125,3.4426997266274,16.99721418492822,6.578624389440657,1.0226698255655267,2.680907334383083,0.16651239380157642,2.2931913269857787
15,0.9609606237558952,-0.029893936113125963,0.4717282225061106,-1.0055227207143216,0.2652160479573056,-0.5409227740649651,0.6307070733792861,4.485142532791598,16.08793183786921,5.95551743491113,1.4378708990836597,3.591194668901136,1.3591943206865056,3.751731515710028
16,1.1183815575495395,0.7312313483194036,0.630379073758749,-0.6697841006734568,-0.36826114369044477,-0.5825983774710675,0.997938795072296,4.431636176925515,10.430763947410245,3.6660631228309963,1.6051447217813792,3.707934040562921,2.3624297085436585,4.452425580724423
17,1.1264532915995165,1.2776425546537737,0.6363780123249456,-0.23301856522718153,-1.0107333388148076,-0.5114499736227248,1.112244609223848,3.408623528300128,1.6604462181865285,0.22169363668862072,1.317393486121124,2.8820028796596313,2.654315186577389,4.095593990575779
18,0.8477087226272598,1.3373951276917295,0.35097140231729923,0.09629117502236842,-1.5791315763668887,-0.3449533005703766,0.8797993337825174,1.750856907799384,-7.660498346187968,-3.509250536575697,0.5067860000405944,1.215142579464499,1.9366448322770282,2.6431746643644094
19,0.20986691140645516,0.8068347594733756,-0.258773496761778,0.17916767347993884,-1.9746144223377202,-0.12429289527289575,0.3080273810164438,-0.10531543399581703,-14.79986561042182,-6.528396033372342,-0.6989931184182153,-0.9370764918915825,0.27737920866967136,0.36549034881154996
20,-0.7356517222055973,-0.19226957112330412,-1.0827209924408043,0.002111536051652854,-2.0922201462221413,0.10203452302332405,-0.47487149401078677,-1.7371213060862558,-17.666418794296817,-7.983483338742752,-1.991352434453097,-3.0416860016264002,-1.8772581845133542,-2.2026900523335913
21,-1.7941485375669424,-1.3364697399618009,-1.8840420169450796,-0.3176155451006968,-1.8432621403974463,0.2962839914081805,-1.2412237195760893,-2.828835898042955,-15.430396377374517,-7.416293940055066,-2.9679714366416072,-4.528437421934359,-3.8328742777809066,-4.393228198214063
22,-2.6634326727160826,-2.2027391428661534,-2.368930462399132,-0.5806417722774608,-1.1876944790097643,0.44283398116410055,-1.7260331539892266,-3.2245837375420976,-8.767307246443062,-4.909108064356052,-3.2666995799604606,-4.954978006077338,-4.879076350606783,-5.5898451223787
23,-3.0213629298006013,-2.4173313710027795,-2.289085260949938,-0.5906869903495839,-0.16735589835569922,0.5472441923836602,-1.714369272470667,-2.9357128300673967,0.34861408175623515,-1.0823414728265774,-2.7004754708605763,-4.146611852515932,-4.54452923296325,-5.4135113927189105
24,-2.639915811121745,-1.8002702195724973,-1.5420317299023631,-0.24400582565256293,1.0734156725481259,0.6231223262033283,-1.126107159658808,-2.110380815825945,9.238911425563474,3.0627368643649677,-1.3433367560162093,-2.2643899704331916,-2.783900574038341,-3.8493345856235015
25,-1.4859413240268864,-0.45212785797650734,-0.23172925658307744,0.41255684442789975,2.293333835041804,0.6732520568357542,-0.06650707272621299,-0.9803394643280948,15.323251075590663,6.416911459341322,0.46835404596174607,0.22471776990958664,-0.02618458199642728,-1.2708207153312128
26,0.2319645810749036,1.253166835123223,1.33705729514146,1.1803658120053595,3.193757609472373,0.6753598332004225,1.1811742852037173,0.198630065631046,16.88629019620412,8.075986370033057,2.226952791334674,2.6717426247521097,2.939642251322776,1.6523632067993759
27,2.09585401149566,2.7742891366762374,2.7354245091508953,1.769604657040524,3.4895942021565998,0.5822064149192481,2.2271155372773186,1.1992722266219011,13.576950575771528,7.602666540737621,3.411144736500781,4.4293028084084,5.208994517117407,4.140194698521026
28,3.588551914214806,3.5767476454845304,3.5376061314887255,1.9030347908728333,2.996162326017659,0.34004891933352455,2.6940191528267032,1.8602686870684586,6.490552644505045,5.157519835408114,3.658423438043975,5.039607571184998,6.056406647234627,5.527414809167957
29,4.250706318070959,3.3183639805266196,3.4587276569659067,1.4263728778763036,1.7065418528804885,-0.07916651411360265,2.34804175611577,2.1054293319386326,-2.1870733559087503,1.455705246968987,2.8920703101672918,4.3681398064738834,5.180616764977365,5.458772012341199
30,3.8335895332105125,1.9814277857262135,2.4563803753743962,0.3837361850411562,-0.16913355844140288,-0.6446975521146109,1.1969221857757484,1.9451776961772862,-9.859565113514686,-2.4419636689078925,1.3552788581070536,2.6401121804255814,2.8144344974077997,3.99256710843943
31,2.3937151925453586,-0.09783969630047289,0.7592341407637743,-0.9730003201698535,-2.2241611375588892,-1.249595911295611,-0.4830587385570455,1.4629037511280245,-14.311323288610886,-5.44339201863922,-0.46377058185265174,0.3673890478548482,-0.3411746557002824,1.5788451016770795
32,0.29258021476240653,-2.3182587569552333,-1.190517273389178,-2.249472236998815,-3.940958000138718,-1.7224821810878677,-2.2088497348424205,0.7899974999394702,-14.365444806705074,-6.749987712116437,-1.9933624190663408,-1.810953536410624,-3.339104580149661,-1.0812919316912644
33,-1.9032780887857126,-3.9961585338157817,-2.86482401553326,-3.030366139332198,-4.825842483497494,-1.8720635788865034,-3.4293747906200243,0.0745183546382461,-10.208428852590956,-6.09105984278878,-2.7714770973906346,-3.322897465360349,-5.290272226412181,-3.250132505428583
34,-3.591623616910683,-4.583068837068285,-3.807068576364261,-3.0175646806809984,-4.557119295260416,-1.554354360890405,-3.7014038647231287,-0.5504107189003776,-3.2887057494770424,-3.7935446077013393,-2.6026602833331918,-3.829766860036305,-5.6471825003709,-4.372630106912146
35,-4.317797191512205,-3.8465872975178987,-3.7678948876014715,-2.137533610573019,-3.1005172546445787,-0.740521357606186,-2.8460374445038887,-0.99188051447491,4.169346533718803,-0.6642154425262665,-1.6216383047417915,-3.3117171271628525,-4.371346009583996,-4.2309392496448845
36,-3.910849934951722,-1.953437102785278,-2.7757606577826666,-0.5796648035553507,-0.7505646005428189,0.44182351575377266,-1.0309929792374657,-1.2104851990919652,9.875015029477758,2.2781732058205315,-0.2394293228229875,-2.047628687672162,-1.929753309447865,-2.987417799903157
37,-2.527732816780934,0.5740237500184533,-1.1208659041638394,1.2498444295246194,1.9239722961343497,1.7159539326434594,1.2551787280133861,-1.218769486023566,12.177569883650838,4.134013431806845,1.0097610576274672,-0.5008519997856806,0.8747003162478236,-1.1074044428248506
38,-0.5929542616809872,3.0144225371099376,0.7394713551410649,2.8453802117097315,4.2231548221514945,2.719188827074501,3.336554803602389,-1.066166084706151,10.549659467215232,4.408936827427664,1.6657768905266777,0.8460701343437371,3.1767772759511392,0.80691467024625
39,1.3426689441994821,4.666322287733908,2.32023347376476,3.7531360990813645,5.510260347118308,3.108914321254426,4.554052016699734,-0.8160112858876133,5.704840873268355,3.160898610952585,1.5116842420576662,1.6486836700645695,4.330146196118107,2.2122537315058093
40,2.773678832758819,5.0588893955281895,3.2462341566737165,3.70738629776399,5.4004436266061635,2.680175334258254,4.477235019608841,-0.5228987616341652,-0.6740587861812556,0.9604151359522225,0.6521048535314801,1.796294868311781,4.100552176648092,2.7837277224035994
41,3.3836973535829085,4.087827853247168,3.3449742679624754,2.708391970998246,3.8843327123639937,1.454441345860606,3.0543570422357855,-0.2184709575114107,-6.496230488776355,-1.3210906187051477,-0.5290967359694272,1.4168513333386101,2.709482184030629,2.48865332735782
42,3.1162119702148394,2.0362275078964998,2.670437860316135,1.0184846972050723,1.344584590185955,-0.29601386441036126,0.6482842998927137,0.0894722617000738,-9.927816777074952,-2.821729186210692,-1.5169955190636935,0.7960443819474595,0.7218145532987932,1.557896736843007
43,2.1562169568874565,-0.5215341490727536,1.4587799914220285,-0.9198116865944859,-1.5442808196717386,-2.105051811580024,-2.058567567298351,0.4049378942624443,-9.950471528459397,-2.9917992822182327,-1.865178112324129,0.24678826969935763,-1.173946497957966,0.37465445539205866
44,0.8391963427639774,-2.897277897782321,0.03938188571747007,-2.6147307362683856,-4.005485421965736,-3.4409288789165853,-4.264616077017846,0.724559568607653,-6.646557221447734,-1.784967140099963,-1.3723080054737409,-0.018200992236663247,-2.408853495458341,-0.6722567770762577
45,-0.47198792169964315,-4.488541492860002,-1.2635978523017903,-3.6621969063623285,-5.382500368152609,-3.869786956497212,-5.293789819378739,1.0204474821224796,-1.1366578283763904,0.32739347995188844,-0.16881310803206112,0.03811392241982109,-2.712567735217641,-1.3152330137160786
46,-1.4949349658703914,-4.937896223870934,-2.206585072789986,-3.846687652096254,-5.326523764922239,-3.2025988147683155,-4.807467426696662,1.2341525053429512,4.7949142424311715,2.5234401764467607,1.3207240525831239,0.2800562684078979,-2.169109687136496,-1.4721114114438036
47,-2.084862598921273,-4.207570639051648,-2.6605364268036475,-3.179031638316919,-3.891657593331179,-1.5749343568663434,-2.9157204051849654,1.2870254764903672,9.259115034041145,3.9222756519932775,2.5282850045333514,0.47537536270726743,-1.1387825015948811,-1.2326818110560815
48,-2.2303487493008793,-2.555823397467487,-2.6041971991882464,-1.8670897728272817,-1.509842808616448,0.5723146337524826,-0.1513147872568431,1.1059160263035668,10.831348484456488,3.8996615408306496,2.9529392313863636,0.4105474271538243,-0.0859256412075238,-0.7835588789834431
49,-2.003401044552079,-0.43404269458192485,-2.0929397965668026,-0.2374219599595577,1.1442481785376728,2.6121043087739397,2.686631168502045,0.6565070890798538,8.964927067921188,2.319684337822246,2.3546688278831795,-0.0034721509675432255,0.6148033654238004,-0.31000766294258214
50,-1.496722134112986,1.6536531103019576,-1.225330709493677,1.3604506004004182,3.3540364469230104,3.9178793964622387,4.771243693088153,-0.027875207929593904,4.138704286837722,-0.39779555707160236,0.8593154139586244,-0.6790546504864532,0.8167516276532446,0.08116037592526157
51,-0.7820410614049021,3.2804757795321056,-0.12426837084845489,2.6348871958902103,4.564384263803567,4.0609775647560244,5.49508551794814,-0.834516302096381,-2.2893108985329533,-3.398987285512197,-1.0669411420198254,-1.3754200737355131,0.6326693118223722,0.386283114286774
52,0.09135906607053486,4.179912588055914,1.063442917457885,3.396946932807476,4.526423162447139,2.955488308943567,4.650326732230523,-1.5849272514154773,-8.468646971238492,-5.669026357577334,-2.768981647828457,-1.7897867932231721,0.35207656793955744,0.6709261823176272
53,1.0620686951408091,4.2671015329131485,2.1590814287610556,3.565625850926658,3.3444151165667226,0.9013432470375861,2.4880108621015307,-2.0743049349935947,-12.570087678325228,-6.367126615540404,-3.629947076175155,-1.6811756683518688,0.28359622698983294,0.9979358848049187
54,2.0110750375007505,3.6082827214686435,2.95334027988129,3.146259337263081,1.4180949460864498,-1.4927315975363151,-0.3596118223880722,-2.128342508542367,-13.288386552118117,-5.114354029104499,-3.2955279068236116,-0.978578690295168,0.5912502090274526,1.3554353422793215
55,2.7393716167772304,2.36456119261222,3.2324104230954984,2.203163587989374,-0.6934498958473938,-3.486853048394825,-3.068097423024032,-1.6616879995077736,-10.207070475023711,-2.139372779353556,-1.8151951679996428,0.16972338227376743,1.1961158711879598,1.6235366598951808
56,2.994660556665471,0.7396554835031058,2.8322756446618964,0.8448370340367384,-2.4387494119102433,-4.4359330650525735,-4.8631073903989295,-0.7194721109516995,-3.9374342494932035,1.7669689800188169,0.3530964252996934,1.4276083347512125,1.7886144218580735,1.602303116582178
57,2.550891562601325,-1.048460034101729,1.7082090432384343,-0.7719959015250853,-3.4198253199959057,-3.994802040867816,-5.243930680119374,0.5138919259861142,4.001581322980562,5.476559601163457,2.4821936276246643,2.3757329036881436,1.9520124021275145,1.0965387196183725
58,1.316873282773478,-2.7697957796359916,-0.0070799850103737,-2.4285564233736636,-3.47763728122062,-2.237915087099122,-4.123812964507084,1.7463311337037124,11.537950577155058,7.860333436150182,3.8165972026309563,2.6547384587898857,1.3515361670106942,0.02601242903839784
59,-0.5705045890529612,-4.1734596175337035,-1.9869900741229676,-3.84041227745229,-2.7012387761958245,0.34618516284520146,-1.8485890854000213,2.646406526273724,16.559218154153882,8.133260321725697,3.8356623603651796,2.09752395150294,-0.08630256068231557,-1.4861742891012504
60,-2.716576792183493,-4.991267910834781,-3.7573526007237383,-4.684633683058119,-1.3699338877652094,2.988002229636382,0.909051068638908,2.932874426406011,17.46885456732033,6.102748078565376,2.4490733347912452,0.8033922786988457,-2.08093345237218,-3.091910201436724
61,-4.533596316267586,-4.97306540031766,-4.806188259522765,-4.666672022849602,0.1440446291772529,4.8613236134364355,3.3470862717705323,2.461729361054988,13.653646673597546,2.2446693234599233,0.05406499632376391,-0.8743559125753387,-4.039517349082284,-4.2865543331131954
62,-5.396987153303524,-3.9566858401217386,-4.73264601792303,-3.616212040374661,1.4784818231516594,5.333536607073813,4.76589245380676,1.284658605923518,5.736604343016083,-2.416982628889831,-2.5718518867370634,-2.427019218164071,-5.232082737340413,-4.557562552141358
63,-4.852158350627274,-1.9540520171415354,-3.39087797028936,-1.5816244837368059,2.361460680480984,4.167354969789595,4.768175091280225,-0.34201863345102795,-4.473667219041383,-6.59276090021416,-4.5140963436355825,-3.3458971327873135,-5.046841764845777,-3.56972428830161
64,-2.8033629680059886,0.7819404925413169,-0.978097768666145,1.1174877372833982,2.653915256451408,1.6116230129330045,3.3709690462805333,-2.00693029768176,-14.361240887327963,-9.09166810712142,-5.024461189730951,-3.2856237194386173,-3.237360997293509,-1.322968419003864
65,0.38833501588205704,3.7486087932230934,1.972546649786322,3.9142921367733994,2.3540761285723137,-1.6500560996455087,0.9986077307395517,-3.24464597266306,-21.14851166496396,-9.16240203115152,-3.785767334850719,-2.1830571852371468,-0.06893551743480739,1.7796921770280916
66,3.947765920112178,6.2678182426310665,4.706294115952919,6.107660896309689,1.5740335273651187,-4.682944097112374,-1.6411389233483937,-3.6647824854110667,-22.663852351763442,-6.715081733914006,-1.0476539207851245,-0.2928319704009965,3.698873681797306,4.991446421742064
67,6.874054165319969,7.640645460171582,6.445104650833386,7.044419855770626,0.5023751712066991,-6.567573697651125,-3.7629092869935166,-3.074347072872989,-18.026105095211346,-2.3604435666995736,2.417453232710823,1.8734805976612765,7.0023712774799405,7.404476427179565
68,8.228246224094791,7.347085841027569,6.615733738737681,6.321252007250412,-0.6357008125533551,-6.673143508850069,-4.733420972572985,-1.5557098475490378,-8.03201466021229,2.745901187480154,5.532066004889723,3.6879802712814156,8.78520745770506,8.209241249973815
69,7.434041134303532,5.231131321048873,5.037802690797731,3.940869212045886,-1.6150979110137265,-4.857188994403874,-4.259212633561542,0.5289820620678549,4.909719819755098,7.2131129193494194,7.242194956727539,4.586093306016993,8.335053848939134,6.953113898982262
70,4.493046559265762,1.6059873690249282,2.0090532114973336,0.36362596813233333,-2.2436273072237243,-1.5295883849930387,-2.4772734709501587,2.6173169989454084,17.335273760029402,9.79542682013304,6.856010151927032,4.233220266989468,5.535988556253764,3.7155143518899196
71,0.03700970217039641,-2.768076687413107,-1.7464866796650882,-3.5754448105879866,-2.391745869351561,2.4431593465367145,0.0800995842561127,4.095537683808742,25.65974051621449,9.739798255783022,4.285442578794452,2.6305614617020567,0.9505212371511967,-0.8616858259371225
72,-4.8115854100483855,-6.843796382757483,-5.260055789177915,-6.871768341901332,-2.0179286329068953,5.970942498832497,2.639057059404215,4.478588740386877,27.238247539092402,7.004944445580691,0.11116633643723958,0.13003774723046804,-4.302170350212615,-5.707232800763598
73,-8.738089752643644,-9.550823402438438,-7.580804721627524,-8.624455895310552,-1.1845204845581345,8.04632554497717,4.414015719857163,3.5684754146489817,21.232571418293123,2.2890074452129037,-4.555401608426822,-2.646417041633678,-8.840966299470521,-9.586121594306677
74,-10.608289607078255,-10.09226902074162,-8.043834645967118,-8.297505016153677,-0.05642269294452122,8.036227302875078,4.8464719383372135,1.5390104794826944,8.98989819768977,-3.1462432577377837,-8.377343964903,-4.962402862941194,-11.405187622078602,-11.426052697871562
75,-9.803569292810971,-8.186420589066465,-6.46427079839933,-5.888287268605694,1.1236147029132362,5.872847681851966,3.78026359655866,-1.0868760907906467,-6.228728645151221,-7.811527686439268,-10.177396064095802,-6.157662454130856,-11.212236180384478,-10.613807700922132
76,-6.416233605668195,-4.177488442325093,-3.199159584232239,-1.9486025186884983,2.083414778896343,2.0855143257988313,1.517373698821496,-3.569805951547624,-20.133262111445248,-10.398139632108734,-9.290400160463328,-5.82565131167071,-8.18627064562762,-7.178558718944948
77,-1.2441407068315489,1.024479468446881,0.9418816754452451,2.552109560920938,2.5852528305951696,-2.3386933376613483,-1.26658000616781,-5.1638331968430276,-28.66069543260485,-10.14692412321803,-5.778815402006742,-3.9333197803609017,-2.9931831191203546,-1.8108231521464833
78,4.415749819683704,6.16424104122908,4.911733179485008,6.48364938746276,2.489223500432437,-6.226885976450164,-3.7246247171709066,-5.343064944873822,-29.22084815025894,-7.073981398224255,-0.44602290072263673,-0.8517622875946093,3.125744210453222,4.289106911135937
79,9.115386062010113,9.964134586914685,7.7048769579881355,8.857959463627573,1.796955931489202,-8.546460122763756,-5.097836029981777,-3.974578951883437,-21.531018570052833,-1.9850452667580205,5.360166497000658,2.7134277072493735,8.672533715249015,9.694401539265167
80,11.644931614946863,11.45962385692698,8.621868921062957,9.090987745033551,0.6600335474899423,-8.690728350395199,-4.951250283955836,-1.3797872580435284,-7.754387998955578,3.732643224389089,10.101937729382755,5.880320481331098,12.274974760093468,13.094994346322075
81,11.353407037793595,10.254115594349237,7.446987836550212,7.150298508158736,-0.6528394899313026,-6.6419400831767215,-3.311297254389372,1.741103268888514,8.124302757590852,8.489315139307973,12.467472166566846,7.804123360419116,13.031429442327124,13.616368928039973
82,8.313561466919635,6.6230864286792865,4.493730083918868,3.5505796056818233,-1.8230551960410297,-2.9666620057914646,-0.6600811525362797,4.504201757969104,21.50206852009374,10.939640366895864,11.734593132567118,7.897083349653238,10.731487432544542,11.037453591136435
83,3.2907479707264624,1.4409349663694888,0.5110661743959994,-0.7958612486479811,-2.565374422103093,1.3516212151339368,2.212591723865914,6.1002498548516275,28.56069054385558,10.370830423661827,7.981728254577352,5.999924724243568,5.901872635987215,5.85672562043711
84,-2.4687038154213297,-4.04640644860317,-3.5186936539954203,-4.8262005749310815,-2.703092761624143,5.190747182314577,4.45270194620848,6.037663775426161,27.419240358265526,6.91713196326312,2.0865498084271468,2.456407936321218,-0.3274942710022576,-0.8088163538898869
85,-7.566094229749876,-8.538941364629528,-6.6326092673898955,-7.60039323794641,-2.2130249264512862,7.5968703772824435,5.403555442797482,4.294623606961179,18.667026920177893,1.5328738378837443,-4.490545309251876,-1.937790665830034,-6.4992864606725735,-7.4697089940262265
86,-10.804864287737109,-11.004586231054459,-8.123098529619211,-8.527214189298741,-1.2276198292206946,8.033132700384048,4.802626117543055,1.331938043345357,5.11433988197281,-4.274149123182511,-10.082986226717479,-6.110600297087865,-11.177286148292094,-12.601093859375709
87,-11.478600251027244,-10.922979294458676,-7.698840657037306,-7.488003218614987,0.005116194230114683,6.5032584759230625,2.8527971268796857,-2.03829190552231,-9.14141819643563,-8.874961134898552,-13.255565826272388,-8.978044653722725,-13.284725225284312,-14.99611249268233
88,-9.522982257235485,-8.392984392677832,-5.535343316208446,-4.834542516200213,1.1905321736724261,3.521632135833729,0.14849615137080202,-4.888159840906195,-20.013371204596208,-10.990983678091089,-13.18584971804294,-9.733241031687758,-12.354340969051512,-14.05524548075913
89,-5.5010536905474,-4.083641947809202,-2.2097398502633725,-1.2719220651287222,2.063918449050955,-0.054297241334368564,-2.5158966237406926,-6.4414867176142065,-24.656293559812923,-10.063568373911632,-9.885500825613002,-8.081231982810424,-8.63320991293026,-9.942185964358892
90,-0.43494716997461164,0.9513010254607279,1.4572056033962264,2.334876037490658,2.452903846548212,-3.275942687014982,-4.3912835049721695,-6.292463376236848,-22.240508194157332,-6.409103907040187,-4.199375268538851,-4.348410299432862,-3.0184572321661496,-3.5637728238107984
91,4.465352540894286,5.54253601917463,4.608441913888455,5.176904976350604,2.3098956594218274,-5.365698620755981,-4.993965051193683,-4.511292720275421,-14.047999241109084,-1.1125642722387301,2.4196547035687104,0.5746531833989322,3.161411080682475,3.6293891136982395
92,8.103048095250521,8.687701706913028,6.555113704417027,6.685700671891966,1.7091452072130573,-5.915758792167616,-4.2333246572566585,-1.6091722251428904,-2.9066785945387097,4.306223996567081,8.299816338087297,5.452048996308547,8.468171692770099,9.98114129250915
93,9.748954055412817,9.777539470932751,6.929702515423085,6.644925207040435,0.8139196157065617,-4.971064616561864,-2.4125484679839695,1.621255815405258,7.803802444447778,8.348151474641348,11.99621393973395,9.028980874005942,11.70087947733554,14.028228833252125
94,9.188779205336566,8.713529154581593,5.753872457701697,5.208934896965847,-0.17283638513862576,-2.9786336181580575,-0.11019367785183314,4.337017311676643,15.21767645319439,9.969641881224433,12.668859981299114,10.375523905366162,12.182027935499145,14.8594055286405
95,6.733181240743077,5.894407082311308,3.4088035099398186,2.831828756395451,-1.058262770999801,-0.6243734244711355,2.012131297336908,5.87605083177445,17.770641201839663,8.86364656848971,10.287500360925929,9.147216269692152,9.910057545627382,12.340201948146852
96,3.097427645095148,2.0829808387536493,0.5198361854618117,0.1316105012399403,-1.6964467784605322,1.3894616894004275,3.4102973343135354,5.921925127399127,15.486674063851128,5.506591983450344,5.608231772109647,5.683269772783239,5.5390393331649355,7.1404585299757235
97,-0.808894672347285,-1.8055198639418324,-2.2119435440549973,-2.2720985376774414,-2.005692089527911,2.556851713680569,3.8031244759234033,4.560336981453591,9.733087214688986,0.9687310173407659,-0.06587944301103052,0.9106317897877653,0.19231584233957352,0.5542953778401203
98,-4.120403097546144,-4.934343784276628,-4.186107541288947,-3.90461686011,-1.967226775484208,2.7058827454995025,3.222502641112218,2.221374187973282,2.595652013348426,-3.439169335388754,-5.264653121667293,-3.9188780512387194,-4.837659671660199,-5.839519676046391
99,-6.217657012020051,-6.734651089509943,-5.041514673907343,-4.531695881656644,-1.612282559646268,2.021474822192765,1.9623470107218626,-0.46437222763943864,-3.8651710470515086,-6.562218718200791,-8.756061928577616,-7.579820776413339,-8.419877482863853,-10.582913645294367
100,-6.842190380243583,-7.007828519955818,-4.7229478723610585,-4.184090948111408,-1.0065310870223274,0.949589497533019,0.45410120665304465,-2.8459295825077495,-8.212123299475888,-7.715344759441077,-9.85844666557195,-9.207653867496955,-9.855440779083303,-12.697196829533125
101,-6.103378970876111,-5.922063530017399,-3.462404367771473,-3.111335547319222,-0.23867970887023693,0.018012356755615824,-0.8822168236237357,-4.41435417303814,-9.909682579345347,-6.826100116544546,-8.57450930836741,-8.518295719754667,-9.017928689813974,-11.898205185098865
102,-4.388490633721963,-3.9154151221277584,-1.6860501006045516,-1.6839478821373957,0.5850032041817748,-0.36372982735192794,-1.7597295080039594,-4.906266679445346,-9.25101279600759,-4.380660279525008,-5.520382645488804,-5.852363551090826,-6.333304903187835,-8.615653516695692
103,-2.2142623667298036,-1.5430733962166876,0.1214750532667738,-0.2762796282167798,1.3437588632349597,-0.055756043490412806,-2.0827946001375093,-4.330520914651199,-7.03314187292297,-1.2127838107096762,-1.6871161080558774,-2.039522667433948,-2.6169010931068497,-3.8236785396200634
104,-0.07145608484867447,0.6809390764326781,1.5530668413433515,0.8345232524305534,1.9094190909234114,0.7625716356329417,-1.9315678233763158,-2.9246552046300103,-4.1541007631123,1.7792326287359073,1.8793961635164407,1.866519182936435,1.1751200161093298,1.2559989041287984
105,1.6902786980473434,2.401010782723304,2.3757962484543955,1.525245913616001,2.162820265126848,1.6629291879428925,-1.4903801449106862,-1.0658617942271922,-1.3009616197739258,3.890852785567468,4.37573818759234,4.8953142741312305,4.2024642974964665,5.484406229550293
106,2.9088074659776004,3.467397908786463,2.563366634872322,1.826276199829726,2.0200488632798375,2.1343024163748456,-0.9554075193116583,0.8317533736261105,1.1728903376096576,4.7699810695939915,5.427564651134107,6.415178424441598,5.933184348034441,8.073918223727736
107,3.5851577018487806,3.9107748064991372,2.2615394434021407,1.8703079031059602,1.4625151081038519,1.786822655652326,-0.4602016207965815,2.405829745181784,3.181649154307739,4.4447467974313115,5.120818275905211,6.265825007647732,6.226030458673751,8.727894071300865
108,3.810903650838816,3.8653135816037496,1.7053305337943483,1.8124854611951986,0.5597326743717306,0.5199008558122733,-0.0457390011373353,3.403765840313071,4.734838472959822,3.2363350001012714,3.887148101965847,4.740783656220176,5.294641156901139,7.6300628322147075
109,3.6841868178734964,3.4771210908252494,1.1210055021218495,1.7530898773920998,-0.527279997568477,-1.4080432295104672,0.3195950082407569,3.7065064024351706,5.774994416428145,1.6067786149407437,2.2995397059546154,2.4411424761957496,3.5818679579936408,5.309808090091692
110,3.251235387071912,2.836293276295748,0.6482765431511276,1.6920720551776263,-1.5696567470564229,-3.438057369743324,0.686328778360656,3.3243930514819366,6.11761873252715,0.0026971944062257397,0.8579819311318615,0.06002731308098465,1.5959729376502647,2.442963042392911
111,2.496570526511777,1.958308802080886,0.3083020103845479,1.5328425238357446,-2.3203343699370933,-4.882852408744553,1.066205472217282,2.3755817360065308,5.521925017462974,-1.2558012560996066,-0.160176156748712,-1.827344687713386,-0.23523894481025792,-0.3421345548027907
112,1.3832151216641757,0.8187302137481892,0.024899355535096927,1.134395809823251,-2.5785650550375894,-5.157739442271944,1.40026089112148,1.0563725545860387,3.84960969838705,-2.018133623738351,-0.7409570597898363,-2.903480677415289,-1.6506109657521846,-2.5973451334587825
113,-0.07769266200854963,-0.5778010411782426,-0.31366788270381013,0.3921036200536205,-2.2506839245676433,-3.992806164820709,1.5696672220841015,-0.39130555077430323,1.2229673915573083,-2.283855222081032,-1.0649449103409483,-3.1442228109535253,-2.566806508960653,-4.100317220931517
114,-1.76230001190941,-2.1288981065054187,-0.7798389403906308,-0.6850468576232369,-1.3869285630098804,-1.552448416467307,1.4462075401447727,-1.7139416338294193,-1.90778041527285,-2.1465651987201007,-1.368957376457146,-2.7548578955063276,-3.0275012242194324,-4.821218159053077
115,-3.409229596724707,-3.6027134930819082,-1.3508393092901423,-1.9343450075307371,-0.17967152235788086,1.5826208371107737,0.9604033011748923,-2.6821656018898956,-4.836816566705226,-1.7325416852916986,-1.8015103992085701,-2.0445786292404415,-3.1239579708969387,-4.844615359174332
116,-4.65553369640163,-4.666726687045686,-1.8961829941900203,-3.0585970315410496,1.0802247649260952,4.570857449781207,0.15581414559224185,-3.126752868098948,-6.799974249208371,-1.1579333378707073,-2.3335699032593493,-1.293621251435314,-2.9260311695915835,-4.2897769682335
117,-5.130889838108073,-4.97665217698443,-2.216144555954245,-3.7058866163530935,2.0787388629863206,6.557018505672015,-0.7979286956120353,-2.9702456239669157,-7.225158851511122,-0.5133416442136138,-2.7607581143139246,-0.6627363745051921,-2.452711153133916,-3.263974932482576
118,-4.582683897859736,-4.299011432332939,-2.1184554826056803,-3.5873162072288403,2.5645383211815527,6.933751045217996,-1.6445890918129766,-2.246757539647481,-5.938467459404332,0.13000009492884643,-2.794563825238198,-0.17222130935266397,-1.6905631015903344,-1.8619459306128068
119,-2.9879873624578526,-2.6229297325368344,-1.50435861304197,-2.5926498018665467,2.4196636709721355,5.534196790747542,-2.1226277612535283,-1.1022980932741087,-3.244040105892355,0.706490293509444,-2.2032188284739274,0.25277472187730465,-0.6455629485913188,-0.20009952361970304
120,-0.6072275013253511,-0.21470992954059545,-0.4295404965907201,-0.8598263051633576,1.6931539198898982,2.6932643447121993,-2.059105638553623,0.22884624104401224,0.15551766827195676,1.1486483631501003,-0.9419957538646562,0.7003766084372711,0.6017858870703132,1.5433331660786775
121,2.049469963247196,2.4150631228030783,0.8869971509810686,1.2331764501632505,0.5867999290705985,-0.843215927707978,-1.43964160263498,1.4701136401243255,3.3705582771717824,1.392781132032394,0.7841259764089745,1.1955182098402877,1.8702280422769069,3.114162422922558
122,4.343311987183925,4.63249143211477,2.1146505415543877,3.159976608058563,-0.6029701473150635,-4.133873259930915,-0.4252985925686982,2.3625208769543606,5.592279310797126,1.3957394151195612,2.556355626063076,1.6649310042381251,2.9002761781355337,4.213860709396541
123,5.683457037762578,5.857341515788964,2.9093368775390314,4.396681738612068,-1.5694174761328255,-6.3148385244686,0.6931198706728384,2.724381868394678,6.324720040155499,1.153928956519415,3.8685360047786093,1.9588660829385853,3.4237035907355646,4.574463351843336
124,5.704566595608462,5.740571748406408,3.0254109152389455,4.584413527861071,-2.0804326751821147,-6.846102980674704,1.5887531292985888,2.4951239495308752,5.5066080586925965,0.7140111814650777,4.299595643910759,1.9185185178567004,3.2563182728548776,4.051691299982641
125,4.385975936370403,4.2822957676184625,2.4018265976171467,3.648434004017653,-2.038839222148316,-5.656597205963424,2.006804544783261,1.7504051337341375,3.4921797681550633,0.16820205651355244,3.6677772719765076,1.457554776890172,2.3774616030377307,2.6983657727691215
126,2.0696408337683465,1.8469893567805968,1.1906635172892952,1.831142370817721,-1.5011675740198045,-3.146688824125036,1.847582553128761,0.6829806954733786,0.9103025217615539,-0.3662664684158771,2.107508870972065,0.6198778671289268,0.9616979650223442,0.7832353088505762
127,-0.6333017427547715,-0.9339221803456236,-0.2840448820008268,-0.3753820961524183,-0.651390942940699,-0.05232876645890723,1.194457057371918,-0.44668119748795465,-1.540730500411398,-0.777234182067669,0.0379279714718966,-0.4139177240037313,-0.6551599986585064,-1.2611278222078348
