,AF3,F7,F3,FC5,T7,P7,O1,O2,P8,T8,FC6,F4,F8,AF4
0,1.1969419307673272,0.9289416193700495,0.7301481196604638,0.5715718059301876,0.3863570078225815,0.1233761763192961,0.49613833211169217,0.328190242584879,0.34868527477619626,0.33611970826967924,0.5466503929411934,0.7089650645550812,0.7392305047951723,1.0166128226315296
1,0.014329962485933522,0.323849609760162,0.38658301304687176,0.009269505621077413,-1.1843402398083964,-3.2508971986736372,-0.8855413338139984,-2.925956369211248,-8.390457716352428,-4.628885427088068,-2.043623415041413,-2.5532855893427504,-0.7118235145017024,-1.04933374290655
2,-0.9530945719881148,-0.22917392169278397,0.22082641438751546,-0.38074441938216635,-2.472667457642968,-5.74086945611106,-2.0592731872660694,-5.4319024914028,-14.803431936752839,-8.49651577606425,-4.191333459846594,-5.0900479074067135,-1.9672877110443088,-2.6674265716595027
3,-1.4000408126022394,-0.5829092219412224,0.41610374497876085,-0.4330630963610636,-3.1828104652899607,-6.692343270776661,-2.717941693888543,-6.5232253659163195,-17.123991934267785,-10.382746307373653,-5.45851325199851,-6.24884301762093,-2.756692979857763,-3.3495932620609614
4,-1.2112767484902571,-0.6790922928356188,0.9625633631786064,-0.1339838424515219,-3.1684525593804826,-5.8761637651924055,-2.6530863625017083,-5.895419301326991,-14.7362199415233,-9.869286004317111,-5.57368298671179,-5.7492840471219315,-2.9152946370114785,-2.8985518897471585
5,-0.49423702547497966,-0.5592336587366963,1.65194162092964,0.3733042791203306,-2.4660685226941665,-3.5484029018666106,-1.822651759304966,-3.6958866448964764,-8.35230395945266,-7.102333311647576,-4.489105783829146,-3.7530002814694705,-2.418837825577114,-1.4643146899280253
6,0.4584627448456738,-0.3398784108252682,2.1512542249485707,0.8430879074047466,-1.277508023983306,-0.37359731219995795,-0.3902527339360449,-0.497320526353697,0.19195875427620887,-2.7580317371655676,-2.4039102129577947,-0.8155463721019981,-1.389460711979753,0.5001650623774191
7,1.2648017962899438,-0.16225050319910375,2.129342629949274,1.0219653288498216,0.0912779291383049,2.767276997051419,1.2862756526662598,2.844516011706269,8.46784761943927,2.1193902053165123,0.2566366603438256,2.265045559878748,-0.07114807484231155,2.3706333513736055
8,1.5785260822237117,-0.1346114301576353,1.3913610921002133,0.7504950835720149,1.3159087193517744,5.028727789812126,2.728596011178351,5.4164506766098635,14.157237748735149,6.369876294292793,2.911143742821818,4.661784122607081,1.2217916102216853,3.5332580487339835
9,1.2062067771020506,-0.28772020456243375,-0.026680338043432544,0.034941750538088935,2.138068563461006,5.839159817306962,3.465370713643104,6.499359044022048,15.722100301854045,8.999788432355746,4.937509546389222,5.737890367635749,2.1746826202993574,3.566255836414314
10,0.1807678245681381,-0.5590695836436239,-1.8378836957592821,-0.9380172640855432,2.4251633328515934,5.055854382498955,3.182179630625441,5.776020216693364,12.84094453110855,9.42421494483963,5.816407515345211,5.214779984600947,2.5476646023638323,2.3716017852700606
11,-1.231855596873826,-0.8118044496083859,-3.5688536787982286,-1.851620594519492,2.190339213486075,2.9912493043290493,1.8463071261287693,3.433273456345389,6.481718973662338,7.607496778755079,5.271872018886845,3.2457961899298517,2.2396397063823597,0.21997359721831794
12,-2.597588186182286,-0.8826485699669504,-4.690873880190201,-2.3600323165889945,1.5706893672215718,0.3041678792705353,-0.2420254001559656,0.12291297515016597,-1.4095253330617161,4.064912535869816,3.3699309297588758,0.37682623448680724,1.3241025355522078,-2.30586268183385
13,-3.4350864800770027,-0.6434930115566166,-4.778753956836066,-2.2076796934167975,0.7737739499439513,-2.208939083782024,-2.5024918324397176,-3.214528883291179,-8.50722597597243,-0.275870814497245,0.5390098721505553,-2.596531201769068,0.043659172087202026,-4.458225281293259
14,-3.360767132250692,-0.056525420264234884,-3.649377548926425,-1.3271274908800181,0.01090402522970879,-3.856859027532086,-4.229278055296534,-5.6172685973163246,-12.806653965031671,-4.317857856934707,-2.508199706150147,-4.839544543064339,-1.2417090699170774,-5.527601102946282
15,-2.2179835648036086,0.795736741104833,-1.4379284611356824,0.11853114197961294,-0.5621212229450848,-4.254648588802991,-4.808130193829819,-6.3846599891163045,-13.20989355532593,-7.078321102547,-4.944897886609625,-5.703486978668915,-2.14569654030035,-5.0507733938295925
16,-0.15249393362685548,1.7169915672631086,1.4120390864427272,1.7656289375496066,-0.8800857556624438,-3.4211649554124435,-3.928810413906911,-5.289505622913632,-9.819138452466184,-7.937687336501883,-6.055304101920129,-4.907267627282208,-2.3661646878583853,-2.968215365173727
17,2.391516901726688,2.441143413253651,4.244149913763751,3.1461702296768426,-0.9709599833735622,-1.7456014909912785,-1.7193063945029619,-2.6530281456247837,-3.8534442613881,-6.787679438691877,-5.453602699908172,-2.6265801010714287,-1.785214256124227,0.31664146850556896
18,4.761141789368432,2.7035895571509014,6.346566197614478,3.8230769173017434,-0.9280013283316288,0.16157893949797755,1.2525728459047458,0.7447326005005321,2.77437263264943,-4.040220735747801,-3.2278132727683975,0.5368828567639643,-0.5263120125734511,4.002415267332073
19,6.253971452439147,2.3212459111861423,7.131328330665527,3.5242884455559915,-0.8624303056492423,1.6805189810951005,4.123764297829398,3.8957073575958314,8.076736036249114,-0.49713044510605753,0.045927608796619036,3.7039214033800993,1.0563888506714318,7.074500465335352
20,6.310310300124724,1.2591555804962296,6.290596037687806,2.234972535669921,-0.8533605601958493,2.3844355108332964,5.990708778582937,5.8671431687886395,10.60333525032407,2.8805688645407552,3.4380991099109908,5.950509407968347,2.463545840977921,8.571260535195213
21,4.68901620744853,-0.33632085936877276,3.8906118484692382,0.2188190013525295,-0.9123190281752943,2.165545736463217,6.197280955836153,6.084132891483378,9.851677612656477,5.237068051197905,5.9224880272388525,6.566058024436597,3.1941356281209017,7.8655627426224575
22,1.57645323030275,-2.1502456993729497,0.3790649986727363,-2.040146299561889,-0.9751657836927149,1.2451099144605045,4.561765904507986,4.502719856705876,6.353798184754219,6.0448141150621515,6.684798510009676,5.267196665982985,2.9079470964012577,4.882609503771114
23,-2.4094622345473007,-3.759108920150194,-3.4985002802338814,-3.960639794883167,-0.92555996139197,0.06912984084720589,1.4634237532615604,1.6187049536045965,1.4276784858763587,5.224929345975263,5.389190710015478,2.3040165243714026,1.55590652376516,0.18354015673018145
24,-6.3335703097061975,-4.7271159214934135,-6.856955254849712,-5.018503698716381,-0.6435742851778646,-0.8690618042202839,-2.247620909654029,-1.6904498438053006,-3.3063696068224155,3.1358327997927122,2.314226052299069,-1.578625717849535,-0.5688612237206493,-5.124852846615071
25,-9.158254642673288,-4.717324586654138,-8.871162846427387,-4.889585802201342,-0.063720406134069,-1.213509247903893,-5.4955214335940825,-4.439555941512691,-6.469751920769293,0.44109307539347076,-1.6946454707130698,-5.323351134782699,-2.8853036599669646,-9.646999199238559
26,-10.010879100154675,-3.590418325109475,-8.973266878310971,-3.5415613514652633,0.7783247496011952,-0.8709993097539822,-7.304434090903247,-5.837361452929143,-7.343496226366413,-2.097104445579288,-5.452997892443469,-7.843037186611636,-4.677648098362657,-12.064320788030637
27,-8.436245571043816,-1.4646366672556963,-7.002778176135888,-1.249758211780553,1.729397975934541,-0.03352617309017081,-7.101391151150524,-5.520023413977951,-6.026776796748495,-3.8333364816983866,-7.784220513467138,-8.32903355306404,-5.307612191392255,-11.51387557862204
28,-4.56354549354394,1.2821323770291195,-3.2725439638670863,1.466595248566846,2.5436081939883306,0.9072159990365415,-4.898413308001893,-3.6444896523484815,-3.301085275475466,-4.400253199423575,-7.882212762351528,-6.497650921348712,-4.422699513436722,-7.8709726106705284
29,0.8662496573396629,4.07439216920078,1.4701610621508976,3.9697733285061334,2.945726191946776,1.518664174082771,-1.2945793954636367,-0.8172958160638367,-0.27180865400362497,-3.775139806799735,-5.577111902101477,-2.700724096110542,-2.09388919093564,-1.8458202219163022
30,6.633628388497125,6.256427427445651,6.186490472096583,5.657318337077897,2.7170042434206487,1.498576909145168,2.7026169770505173,2.111436719554663,2.0649290862619427,-2.24400181768474,-1.417252283135962,2.138385330197552,1.16607713167698,5.148147082890718
31,11.313711202358766,7.2421907188465156,9.768451994799248,6.105523624560546,1.7775312533637662,0.7942771470210173,5.978803170939153,4.3165116319551915,3.164064043789496,-0.2871624091593189,3.4648042898813944,6.753321777979926,4.51785219721671,11.332873688112379
32,13.628877373396422,6.6649246026373605,11.29597367005757,5.1690173833998045,0.23730140395087837,-0.3738540084179993,7.64082972906955,5.239813184215042,3.060715025591304,1.5696198223016056,7.668018931788198,9.869964324992,7.017148931150876,15.0282393127522
33,12.793642131053492,4.490429273190597,10.270929353772885,3.015515784980829,-1.604641376167375,-1.5921425273392937,7.269194093611746,4.731320501143959,2.254438130853418,2.8914315595513864,9.929256558648992,10.55778215804321,7.88183059688359,15.114895456866776
34,8.759270399698778,1.0624659121179814,6.769665233527603,0.09078644623605402,-3.318980155007952,-2.4058706506109044,5.0202665711897385,3.05271667196994,1.4145690008740384,3.4232859131815956,9.499661978996045,8.499243469645142,6.727121147489251,11.36721834643195
35,2.284935366055667,-2.9387501540124163,1.4689044200590993,-2.9761587113847545,-4.451025926058071,-2.4871458734587684,1.5546160419239123,0.7556383627373849,1.0414543435266659,3.118611187550676,6.37790275532603,4.099739441942316,3.6987262022082543,4.55735530290945
36,-5.197039930404516,-6.625310630442405,-4.47369882026153,-5.506553641302159,-4.644624849758122,-1.7568898405954887,-2.176443145201077,-1.5128486224028053,1.2313293070827243,2.1146120947557314,1.3293211146617578,-1.5964284316132398,-0.5380382303084851,-3.707728027898192
37,-11.901546217242855,-9.096416474325473,-9.668398369994069,-6.916945165558613,-3.7501770001206713,-0.4173185354778477,-5.212060139606311,-3.2061010173512283,1.6451386554085197,0.6749957059388549,-4.3163806201981245,-7.16501810573853,-4.954204118091131,-11.380571106163304
38,-16.125025399446912,-9.658442431574032,-12.820625286270007,-6.847557106564117,-1.8844011356224408,1.1155554761244355,-6.841837742409646,-4.011662431420014,1.6931432306746688,-0.8773066011589106,-9.031015705054848,-11.168287386052388,-8.418244616677292,-16.497897946806802
39,-16.68651276698661,-8.017370910065889,-13.059886265159001,-5.248631163579665,0.5781895903945546,2.3539289815368414,-6.770484802273675,-3.889370389444505,0.8536197188215979,-2.221468926919924,-11.512202226563572,-12.531575238232577,-9.992885968833138,-17.69647731806779
40,-13.259158705979903,-4.390699376139008,-10.185276175562358,-2.40595872642694,3.0835906448770194,2.9035512736879543,-5.150070556266756,-3.018912137826484,-1.016316822244329,-3.0881263044955,-11.04531488465285,-10.82968986170913,-9.188236800821548,-14.581096776081457
41,-6.498121073326886,0.49975209410997823,-4.756636186271605,1.1033735132180735,5.028559373890914,2.5945485116257045,-2.4875506656597213,-1.6939316548739152,-3.521385819258576,-3.2979169531618506,-7.701962963236004,-6.407016427222008,-6.103381584773481,-7.844057952117699
42,2.080077532359563,5.565619350739195,2.004531690359917,4.521417284532648,5.910431860655722,1.5337752575436236,0.5280797743805414,-0.21325522162460728,-5.804978188392358,-2.791410851968618,-2.3217231608601043,-0.29959783067291007,-1.4178634675920754,0.8982246941995665
43,10.447231184931175,9.597707864945463,8.491779330657186,7.068347877736799,5.4582730398506945,0.06339880501705433,3.2172587075994077,1.1888856004800206,-6.849919571731457,-1.648178084553414,3.714807973446179,6.020499733248763,3.7666395408508238,9.510310211430339
44,16.560056926927597,11.564691607993588,13.106033022813707,8.119437179993508,3.711335777683739,-1.3569100663001288,5.063363994723328,2.356868896541532,-5.894650209373894,-0.08695817934447739,8.856497935900919,11.012373485493725,8.19572074702875,15.878861441561519
45,18.878330526473707,10.889178281339163,14.665372147207073,7.361030748367622,1.023632306210244,-2.301701577336782,5.794318721657407,3.184427760119166,-2.800045346946984,1.5629980717686371,11.7931674006679,13.450903259790307,10.775493108551546,18.44829276353661
46,16.768296448946746,7.624187880247143,12.722959256358795,4.886052728941469,-2.0086367503043685,-2.513609583497676,5.387904800003001,3.5746692483475235,1.7897887134390609,2.9239779766067966,11.797015920565105,12.731237075297054,10.850590646038759,16.611435898851738
47,10.681232913935203,2.473899307820986,7.702918544599537,1.1990956460890463,-4.681434274824264,-1.9763031543895337,4.0212033739016935,3.4241151544324433,6.577624601933964,3.6578785903575857,8.904269572992389,9.016888314610183,8.375481811776702,10.854715440439996
48,2.054466182641114,-3.358232320438411,0.8099957528430509,-2.879698082172911,-6.348601248174613,-0.9060914230729085,1.9964642615568877,2.649548776774897,10.009592235408443,3.559273535136681,3.8918867853771277,3.1954341716088157,3.9332755633105974,2.622532356077328
49,-7.044065215261513,-8.463067090741955,-6.269901635644258,-6.397494905426528,-6.580246211039846,0.33031291608338675,-0.32740723111070613,1.2502634500050127,10.808024345066443,2.623971247584153,-1.9403957368865081,-3.3452971260848336,-1.4058322624476456,-6.060530255742824
50,-14.436610042935156,-11.587397619354638,-11.801867684064764,-8.498774211822939,-5.275439003645547,1.340774862086693,-2.582577447449804,-0.6255155157846358,8.45032417560227,1.065849531747532,-7.120753797819071,-9.062379099556015,-6.352883521255615,-13.108066431451121
51,-18.384466642491123,-11.965680931489473,-14.450832923926885,-8.645450824114969,-2.699920660848403,1.8325816547193396,-4.42101889486486,-2.651075679467338,3.4130724173592824,-0.7309900540054677,-10.392432474864062,-12.635857271408277,-9.727233899505013,-16.8937412091008
52,-18.018972564086862,-9.527299576920552,-13.623895161081041,-6.766943227962517,0.5641156488863998,1.6972687606752075,-5.5376669908285665,-4.359759808875714,-2.921287950723529,-2.3157688216988457,-11.032985243149188,-13.2839009093597,-10.756606452546562,-16.64117481286221
53,-13.540899567209504,-4.916816430760655,-9.61167483106541,-3.2942748155656787,3.748599047036982,1.0312440961357532,-5.7025319512699335,-5.2563315943169515,-8.67853097433493,-3.3000062353302195,-9.02138855102702,-10.93669184651547,-9.269310674606267,-12.584066951389334
54,-6.138903127650449,0.682464597034224,-3.4911417274757017,0.9381621357454695,6.082575826095046,0.09036348827745838,-4.806927242032678,-4.973126570401789,-12.093780871900318,-3.4699330862789988,-5.011805590029711,-6.228622459715853,-5.725638606939712,-5.862400186394721
55,2.344225888344487,5.873030787647692,3.1792169275084654,4.902269124062692,6.984431863088994,-0.8021741126016336,-2.914168045759266,-3.417774065915726,-12.094702946113715,-2.8438746866561235,-0.12683721267155112,-0.31662277767452346,-1.0795741034671478,1.8077591898029448
56,9.899767750447856,9.421804618192482,8.781842133179396,7.642554558978136,6.214523925336642,-1.3619336286132397,-0.2926450875527669,-0.8533210851547315,-8.663450536200369,-1.6545917690893286,4.36673869020577,5.422136030294339,3.489696979091827,8.5936388954008
57,14.858413150053156,10.581775305374132,12.058400763297264,8.525149378811701,3.9461690169274197,-1.42892478367847,2.593861018406142,2.130697224214978,-2.8492208034254425,-0.26339479605681054,7.404767256653432,9.729936840559956,6.898858738409121,13.00607760282648
58,16.276590171956276,9.263306001343828,12.407578246464736,7.3984274772866065,0.7318250943176895,-1.0078121006736802,5.154289342073847,4.761313303523876,3.57485179881948,0.9622994281548449,8.39584205552835,11.756246161844029,8.440995566176378,14.238594520656935
59,14.108277353827651,6.009675173699304,9.986323060764972,4.619313156737819,-2.6316179273015528,-0.25411763169455426,6.792914263549228,6.302275642736222,8.692269170529006,1.7633268572491,7.340695618728587,11.223208932685909,7.945507670589333,12.303507948218227
60,9.133293945057803,1.7938424611718713,5.600260378865837,0.9394947216816384,-5.306248997658708,0.5844389871709735,7.060018121041011,6.282505365050766,11.061024491080259,2.0546173585926315,4.774070093420792,8.436664601448427,5.7756918213518675,7.945333385327483
61,2.6839463796730176,-2.2906333228413454,0.431974322389446,-2.711972720740322,-6.63196386093629,1.2492370301273352,5.787857558990108,4.655603476298441,10.158268251441962,1.9218657483964585,1.5571533937996793,4.155264217448873,2.6738321260452786,2.3757743253947052
62,-3.734930351250216,-5.341332421027309,-4.30007334675417,-5.482714220778338,-6.30058433284058,1.5477061494673232,3.166533099254039,1.8324724740677412,6.5054805493530825,1.5557848228181395,-1.4063270146071107,-0.6320885095959329,-0.48875720125101824,-3.078640052377063
63,-8.81745841475004,-6.863788936068137,-7.6472645091433495,-6.812136674082593,-4.435764811058535,1.4031937462126878,-0.27192722914392037,-1.4296972120439808,1.4421485419605125,1.154698348203097,-3.436774784302139,-4.95091926452702,-2.9719050799980358,-7.309245647596731
64,-11.721441182785396,-6.834559135951468,-9.118497036763348,-6.5477432549297845,-1.5550533047319102,0.8659555195806204,-3.766416003755688,-4.250097718442831,-3.3614871544409985,0.8373171069457459,-4.245296483559649,-8.04201586816226,-4.354200136652023,-9.649141168457648
65,-12.172974108505105,-5.608852994725249,-8.713422773840025,-4.937046467514561,1.57573048050522,0.08689552539459361,-6.510865983102432,-5.887807401568327,-6.4749901494488435,0.6015267276411356,-3.9552861865816973,-9.475645899830942,-4.595434999635359,-9.94291551989157
66,-10.41327346158438,-3.7252700459338026,-6.818019079793531,-2.509996473626229,4.154158255704545,-0.7330542514505024,-7.859600521860979,-5.9604218992688445,-7.162179547499989,0.3446180608764561,-2.9858864590972916,-9.1695230624054,-3.968005186026966,-8.470224585312657
67,-7.036882342389459,-1.6917600604327543,-4.020646850622952,0.10028170658238472,5.557928863419325,-1.3993993462017844,-7.494836501516012,-4.5467721111637145,-5.569080297161691,-0.06597468521905438,-1.85133149513403,-7.331522047680073,-2.89737298476245,-5.775706595488364
68,-2.793565628809434,0.16493019296099315,-0.9231591067584294,2.3361464017007854,5.504709601209344,-1.7691467673155175,-5.5073286804227175,-2.1419486458021955,-2.5948996324482505,-0.7039506692090568,-0.9560502803867892,-4.3657515389415105,-1.7802684763828904,-2.478822046286397
69,1.5794006747455165,1.7372152685520779,1.9903470424015968,3.8388478761974265,4.110867872242645,-1.7741200248883249,-2.367337434615578,0.51702647426004,0.4908907728369187,-1.5179693728999732,-0.46122950842112975,-0.7803667745318944,-0.8506802642769593,0.8703971629168775
70,5.456352582503681,3.063332891230152,4.397810849811541,4.4876059579340275,1.835833414314435,-1.4215111357336587,1.2033926256044472,2.6931762495716445,2.535817174779087,-2.319691211421829,-0.2667050995279296,2.8800200392159923,-0.13862669788153864,3.8545734130861318
71,8.353134094611692,4.191330337104276,6.1073087966686765,4.3583656820027965,-0.6667562394552017,-0.7785770452513819,4.418612170181931,3.8760955808761377,2.9166201079944702,-2.8354794983469187,-0.10523937878319775,6.0766442116664345,0.47400325749613864,6.176368881213818
72,9.917597076159847,5.0544647916110454,6.990579235279919,3.634331770139871,-2.742905763191578,0.04807324851982496,6.618140540926741,3.917868792558452,1.7321372091769902,-2.8046439080070362,0.29745206658487694,8.310705513088001,1.1360673908474186,7.608179615164702
73,9.92183890207252,5.425656344723788,6.933352501368315,2.5134202180205705,-3.917537841147785,0.929918623539883,7.409878994939672,3.037341578471431,-0.2824404643178393,-2.087002299297872,1.06754752083037,9.171114361955269,1.907003033181011,7.95471396732426
74,8.285942723044887,4.982748839799254,5.8395849983642165,1.1517558451620178,-4.007240919647318,1.7276282666692233,6.730538579095909,1.6994928888985879,-2.0765020061198665,-0.7371353102261652,2.0989922064666775,8.40685135642206,2.690544877328644,7.066397542130715
75,5.135222650205481,3.4652607082138007,3.695077674527474,-0.3392658374853175,-3.138150791191997,2.299107394090993,4.820032542676321,0.4207178042386045,-2.713416022197001,0.9857113316161594,3.075955160551821,6.013533320293041,3.2531879764462555,4.909816756777694
76,0.8622820544581798,0.8577913780785864,0.6608365803855665,-1.8525182735191594,-1.6720389700102898,2.5114457522154097,2.1301417908675475,-0.4247060915923062,-1.746674654675358,2.6791659967454438,3.5931342427020114,2.302390203388144,3.319890012702907,1.6647936002120007
77,-3.8532798189968154,-2.4853827584790236,-2.856567271827843,-3.233302754054115,-0.07222752978971174,2.2626053191192375,-0.7968061201953679,-0.7254167081732804,0.5949801690415477,3.911056541130973,3.3248402764816904,-2.0898523036946113,2.704767220684207,-2.2069926353187066
78,-8.110444964903493,-5.8455194007262214,-6.210409167442529,-4.2546361630654195,1.242765778305903,1.512892165803158,-3.4425787598213557,-0.6395145353543052,3.4788577933754157,4.345921965019607,2.1734468921522456,-6.282187082716762,1.4180571611200379,-5.9771258940468375
79,-10.95258876672764,-8.299262548788617,-8.622774895715361,-4.646138257895185,2.01074285683667,0.3182590868021829,-5.395552538022144,-0.49014852325382746,5.767922916370571,3.8421853448460435,0.3355175442500262,-9.325442726482915,-0.3005404279193713,-8.777626057794627
80,-11.606313795956373,-8.99654954812133,-9.38329206484492,-4.17714074985372,2.171871241526228,-1.1488754958507499,-6.392672736391504,-0.5961235899437592,6.439468746371876,2.489507120658416,-1.7434501814186425,-10.439507250913627,-2.0414386601334504,-9.823219882077513
81,-9.726676394669177,-7.46696514211584,-8.08172054096457,-2.765917901297293,1.8439253478161026,-2.6066971425022,-6.327684334756128,-1.1081508436413172,4.972892522775724,0.5783317112366116,-3.510414277558289,-9.245787016525625,-3.357470709258752,-8.665853815847166
82,-5.5631820666983565,-3.842176833693077,-4.7933897319794205,-0.5681231511811822,1.2459233663364018,-3.708373327827132,-5.240282552461613,-1.9187977517321382,1.5690676421648029,-1.4828427590281223,-4.488995278519595,-5.917097396183771,-3.9172328793219213,-5.391764169566707
83,0.026665776175941593,1.099080307089143,-0.14048541593197522,2.0021260465997126,0.6045154817013623,-4.121127865098138,-3.2995496647209714,-2.685417188357447,-2.876582482985848,-3.2715863794273754,-4.436631242907571,-1.1833272625717746,-3.6178488382566067,-0.6774038329623226
84,5.746495795641134,6.1007517797682285,4.8132229682135925,4.343922740808043,0.07868795745832531,-3.6231312463884047,-0.7871808627286312,-2.961093666928843,-7.040337671955047,-4.444068383941599,-3.4161942699520376,3.8272802005356343,-2.611706834823895,4.3391165169082715
85,10.182780873562084,9.77638610938235,8.821871337665362,5.824595150462547,-0.27347707034408825,-2.190216042377847,1.9232424265859458,-2.3855119218215384,-9.588148200507916,-4.793333133755817,-1.7579414114655232,7.877644172976737,-1.2372915611384914,8.351953001957122
86,12.192606507441475,11.029192340646118,10.802889960176117,5.973560789839587,-0.4814226051661551,-0.04147665046935703,4.399974371953368,-0.8619244558641413,-9.6080308694847,-4.267438107965116,0.06919129248637969,9.961539551388185,0.11588008085165485,10.265365045719129
87,11.239892888530882,9.408239638051475,10.16349717590472,4.649494372889151,-0.6161178224501832,2.3794056694299957,6.20718271434597,1.3519116161547147,-6.916182781873622,-2.9567293483491546,1.6235638231324498,9.590252591309474,1.151068908255354,9.53582165225353
88,7.5701406991387294,5.2781149702527985,7.001244194645145,2.1179814297485553,-0.7363580945178153,4.492900884240884,6.978549038133677,3.6818330505049777,-2.1383694958925448,-1.06658456611715,2.6286936254040163,6.934511366340452,1.7570171549808795,6.361113052127101
89,2.1600114769325787,-0.26236902131274786,2.1064331128114757,-0.9962138894938989,-0.8521041242015185,5.726096514250027,6.498449248168751,5.400957738015437,3.4591512466773042,1.1111310961372516,3.0322235443874206,2.7733032187769338,2.012667601851163,1.6440930066091421
90,-3.5514580689785316,-5.6941169699957195,-3.24422922779605,-3.8758799618959747,-0.9194815086885377,5.672820665679473,4.769816281627876,5.868403022390881,8.335962080402505,3.2247195219114113,2.969734068977102,-1.7376527917499187,2.105861357569007,-3.267940658453308
91,-8.072160291050936,-9.527700687363893,-7.645611901522292,-5.74837373152658,-0.8669308990920597,4.225089955894825,2.045365736242145,4.761965617809785,11.127662882707371,4.894597308819396,2.6570145152086853,-5.406678083439886,2.206016987041347,-6.990633902949922
92,-10.281908470554104,-10.746249802391048,-9.965873524311956,-6.117523840353486,-0.6383226025717906,1.633250132539886,-1.195077561406709,2.2213589582158124,11.04298818453436,5.761530917246243,2.2632957082147835,-7.3496050237503905,2.351610411066674,-8.526731288215577
93,-9.741983149041507,-9.100055361154357,-9.667963630117201,-4.914203967407813,-0.2320240389608194,-1.5301117819798569,-4.325114751528908,-1.1539537758932898,8.089984811526751,5.555999999062608,1.824270280647381,-7.229100044224845,2.4076670023321167,-7.568126071267004
94,-6.795021295615482,-5.161056092073848,-6.951574391013923,-2.515246043080331,0.28272118242806943,-4.500365044121354,-6.697550423889008,-4.460141496123625,3.0674400281415393,4.17943665504067,1.2351607599114107,-5.317956649718813,2.11836146616871,-4.575744185319483
95,-2.4287310163192606,-0.12497477214056311,-2.673446448984624,0.3759595974788071,0.7805916718681504,-6.514656716890745,-7.788193426194128,-6.753100823507074,-2.670846839092817,1.7729111893907172,0.32834143064940263,-2.372690649374497,1.2375084083618648,-0.6109496625905589
96,2.0475697174212373,4.568986213210954,1.9253660927408067,2.9477534041228015,1.1211632085268228,-7.017943261148927,-7.3226139265852135,-7.338448293965076,-7.60466722461295,-1.258803970082615,-0.9983109028498399,0.6346143705473793,-0.3170864084935107,3.024388371794213
97,5.406557490214226,7.674286617637919,5.596137036549557,4.525664290709038,1.199849134541063,-5.823117380286344,-5.352432501461541,-5.993644554736462,-10.472221776333098,-4.293772662716144,-2.661312922475723,2.833974126259696,-2.3549375880233,5.217737299863267
98,6.857930284730856,8.489627819411835,7.443431147346257,4.765855741266296,0.988204439553411,-3.177352562552257,-2.2587719819923153,-3.0488829748879094,-10.607978077341265,-6.61585171066516,-4.339943702841532,3.719923242457707,-4.406171411174115,5.401405965793182
99,6.246916227489975,7.022383749436954,7.159871032958353,3.7368120713818773,0.5471116775588447,0.28833044800258284,1.321832965210697,0.701583809099397,-8.100259435489411,-7.591993046194646,-5.529211145433873,3.276498878294408,-5.835409062271635,3.716002723441723
100,4.0432576185597515,3.9242759747703198,5.068739928210872,1.8683984623302785,0.007208492237211663,3.7165356854275733,4.634181480794066,4.23132741335348,-3.73132238953072,-6.856972347137925,-5.692602766174437,1.9316409927860536,-6.046866355082725,0.9306968282619541
101,1.1373358251017334,0.23656306107054467,1.972653418517401,-0.2082193943148622,-0.47603665565037584,6.247106402772434,6.972640663072065,6.584369631565955,1.272615673371908,-4.447531195813583,-4.467431988836381,0.36608881729862425,-4.711688476852232,-1.8474838027287235
102,-1.4790120245428116,-2.9593169402326454,-1.131564164645734,-1.8718127484980467,-0.775299147131758,7.245758007453477,7.841091175503509,7.153790480865356,5.600145764610977,-0.8366040256266798,-1.848332675949582,-0.750548668293053,-1.9331709207029082,-3.571744019056963
103,-3.0369000791851364,-4.866954186034199,-3.3724734150048947,-2.702085769510871,-0.8323256694792585,6.473733646636848,7.06616606015647,5.850277459418473,8.21374227718466,3.1546010184140103,1.7262142044325204,-1.0024815750141098,1.7186654882866588,-3.6224968451608976
104,-3.215022684549137,-5.1756522539953655,-4.254250803534737,-2.5901332443270446,-0.6719511076943742,4.1503518960019194,4.836358647286369,3.111038393671112,8.607016232278824,6.55179911754083,5.4315596727113915,-0.36620749927408774,5.329328647227874,-2.0176544468556634
105,-2.1985958604345637,-4.086292078860428,-3.76363686720975,-1.7385799060536475,-0.38525347537531895,0.8905863479051975,1.6574005105410674,-0.24880122624145493,6.894454956291237,8.480463899536451,8.258137494481254,0.799461271994776,7.890830538657247,0.6037052633113993
106,-0.5651675786001545,-2.1742950741371865,-2.3120891506744528,-0.5601536584021292,-0.08994095017320024,-2.4643950727162367,-1.765502628220699,-3.2906205184533213,3.7217485632408795,8.405956883840835,9.304039993787248,1.9034846897386115,8.606276344658003,3.2156005488607318
107,0.9525765379865336,-0.15372507301712265,-0.5475459443370989,0.4834551624416298,0.1155719753659628,-5.075226427973383,-4.690405086897494,-5.229629810854781,0.03837331004403502,6.291041877902071,8.069631309114722,2.356189400387903,7.150209215112649,4.774141772641124
108,1.7391263297943087,1.3682325415363705,0.8894953694591015,1.0437308466491166,0.18641034213696353,-6.326193628261983,-6.5074356720683895,-5.648962544634474,-3.1891551864144607,2.6226260094815292,4.6563306251500265,1.8018821332036925,3.7969935034986317,4.592892346627449
109,1.509147083185148,2.0647996410976734,1.5788230582375828,0.9937573492191484,0.14141368685909847,-5.979218924012947,-6.873547464236739,-4.589103020463428,-5.2352435153520664,-1.7038468663309134,-0.2039572987125171,0.2674473073603429,-0.6301956635335821,2.5951452670924717
110,0.39193379806766804,1.94387155932482,1.4337866419772236,0.4503896337440092,0.04702399603395042,-4.219202574583436,-5.7816150181139445,-2.494389720366493,-5.774351231626388,-5.6133654285907575,-5.311734456204947,-1.826317870734731,-4.980000284360568,-0.6436227653388746
111,-1.1349230324350228,1.2820425233654449,0.686599891570371,-0.2907309901081338,-0.016822015481378256,-1.5822536196382715,-3.548645467157779,-0.04466836961268189,-4.9087059492061975,-8.13205324408842,-9.317162497192417,-3.7961539321403506,-8.098352534157419,-4.078251816636218
112,-2.432770039047654,0.47832459326592713,-0.23627182972748728,-0.8784279825804209,0.006154155500485859,1.2078770277718287,-0.7280235058528627,2.0658905104415197,-3.074970799694032,-8.642760028202687,-11.102194266808128,-4.9266799777209656,-9.159680998537088,-6.540284167150668
113,-2.940396616208121,-0.11045007042947658,-0.8942757718837004,-1.0406276399548473,0.12369605900259917,3.444668483305959,2.0304472456318563,3.3296558079995067,-0.8745049537763608,-7.045359514153309,-10.113248448854545,-4.721302902459671,-7.9024721417911135,-7.131919813093294
114,-2.379495636141769,-0.29265894001782883,-0.9997308928118689,-0.6826381964214877,0.29199812734958586,4.6251328785436545,4.136364737883981,3.5465373794089596,1.112226036271159,-3.7781856858291283,-6.540870314902701,-3.087541560561282,-4.698167283931778,-5.53526300042902
115,-0.8569600307483313,-0.08597910103262855,-0.5135766653603462,0.08322112533281469,0.4348870860864489,4.566314534387965,5.191162578142225,2.837290322763745,2.4715003742841595,0.30414501914944747,-1.2867971402208642,-0.39201636635359915,-0.4350034747507964,-2.1329539656054366
116,1.1688447549183463,0.3222738451977879,0.3580082234226021,0.9834199562616368,0.47660176188055514,3.4240979059429115,5.065476054412932,1.558792217694005,3.0281516185917683,4.161522598514349,4.277240355751432,2.636240546163984,3.7442518496045847,2.1008016613405216
117,3.043599163792638,0.6732760028507621,1.256733594058364,1.6849151668364455,0.3744814154356556,1.6167724233841412,3.9056245490743593,0.1610902761592974,2.8374186870538214,6.843415451148968,8.690749801681925,5.124766117949904,6.768317596873192,5.903564084577022
118,4.1391890321970415,0.7504504210572582,1.8148010368881395,1.915048927168359,0.13842793377272203,-0.3165008762688664,2.072929817867462,-0.9605584832928407,2.116143698074321,7.733081443661399,10.813882225008111,6.328587696163304,7.928743977037565,8.123038823204574
119,4.066069473018586,0.4654644283536165,1.7924655422070157,1.5575595243524794,-0.17030607859832425,-1.875520265781161,0.03705298429624815,-1.571305440503469,1.1470639350440712,6.695998368426181,10.143787184914077,5.865238524550298,7.053291098254081,8.080459935924832
120,2.804319897910275,-0.1122807756827843,1.1619887016613017,0.6926960038118856,-0.46012656152247483,-2.729225063917049,-1.7450925314099837,-1.6334963615991742,0.19073109355195783,4.0953942576895175,6.944754231911922,3.837682066405969,4.517920021127912,5.781445955591542
121,0.710735061393671,-0.7883521973638858,0.11182614822733446,-0.4302113775590519,-0.6414356877118657,-2.7818708864207067,-2.932627426108504,-1.2749600917360444,-0.5710344248568068,0.6749728450376233,2.155721544494568,0.805670010840382,1.1046036339186662,1.9079932899281191
122,-1.5981458618134687,-1.3211590984862058,-1.0253474517183907,-1.4761104412373436,-0.6578631516949401,-2.1636950661560843,-3.362405752111229,-0.7118609436359727,-1.052451476773489,-2.6548580928861747,-2.893665876114923,-2.3845658217446055,-2.24290376426628,-2.4023015774112655
123,-3.4455925876520075,-1.5133735871940672,-1.890961307355136,-2.133685406625279,-0.5049445896558689,-1.1586477354046383,-3.0594554424489164,-0.16040873407606918,-1.2491122227819047,-5.065594421745261,-6.870020295569275,-4.856785270101732,-4.687389223075451,-5.914490059211173
124,-4.308826724938075,-1.283015488292816,-2.221534081278564,-2.213745307294447,-0.2300728085534106,-0.09931423756679827,-2.2014167892682917,0.23083767953889986,-1.2072058145749467,-6.024693394917986,-8.808706756423362,-5.965050362324259,-5.712296759156513,-7.673806214237077
125,-3.9769634131560014,-0.690103542582346,-1.9309147943685798,-1.7047958238331211,0.08519177736580906,0.7347584166063366,-1.053449204124685,0.4096359554268029,-0.9929697035104164,-5.417536161498822,-8.362240618201643,-5.476098999103174,-5.226292270376811,-7.281590578546325
126,-2.603176224483082,0.08777947860501799,-1.1287029049696617,-0.7697425092110415,0.3530324426716114,1.18522400469963,0.10516139704214365,0.4087265636500908,-0.6727880537872067,-3.547672318158342,-5.856599460118523,-3.6192581229749874,-3.54002966903013,-4.986059629603476
127,-0.6387367163753911,0.819222195411382,-0.07336890416701039,0.31215812413482835,0.5070277360739415,1.2344225531717539,1.043440433403036,0.30804014251805845,-0.30598845595895263,-1.0216155528237942,-2.1489217373540965,-0.993687760107326,-1.2355172667888255,-1.568043766386664
