,AF3,F7,F3,FC5,T7,P7,O1,O2,P8,T8,FC6,F4,F8,AF4
0,-0.045024769250094604,0.235897199650989,-0.11228681943559131,0.1820626386533883,0.11993339819181453,-0.2541829288872458,-0.7476007092826645,-0.5016211949890171,-0.7973705069138104,0.10997008923976588,0.2174172388414759,-0.22363293823981836,0.3373412984673669,-0.35248884539636355
1,-4.014663007277341,-3.4152715299035377,-4.77926207482843,-2.4366342799378673,0.046859471174295314,3.3686864320476015,-3.9482470237629244,-2.8994268223041373,2.5540112054702835,-4.127323515484054,-5.7873962622064,-6.283338524603021,-6.2413986088902655,-6.479085174363813
2,-7.0782358525568165,-6.26763324251837,-8.314774935081928,-4.47235775802651,-0.07574629442135337,6.050297007811852,-6.312693208189017,-4.572673539597028,5.407477100080948,-7.354090493653736,-10.45960344869921,-10.784244302214082,-11.282887730793528,-11.032999548804721
3,-8.527033057232043,-7.653544309707642,-9.862147812475033,-5.438443828272378,-0.23144189916067878,7.094711260876685,-7.3124136438714995,-5.119080640983055,7.074484481325703,-8.842537508569931,-12.736731315559112,-12.61254020715673,-13.56648846972205,-12.882917198357504
4,-8.019752113119438,-7.2516112430278,-9.054753007637222,-5.1159323996665815,-0.3838025046370575,6.264764755114804,-6.7235615366210215,-4.434066463264116,7.09805468516005,-8.305314980040166,-12.131673530331721,-11.344061849999163,-12.583785339388209,-11.566549196470685
5,-5.668086578966197,-5.168540467981726,-6.108718061244172,-3.6079118071473038,-0.4866665140110274,3.8395892024609917,-4.675784926441417,-2.728174776716495,5.389281505997958,-5.953728883543827,-8.844676241475497,-7.347181299866958,-8.659744668793206,-7.4103222553331065
6,-2.019362012920123,-1.918109851200042,-1.767785724267517,-1.3102937321940078,-0.4996663490317701,0.5259633960498881,-1.6207760485046903,-0.4587482876455206,2.2906931234028955,-2.4245704262652477,-3.704563238634734,-1.6758837845870889,-2.8513394293512313,-1.4523955164888356
7,2.065278969050223,1.7020837733287724,2.8868314764826173,1.1938824237265138,-0.40332137694257053,-2.7495386681196186,1.7711379928872133,1.801456881437411,-1.467058497351032,1.4007219506176873,2.0453789807129517,4.216401155102479,3.346272182886305,4.8155189675336345
8,5.613694686119664,4.809112148638098,6.7132663427774215,3.2886509356592564,-0.20780467023152052,-5.106428371607404,4.761916171275565,3.518856518092239,-4.923675878462557,4.631436711261782,7.0613576438378844,8.863152078949454,8.403062605391407,9.825568446640032
9,7.780558453264501,6.659471608063539,8.800435902501595,4.486029557331242,0.048268246870224484,-5.956621805084153,6.709506832852991,4.332347054805765,-7.135790213093235,6.590851807599857,10.23130528349255,11.165596168526363,11.15453639590572,12.335312763229759
10,8.06085593806439,6.840657680890663,8.697087418064617,4.549403704716736,0.3088630994846302,-5.160012737084383,7.207414683692227,4.129781261754526,-7.449655227826621,6.967016196654933,10.9391666860939,10.665182391807095,11.089293479305818,11.748441956364381
11,6.421370522829835,5.375921889670859,6.517421216230293,3.5454179475689003,0.5173340926987625,-3.0456597982651994,6.169482528513308,3.0511752374379784,-5.717606458168709,5.854550812981902,9.193634220940945,7.6364700203884786,8.447636766027244,8.267679883006277
12,3.310925125332041,2.710817078904035,2.8955678767557855,1.81086379782951,0.6326963128332823,-0.29552760189186283,3.8423340337711696,1.4250361797899227,-2.3811697715835143,3.684717573653498,5.590970753491358,2.980617199414532,4.110423653176116,2.8359262669517498
13,-0.4579689033508624,-0.41658020017540714,-1.1970708628694413,-0.15415365957491192,0.6393402582495971,2.2709256508174365,0.7446171168727449,-0.3367034533594457,1.6224366777401233,1.0738591988322466,1.1272835220498278,-2.0440856177423266,-0.6820569413249032,-3.120791236556445
14,-3.9266430314110403,-3.1852957848282224,-4.71931532072149,-1.833859774191173,0.5469834031779784,3.943650288056111,-2.451483709474244,-1.850161115644644,5.119027965193548,-1.3580269156028035,-3.0831459363737084,-6.1734897627301395,-4.693483907900749,-8.078920842368994
15,-6.247271660885053,-4.9196873599226825,-6.836764326758124,-2.840685561217665,0.38183616691796207,4.324586600794781,-5.068733558105367,-2.84489353609178,7.051916490771778,-3.14277302144175,-6.1021424138939375,-8.469381960715037,-7.02849161183448,-10.824198822967391
16,-6.906165821019571,-5.268737837824304,-7.130283150302089,-3.0128994910174707,0.17371364414877924,3.4258101681052597,-6.569997791586341,-3.2034051943606467,6.82222567522749,-4.051760463113366,-7.392385953070039,-8.540516528537676,-7.346656456897381,-10.765356844351649
17,-5.849029580699431,-4.283925555473469,-5.680652793125194,-2.438848970818329,-0.05451653741756141,1.6375623345967198,-6.66874219644735,-2.952695375237968,4.499620910165301,-4.100365241913282,-6.913877760866737,-6.5980990621859625,-5.898024099761578,-8.067532032933958
18,-3.4731354102220293,-2.3752368843648175,-3.0111851295124725,-1.4043403258158855,-0.29001134755153807,-0.4176513365782702,-5.3823705691418,-2.221811402531509,0.8232005516015616,-3.4825070437053296,-5.073742377332772,-3.342090402820859,-3.3816672368231253,-3.5718597605442963
19,-0.4920915547099778,-0.1635729228098617,0.08778192315158173,-0.28402428497294785,-0.5241564218759079,-2.093213833908636,-3.0191259457658397,-1.1880590407370497,-3.020740349417527,-2.4698814226380432,-2.5556619098038955,0.27569179870428784,-0.6832794307603036,1.4685280142973225
20,2.2822302706978523,1.7197899641468222,2.7950472884211806,0.5853175642905998,-0.7411749560606434,-2.9195349742757744,-0.10377928648648216,-0.03324249320862149,-5.780302024100431,-1.316973624047506,-0.09006344120823569,3.332948893739302,1.417454721552927,5.7522325458615775
21,4.171841945185608,2.8208233178722364,4.4831465104513235,1.0075160124714069,-0.9079296188716239,-2.7346085855758786,2.7400568161501324,1.078466799746749,-6.555366312852564,-0.20359407192977583,1.7597852137928403,5.177542718914293,2.474723257493315,8.282667255246839
22,4.808497382049756,2.97861843374567,4.867193671417047,0.9735752726438106,-0.9722853812660638,-1.7068321975073906,4.9248108271398685,2.002794939411554,-5.107824757969956,0.7736000801144406,2.7313049353160896,5.5624425988190636,2.4714362535624144,8.608729453940342
23,4.204001392329809,2.3372255811552085,4.041124227383537,0.6401333086529765,-0.8744333261017693,-0.25049514894105473,6.022090871135299,2.610191040293405,-1.9525197152564406,1.5713226951229111,2.882265750124274,4.6486823725765465,1.7607499101737623,6.891317485721795
24,2.7018486822428884,1.2577651434226549,2.4015890064087912,0.2515528421628792,-0.5699567781059629,1.130135352596406,5.848217686687852,2.788654002808541,1.8104086160838797,2.157194321009072,2.5031819527410604,2.893203377380564,0.8864048990653339,3.791245600806104
25,0.8356254395323078,0.16878274896582796,0.4942025136167142,0.036278243300829835,-0.05730711135391285,2.0108665017521448,4.494571993164136,2.4639512062765845,4.870622669274258,2.4820233506829785,1.964371198580121,0.8717096047337786,0.3531686595304327,0.2292294894360458
26,-0.8525073857140942,-0.5882415715150875,-1.1623207635811985,0.11588231077043004,0.6016255264017368,2.1741264365391992,2.297188089201839,1.6343592864639753,6.163159434735099,2.483226778308449,1.5583490701486875,-0.8999792669997723,0.4316798230957798,-2.896486656231781
27,-1.9716228618506686,-0.8634869891291085,-2.2173619676205045,0.45942311492136517,1.2789568990304019,1.6539538559393716,-0.24649900291753246,0.4045690907704689,5.244691514601473,2.117526489289411,1.394720508462774,-2.0914994594447305,1.0653552648813869,-4.944969650462226
28,-2.3714761235657975,-0.7205708641838455,-2.5555642933452654,0.8985914554735294,1.802423985408642,0.6927903282229084,-2.593772469953303,-1.0027851681010076,2.45463162167143,1.4042354407313082,1.3813335204934127,-2.6015571591629203,1.9076349569226005,-5.65551304399819
29,-2.141345258240144,-0.3753727545225646,-2.2794703931116502,1.1968473932461807,1.9989526631464372,-0.36537550835134747,-4.277935121009953,-2.2752826675629514,-1.2007802011483577,0.4529596178184038,1.2915298334972414,-2.5224189879298238,2.4703245783002195,-5.138451869576111
30,-1.5309065113188314,-0.08288310778841099,-1.6266990872178397,1.146251767543137,1.749055103935472,-1.2012219300616047,-5.006041352027657,-3.0816501119330835,-4.404653717996632,-0.5449246225747097,0.8855499799363888,-2.054106430485152,2.325043135284458,-3.7597177984422503
31,-0.8312918211097379,-0.020857536348720868,-0.8606948856743388,0.6558471852511076,1.0349229790541756,-1.6193279872559612,-4.710580342240937,-3.1695428855763788,-6.001289556657894,-1.365284159280374,0.03578649528505578,-1.4089945840371452,1.28289173723609,-1.9765632979764618
32,-0.2641313573896853,-0.2172530855800988,-0.17817913597407173,-0.20140628974859742,-0.035380235425197526,-1.5889960591238832,-3.544886656968821,-2.4584809156826557,-5.414571141024501,-1.8250114942809434,-1.1935335241499585,-0.7429270713614603,-0.5126581156415094,-0.18929934552584127
33,0.08204319312487118,-0.5484039701013748,0.3355481530917135,-1.2012415596698398,-1.2393394675880975,-1.2201655278963777,-1.8270225647362799,-1.0913566597831805,-2.860146902404687,-1.8504917137376697,-2.5428840119838823,-0.13184859682177008,-2.612547838620885,1.3430310658478353
34,0.2507177736292925,-0.8050438777016177,0.6947295149724818,-2.0370646327967616,-2.288021209117952,-0.6927863492652221,0.04974996111421027,0.5823293211733976,0.7286537477252432,-1.5091477802159188,-3.631841070248302,0.40858803880828326,-4.399089210410503,2.5076075997535603
35,0.3608880904842754,-0.7955991480206238,0.9596602976355394,-2.421999763858978,-2.899643200139948,-0.17353878741119788,1.7139758221011814,2.096077910900569,4.037687114930564,-0.9856008701264907,-4.08460251063063,0.8801831094564476,-5.285835559878047,3.282190314827051
36,0.5252422263359515,-0.44155465637459734,1.172298076768464,-2.1887753159237224,-2.8783652483158395,0.2451204148942864,2.8945566368455156,3.0062100922931916,5.851358963843352,-0.507060137853261,-3.662069206738607,1.2625879714595156,-4.912611508434418,3.660185136180448
37,0.7808133923707287,0.1763082271510885,1.3136704069462888,-1.3526462125232568,-2.1749557566215,0.5612137649819439,3.462460334110188,3.037533262966934,5.500070422987975,-0.24594806822772272,-2.354382101582858,1.498195805434648,-3.2709220105030385,3.600603841319836
38,1.0621727625220263,0.8412704753428479,1.303793936632786,-0.1150898557177309,-0.9104202570979647,0.8328924527322525,3.429654912504789,2.183457565371318,3.1107184298334465,-0.24090319879009395,-0.4021986983810561,1.5089344098618904,-0.7193862063966955,3.030535953721082
39,1.2279033119350249,1.2851568622350809,1.0442555572549201,1.1937778340924516,0.645775903457915,1.119433791304457,2.912530574854953,0.7209893113848528,-0.43425773966300385,-0.37330229903202816,1.7604717090255244,1.2363133665432728,2.1144184314237444,1.8996484952061468
40,1.1281782177437658,1.3000336839610542,0.4832774899748784,2.215317526595642,2.138055791847645,1.423081635964766,2.076808113867476,-0.8711826543540194,-3.817331649671939,-0.4154725262014508,3.6232436346826096,0.6846538154965929,4.512996511851423,0.25888158124580063
41,0.6838600219761919,0.8314921756523311,-0.32839671330267683,2.6720493842643473,3.211231417388001,1.6603316649864466,1.0843301931992129,-2.0688497513683815,-5.770459808782464,-0.1365223492029922,4.739080314897633,-0.05479374115660814,5.872048135410206,-1.6794059074930983
42,-0.05768527231990229,0.01447268067302739,-1.2202079533240677,2.451078522002818,3.59829682541563,1.6787563571385196,0.058585261211927496,-2.4814649763258436,-5.546365508757467,0.5753417149772795,4.8441871400993275,-0.8135248990907985,5.865931124650612,-3.5386140521959115
43,-0.9160714959611109,-0.8652406164465216,-1.9372995745684123,1.6346793241235646,3.186946553471773,1.3164732974716025,-0.9229722632765109,-1.9915302697828876,-3.2020471025709356,1.6269178287863815,3.9237362656671837,-1.3898310033987489,4.528298335871305,-4.849561624822623
44,-1.627417202167707,-1.471754323227716,-2.2210395161144523,0.4693966260978561,2.0486027059096203,0.4831815161605113,-1.8124777231139224,-0.8021954684000135,0.412440707801511,2.7134600605989876,2.2073919556705177,-1.6130849499924707,2.228794282566559,-5.182897813148003
45,-1.9343611149036757,-1.5454355803387108,-1.9067786590626663,-0.7145943346382801,0.42374856162177776,-0.7689376630064545,-2.562738153223087,0.6283752859108563,3.9590080153983327,3.405089377052463,0.10034012702849682,-1.4048026971033278,-0.44146083739276787,-4.300582693814597
46,-1.684193440520322,-1.007628135207608,-1.0013177927127672,-1.6062037867371837,-1.3319810954607278,-2.2153577124082675,-3.1017790676870325,1.7472200749447528,6.100779496356452,3.3019708913261296,-1.926403159229728,-0.8128705163579372,-2.8372796931987954,-2.2710910766480876
47,-0.8977788927068716,-0.003422650336221766,0.2927983786473347,-2.004311535029127,-2.8278150074263313,-3.489191009976085,-3.325134551058011,2.107388679995043,5.9968850682714745,2.202977238767277,-3.45336012986985,-0.004438212717838796,-4.429196751277573,0.5001967003884971
48,0.21909657240599809,1.1358846871654862,1.6212695959767152,-1.8682004910996213,-3.7256987398107677,-4.170337912337324,-3.1132911617187813,1.5380287948443085,3.6205291880124286,0.22155277764900977,-4.205893728058427,0.7821827964765846,-4.928675349240735,3.3480570625721664
49,1.3304607128905255,2.000242973275424,2.5808041886294335,-1.3136555143431068,-3.8166845361212873,-3.9124453113005395,-2.3719967822343775,0.22034293878805125,-0.2181455805114513,-2.2026124908409694,-4.101895080192107,1.3113687095103883,-4.338449907155603,5.518183036233009
50,2.075662353977296,2.2424927407261133,2.8487065284729103,-0.559735465966032,-3.069347904251466,-2.570998644576218,-1.0837593859188805,-1.3626078405396274,-4.155035138362258,-4.41118319848118,-3.247296509104518,1.425105694420998,-2.9213694815140534,6.38379845350422
51,2.191089620364633,1.7055068643800677,2.2955131194774983,0.1523839928886631,-1.6395720818647943,-0.2908741247001629,0.6472804506949507,-2.5898828746416043,-6.759429396480377,-5.724755614910161,-1.8876927953750944,1.0937348692736069,-1.104275391122433,5.640935959813991
52,1.6059649036563228,0.4899510052259647,1.0404403200904881,0.638891397227905,0.16110696660845394,2.4808889212053535,2.5758651109810997,-2.9262717055103447,-7.049432890137996,-5.665676703213977,-0.33480759511107705,0.42557170537067385,0.6503476145616158,3.418086537505137
53,0.477320699825679,-1.062865969540344,-0.5724966278785992,0.8241625236823317,1.9328183736389055,5.0727454300585295,4.335470679770945,-2.1274506074470136,-4.849080064820626,-4.1288027985549896,1.1097928385928637,-0.36753362661901035,1.96676693069246,0.2608278611741994
54,-0.8508318395594138,-2.4702719221826146,-2.0732933178561344,0.7480335119549246,3.2766889832485626,6.747013761248254,5.501719230876462,-0.35178862656051385,-0.858842163625,-1.4385010928930444,2.21449784358259,-1.0369750694909747,2.6399392875981884,-3.0090791302024993
55,-1.953335586178326,-3.2591773832769544,-3.009563306682216,0.5313315782155624,3.886912888965567,6.903624729094876,5.6909977315501035,1.8660073691844234,3.5845311845742693,1.731401740173878,2.849633661378836,-1.3745735332732643,2.662455211107319,-5.520739177567608
56,-2.4612221612193554,-3.1204997189917187,-3.088931787408694,0.3163741681344683,3.6243034048549823,5.2752978445972225,4.673394096047401,3.7771078242164013,6.9712123980180545,4.550802717116046,2.989779549398537,-1.2756951326165336,2.193483256256407,-6.600291557374718
57,-2.185380083999046,-2.0169800407361147,-2.2737397984301544,0.20686897037013674,2.5527409350854215,2.0548083278382383,2.4699694230132527,4.666418318641685,8.138689563935205,6.276948386696244,2.692641362488376,-0.7693274477831276,1.4847651450562536,-5.962714046576802
58,-1.1848457601872324,-0.20870376594096338,-0.7966952120811609,0.2298451472342822,0.9274200905256248,-2.093621021356226,-0.5979318666622152,4.104024449089049,6.666501135945806,6.469473973319257,2.0655104077789312,-0.007237389729250451,0.7893210700276,-3.7922266635494846
59,0.24441553689783505,1.8135432472854465,0.9083350028333377,0.33226375536496905,-0.8649216287080665,-6.159306500069766,-3.9328041092308372,2.1139104681030516,3.0112317834513025,5.109300649066286,1.231319778769985,0.7829382495627957,0.28143215907635666,-0.6880187006429627
60,1.6584053712966371,3.4680947147409995,2.338726025235519,0.411020331067277,-2.400943680484395,-9.02896631392158,-6.767737968199088,-0.8010810711859835,-1.6575231961177455,2.5880552762216222,0.30391188093986327,1.3654663606430442,0.011368784494767043,2.5076345579594976
61,2.604088844031837,4.253640531066226,3.076701104079137,0.3625373352270516,-3.3273280546181696,-9.793265388258092,-8.341980785072302,-3.792545595312249,-5.854606732301088,-0.42155232904238954,-0.6225772098542967,1.5647761629548593,-0.09316540410655837,4.947262085340022
62,2.7640622378818427,3.900417013671785,2.9156065689831885,0.13156023806291467,-3.4505505698784544,-8.032477231827569,-8.107384945972257,-5.920330706473958,-8.267487316663182,-3.1665629432042675,-1.4708686833907212,1.3148241013716693,-0.18158461921122634,6.012112377300487
63,2.0602282948198236,2.455980133317818,1.919575925459412,-0.2598307281132132,-2.784194209003717,-3.992309165820432,-5.9104045983065765,-6.448590331867869,-8.16914457047078,-5.019508014473084,-2.1697049071440677,0.6765441894107884,-0.4074206464538219,5.4751145483855534
64,0.6829595490910308,0.2798366599302525,0.3991138858773976,-0.713644896925826,-1.539279808067294,1.4170857117544575,-2.0909895115876247,-5.0902937499008205,-5.624774511847727,-5.627975658843701,-2.643252422640119,-0.1801288244642503,-0.853083177065555,3.5487808643440046
65,-0.9637458804411032,-2.051895872154181,-1.1878902603089634,-1.0867837421387954,-0.0596541192757428,6.819407433162892,2.5451383467221182,-2.120902958574781,-1.4385812053058329,-4.9716766442113185,-2.808870253854113,-1.023388560711826,-1.4790013519290526,0.8090134675203126
66,-2.383823656481665,-3.904669088893425,-2.377023877234044,-1.2396257069591818,1.27846822719061,10.729024235475778,6.892048825447684,1.6783212417663156,3.124201599470076,-3.3241499316809167,-2.58839084823491,-1.6221802178510658,-2.1168853416429796,-1.9781427378840624
67,-3.139396236575849,-4.76181868877568,-2.835443587640362,-1.085125190297818,2.1719795277770437,11.973316323222793,9.816603381838359,5.234582098016455,6.736032848420377,-1.1456071319535257,-1.9329081165332826,-1.8074357326618944,-2.513384931838231,-4.073544565307247
68,-2.9835026910045626,-4.369713270563617,-2.4552934819708154,-0.6218759358652999,2.46864763062146,10.057210515487059,10.470270420901045,7.4939511033706845,8.395007065187349,1.0510227128349374,-0.8550769891240053,-1.5163996737201781,-2.413963801044972,-4.963285239806373
69,-1.9354987387893439,-2.811523616743455,-1.3763782553761774,0.059248708725251766,2.193691641233967,5.35303893312625,8.550055914637818,7.736384247540001,7.688607625477519,2.820120015745391,0.5421413315117952,-0.8096079511042263,-1.6621479992285744,-4.4849370574999465
70,-0.27760906787218603,-0.489178314537731,0.06490716821398466,0.7963734312561488,1.5192497232953923,-0.9560760049351017,4.424543400504199,5.801117001029367,4.871120081232268,3.8630638006207025,2.0536810836594404,0.14283297744357795,-0.28123853134523497,-2.851687774242996
71,1.52498930013771,1.9820292814229545,1.440974547628585,1.3989028148860414,0.690590387509108,-7.178837184839201,-0.9251271131174099,2.1534546652123967,0.75473150435641,4.060170789807044,3.389060689361537,1.1018484046451449,1.4925566678833444,-0.574158459563317
72,2.9561692033940763,3.938262517712255,2.358659278113165,1.6984611874223674,-0.06240866420806412,-11.586284128858637,-6.14595534544442,-2.2303841565027747,-3.5346513189962336,3.462675444548367,4.222528080704655,1.8173132055637422,3.2442165819470183,1.6928445758701725
73,3.594716214302375,4.847413120699363,2.5678681596519373,1.5947499114124202,-0.5960071041234459,-12.91455079185484,-9.87497943603167,-6.130894953218404,-6.859499254201124,2.259109259452646,4.271223195042709,2.0902249988232824,4.479723663967729,3.3334219343780447
74,3.233425957843686,4.456217673285846,2.0242802019597392,1.084838264173775,-0.8813593182000122,-10.74715988473154,-11.120165194451456,-8.430970659910765,-8.353122216985424,0.7287429632412901,3.3842590830016777,1.825103946555127,4.7679502882039095,3.9336332728623646
75,1.9395300202006147,2.863679428521889,0.892723042552207,0.26899614459110555,-0.9844309507764336,-5.6554773023213345,-9.54673626196944,-8.441000719433843,-7.622828472274244,-0.8108207772303313,1.616670098907473,1.0601253014608585,3.8839618822335376,3.3831426523268275
76,0.04106955221283889,0.49921400030363744,-0.5048395271177275,-0.668397375149427,-1.0098263894421269,0.9523810265152506,-5.580047179299256,-6.1084337552093535,-4.838764476327658,-2.0589519735092963,-0.7399037464522273,-0.03360983814306652,1.907519014877127,1.8922923680412562
77,-1.9567236317489098,-1.990762547957788,-1.7789743080618565,-1.4991770955454577,-1.0353406182559657,7.233959103102971,-0.290251374369164,-2.047992548488813,-0.6965769123453684,-2.786788501315171,-3.1904324031663713,-1.1862578804009334,-0.7603800666539408,-0.07607531422142973
78,-3.5034844522243764,-3.9188358207371747,-2.5751703899080662,-2.004918787567549,-1.0669414623136138,11.446779437165542,4.9092618467377775,2.6208727902166005,3.738537427638586,-2.883698979245249,-5.137484200133355,-2.091945657232368,-3.47775012464056,-1.9395628716325644
79,-4.150821114276291,-4.747833330440411,-2.663858665943496,-2.032434462005178,-1.034432963406567,12.452924614480683,8.660165761123462,6.586955065106858,7.280798806780213,-2.3830592702398308,-6.031820760461106,-2.4872665723655767,-5.5238960243412,-3.158135925273235
80,-3.677070420031078,-4.243921434584428,-1.9981993062667236,-1.5383660409212871,-0.8300623717080213,10.041164253643444,10.035419096884727,8.723156474974525,8.921029225790814,-1.455050281537575,-5.5341148027796745,-2.226627973490674,-6.301195926493251,-3.3827085139596353
81,-2.156813782576327,-2.547002297229734,-0.7280002418924352,-0.6106701934183129,-0.3731555162814212,4.971235618212616,8.782975781816184,8.416622453069246,8.108444154013087,-0.3614818909925469,-3.6385956269200195,-1.3332822212873139,-5.517424009508056,-2.551569291095984
82,0.045359677569448344,-0.13595773442200057,0.8327258625157312,0.5415402128001588,0.32853886292093887,-1.2682502759257515,5.369296008265308,5.754648224624774,4.942233694112136,0.6191937209067108,-0.7140743107239941,-0.008426700055787816,-3.2910360899623963,-0.908692701772513
83,2.3592327807844753,2.3039911823405363,2.2781884323820845,1.6315151832415493,1.150367826602166,-6.9088397443408756,0.8174147514082852,1.507589805224459,0.20464649402851998,1.2747878068405678,2.5613323928955367,1.4095590152018853,-0.1420636527031143,1.0622749401990723
84,4.1536526184634415,4.075637016035168,3.2088542649081777,2.364503310882305,1.8722918510359747,-10.417943261468155,-3.6041821942801913,-3.0911643188997333,-4.801343252279977,1.5209837368449948,5.363581735051901,2.5296973699967307,3.135095370952243,2.7722773423725284
85,4.906255083619731,4.670397066035247,3.3343130782490946,2.517452671219665,2.2471132851461975,-10.925807561299465,-6.744383433424174,-6.70698735214879,-8.592607267026649,1.416707592519906,6.94318873030338,3.0164299630266878,5.684062033581389,3.694036510906873
86,4.353340532014206,3.9164350865057633,2.5567590272882446,2.0071465485025657,2.0919231304449477,-8.441799821453092,-7.877083406928288,-8.301459226922114,-9.944677183088531,1.1245267025434218,6.83970728445999,2.6908732309266608,6.823531704877669,3.5162231364975316
87,2.5770203928253967,2.0299453172133344,1.012222192176787,0.9254984719734106,1.367709294830543,-3.8071724584989326,-6.8697900597586425,-7.4451733302968295,-8.300071789162102,0.8299025197817643,5.024450379158404,1.5939711974528992,6.239406880655523,2.240457693058133
88,0.0011944592598333492,-0.44649372873806453,-0.9458707845087436,-0.47195723942617007,0.21424986487720554,1.5873444303195905,-4.175392721574688,-4.448130989978401,-4.005820383458697,0.6524047476021283,1.9247254006494863,-0.010777126159105222,4.075131853566251,0.1915798666271331
89,-2.708160858149691,-2.80092485482513,-2.8230296699549124,-1.8255235264747993,-1.077084999607516,6.223327714092447,-0.6626249104306151,-0.2639096771056431,1.7219267112772152,0.5885095680743989,-1.6819709117316775,-1.7002129803109933,0.8937780212098593,-2.0646023889056475
90,-4.8158297486812165,-4.358179901709682,-4.105818751038845,-2.7652682445834884,-2.1470273220769327,8.885790111370426,2.654802242694042,3.806393799658961,7.125983839604489,0.5147102082867661,-4.875506468363515,-3.005165506804776,-2.4764118717552654,-3.875584668618552
91,-5.718407347239007,-4.674392421639501,-4.4007110837238175,-3.01427058597115,-2.681459927014442,8.980214311498184,4.906872394909598,6.520419017684493,10.44714842943877,0.25441158207058284,-6.842763088691358,-3.5434737342568168,-5.167593042083021,-4.686783520414566
92,-5.118031353908402,-3.6629082238726323,-3.5521633440392404,-2.471413787110284,-2.5148979024063047,6.654079278038374,5.5923009766348954,7.083716544873074,10.508127653567739,-0.31739744148710597,-7.097018856540447,-3.133584214218838,-6.504425382025575,-4.204960794134033
93,-3.118199876085239,-1.6155917201815173,-1.7041885632499458,-1.2483151356228182,-1.6879571971042073,2.7034859421539417,4.683173407985455,5.3973291240652435,7.1437866067708455,-1.1782597233985492,-5.604414397891813,-1.8542355008961797,-6.178491959340599,-2.493337796032781
94,-0.21093610445999217,0.8851467534181264,0.7173843279471666,0.35261925810306916,-0.4381030273327506,-1.692302990214717,2.5906286720409013,2.0826504269832604,1.316208360588549,-2.1191016759352554,-2.7833598662714523,-0.030711034092943627,-4.3193399060586,0.031005358811270835
95,2.845727277715715,3.1362258330492017,3.1035018976956668,1.9151487570166073,0.8739006080942351,-5.321037753015624,0.012897369140063047,-1.726499656801517,-5.147655794990654,-2.789580244000362,0.6194086726525533,1.8505902660003914,-1.4467310703213356,2.700428776917509
96,5.229564291145409,4.515038738470993,4.819041686571916,3.0209612597996665,1.8772725911965438,-7.268964920543299,-2.282559171370034,-4.75858601123934,-10.128480598095903,-2.8210224022242647,3.7371136758566177,3.276227337825149,1.6784183232736385,4.775516359526559
97,6.28082995406596,4.653343018682041,5.377093373234546,3.3652147181066363,2.306278692690606,-7.14432893215068,-3.677445589075421,-6.023975537382851,-11.916083332324876,-1.9848763111178913,5.814280636078866,3.85043798738938,4.26049183959138,5.651737942332184
98,5.6899993919900345,3.5346931332595584,4.580870489962339,2.84289362422015,2.079016253824883,-5.140971414193142,-3.861548655898286,-5.14108181296275,-9.803416837483695,-0.32393099784760343,6.3965404025689665,3.408504229463605,5.675832255123611,5.036229595217768
99,3.5916175271484088,1.4895907460737747,2.590254927725762,1.5807669532720847,1.3147875986894182,-1.9382712717742565,-2.8933405777941927,-2.4600641043251597,-4.362845596448522,1.8028252135145697,5.429733124297282,2.0652078307525694,5.625138730075927,3.042640081040826
100,0.5346453395841821,-0.9071976934436675,-0.10990172325073763,-0.09494349329027325,0.28616270946793626,1.5214484700411441,-1.1534076047964805,1.0584304578662402,2.7031131254400695,3.7926624195332366,3.2475637979285006,0.18352527711052558,4.194258458981462,0.17310673137435822
101,-2.665204433860951,-3.004554083518199,-2.8342869651164886,-1.7466241279452874,-0.6761332338517648,4.30717310012968,0.7881604305805957,4.170193074168557,9.099842382817652,4.976676049643074,0.45922078085699547,-1.7277708021016103,1.8121926545802742,-2.812055737003541
102,-5.1508909601644195,-4.257767057409838,-4.881034375046992,-2.944388103937327,-1.2921341494432026,5.746376305261608,2.3473021406846204,5.771121920084941,12.6943671508797,4.848066475958131,-2.2252474852916113,-3.1577397880952356,-0.8771467035415869,-5.10314560139407
103,-6.263149232121578,-4.373352517582648,-5.722905762449962,-3.3826172667818715,-1.418594510301186,5.580712881698479,3.092660126869718,5.275139388867306,12.232391528563072,3.261914403636941,-4.18041880291141,-3.735999129465315,-3.191098444597973,-6.069703771414553
104,-5.72400059972313,-3.376415430101429,-5.150508569092004,-2.961141642569002,-1.0845284094715248,3.9965043447733977,2.8576753449778036,2.8182932447138214,7.773512673329584,0.5303885610755321,-5.0123686981293725,-3.3329749672565536,-4.583618171700215,-5.442189461770121
105,-3.71101534820865,-1.5854490994961603,-3.3261961250676935,-1.8086460245750036,-0.46717673036175117,1.5335022248194106,1.7705127297818666,-0.7810181882490168,0.6923242779781575,-2.630978621483755,-4.632760623865432,-2.0893172251340415,-4.774318146729606,-3.3919316956858303
106,-0.800797612830553,0.4927624853051698,-0.7340041723225971,-0.24268014292268514,0.1800795828364839,-1.091767619296642,0.1987406343153831,-4.293637130919649,-6.760024256413259,-5.300145866525899,-3.248933967150809,-0.3677542609581537,-3.8007830624892542,-0.48393440717838815
107,2.2008699351208563,2.312941639782421,1.9579966773060904,1.3211591185893665,0.6205911035685584,-3.1920730401017217,-1.37049629131798,-6.492626482312666,-12.189346902495098,-6.631495908262211,-1.2820204159614081,1.356169867324759,-1.9860322803011583,2.4848462986412496
108,4.491030446255933,3.4399692807949758,4.081143725058844,2.484100583540881,0.7152065149268452,-4.286581356710139,-2.477359160227009,-6.569230769607316,-13.841837853919865,-6.133977566930145,0.7577796044746974,2.6305659151817524,0.1641317225628604,4.714206104617925
109,5.494534971693757,3.6544146746618256,5.141775127584471,2.9702712255256767,0.4639817728342045,-4.204512725257703,-2.8202800024448025,-4.412042580507188,-11.175568297385283,-3.850112881720709,2.402468463945325,3.15039378764469,2.1019674786189873,5.628182375364132
110,5.016189261144285,2.989199286907725,4.940241669311315,2.694744527564039,-0.0032543578887428777,-3.0954657959231047,-2.334609489245219,-0.6552120088509179,-5.031006734705628,-0.3708305536376676,3.3310083743595174,2.8327377297258747,3.3776180457213445,5.033547026370598
111,3.2776663018376717,1.694215015729546,3.6038446474901282,1.776268844018203,-0.481334836773231,-1.3539697662866776,-1.198944258176995,3.5213175632950224,2.6521353390305795,3.325980420999106,3.425652603722305,1.8253212039564146,3.742351465904777,3.163019745671714
112,0.8326068030558651,0.14693380896774486,1.5308308201801204,0.49373924657874396,-0.7679015968314132,0.5117864102901128,0.22939414515895182,6.773826778305908,9.471973263373615,6.166468408838116,2.772846332679129,0.44981826144354103,3.1922027647145086,0.5926857318564037
113,-1.609848686875841,-1.2596012543770057,-0.7321391555819694,-0.7986687755136967,-0.7369608293292967,2.025365425116226,1.5277847752646707,8.032770286812783,13.339458142040993,7.31011350958722,1.6160082965113713,-0.8998075353749221,1.9462875897752236,-1.9382799242912592
114,-3.3964623856205964,-2.21771772170618,-2.6401363643879225,-1.7718881718222463,-0.382589649218794,2.8609771768737113,2.335100519545285,6.852109078561929,13.134277581660745,6.411478029213364,0.2779176341463943,-1.8720278417571572,0.371211703522567,-3.748246644128149
115,-4.1115235026080565,-2.5692587192791487,-3.7850582898240397,-2.2089232968814403,0.18097761820340497,2.907300595368261,2.453609582383873,3.55552491948024,9.030882673128483,3.7293740736702534,-0.9247893810773989,-2.251816721258564,-1.1242688587129026,-4.406042373652149
116,-3.6761713664263453,-2.32146386909963,-3.981671903900767,-2.0546434862148475,0.7611158296301235,2.2662358727779264,1.8966579996925557,-0.8670516702696076,2.399386588161453,0.04780152940924289,-1.7535713551830308,-2.008349186898853,-2.1946873588781166,-3.838905121322368
117,-2.340879182468754,-1.6183880336595386,-3.2877327451597327,-1.4164942427976661,1.154537082654182,1.1956881961185608,0.8705464058132556,-5.076453482998584,-4.670525947508054,-3.5657033696340825,-2.090885144440929,-1.2857128135264213,-2.6363567240914447,-2.3267926410450093
118,-0.5809335779342077,-0.6832037281377333,-1.960986493781042,-0.5191214961048638,1.2170426441594393,0.019672636042385675,-0.3001603650131889,-7.8090471800938275,-10.052777148899219,-6.08619740931686,-1.9475817082048443,-0.34354824434904035,-2.4213701644163814,-0.39113282466493227
119,1.0657177179501558,0.24820198859450773,-0.37223907225383435,0.37057219776246375,0.9117424744377998,-0.9651531949979097,-1.2775155366328514,-8.270048596825621,-12.245348760354174,-6.83767367616715,-1.4381306510407683,0.5307766955630256,-1.6830418987617959,1.3810154477658687
120,2.1635059938944403,0.9836016149629269,1.097347051257487,1.0234022232215756,0.32041122767471164,-1.560630591908658,-1.8109323446811147,-6.369489383133594,-10.79744566068873,-5.683833607036529,-0.7350140977764895,1.1094440755229489,-0.6621851325111662,2.518054928338153
121,2.495590530873069,1.4086284507090383,2.1464835610118636,1.3083265330664196,-0.38442680584935096,-1.7001533551666226,-1.8029407028463,-2.72953343083552,-6.380654652748969,-3.047050406918696,-0.017684523824140354,1.2839664759089218,0.36676966267214617,2.7926903400753598
122,2.099691540832299,1.495241351019531,2.610854999894947,1.2165746239517967,-0.9959982417049286,-1.441018073506349,-1.3223474635540617,1.531643569709761,-0.5044794332588274,0.24403012532673934,0.5694268615881943,1.0812122507241853,1.1676129112413112,2.26180066961988
123,1.2204533591999296,1.2885467904916057,2.478450449548675,0.8456740727443363,-1.3387757210042888,-0.9253246979895897,-0.5652711685699574,5.16198339372225,5.008327376401401,3.2232293733558492,0.9405780800425344,0.6349431616499408,1.5935439410235288,1.212606595023919
124,0.20306840323950054,0.8807669368869371,1.866833563542161,0.3530234604074693,-1.321416930094372,-0.3260014567020554,0.21879487338232673,7.162227826173609,8.602016242164373,5.082295894607185,1.0721242688465713,0.12700699239428836,1.6076451280053072,0.04200038199962018
125,-0.6300602478751537,0.3821435286668897,0.9750929447496466,-0.10212385004810692,-0.9608778317137356,0.2041326832206518,0.8088913923229212,7.073358823581493,9.43545110345661,5.399423101882301,0.9903526113232026,-0.27866357903986844,1.2727476567712548,-0.8839590157129945
126,-1.0766557682718123,-0.10356144134112354,0.026943983558560817,-0.40752308628183653,-0.3717602224257272,0.5664927687972791,1.0753471368461214,5.079329851842013,7.5671172235574655,4.233712593371352,0.752042948488381,-0.4859125665530629,0.7191317718281556,-1.3411937673213248
127,-1.0968525550914694,-0.49510657447368595,-0.7800986020087093,-0.5225945412945452,0.27347854037524894,0.7278661799622451,1.0052889693619933,1.9040366870518657,3.8434918251456915,2.0654462703833536,0.4257949082522726,-0.4849712996881573,0.10269760388406537,-1.2955342563845864
