,AF3,F7,F3,FC5,T7,P7,O1,O2,P8,T8,FC6,F4,F8,AF4
0,-0.08186944784361802,-0.12229198611028842,0.19556006394004816,0.0465821739914947,-0.04663686593604529,0.36450433582708525,0.2424012501690327,0.3065658109276931,-0.37072473966157177,0.4285998497939746,0.1611952381268386,0.29182649873043415,-0.02354575533971614,-0.2520563286165158
1,0.05590278399684436,-0.40992474559674225,0.8892755201700908,-0.6043756753644597,-2.798329234587769,-4.4696253598989735,-4.547558316177155,-1.1400253079716156,-1.6073311585548182,1.1726226466296272,4.2041023547214635,1.922274356996044,5.439196965210851,4.768504219943956
2,0.11227360354786031,-0.46806964932786543,1.3502638252561758,-1.0725106602709455,-4.775530180094307,-8.135814602414442,-8.138829250623298,-2.298193402033007,-2.2376018233934394,1.601840664065497,6.933512854464922,3.121707690842169,9.350783061366354,8.493066675930395
3,0.022766663828447824,-0.1843283894284315,1.4596442155690366,-1.231514817818854,-5.4555907986666785,-9.654950476139813,-9.5506356302185,-2.8157966660428344,-2.021806808519168,1.5073035791978047,7.463467352967832,3.601014555531774,10.583402945263128,9.916070563008102
4,-0.20715866614145223,0.4037349161593679,1.1976596356092633,-1.0479384841695536,-4.688738784542292,-8.614629149034045,-8.392859816030688,-2.529512311451239,-1.0739595203915377,0.7667936239049451,5.564215237156365,3.218578191502018,8.764305948007767,8.657999794451229
5,-0.4984884809058164,1.1142032777319097,0.6465948784288372,-0.5874071930455274,-2.730547836663052,-5.2941892120672165,-4.989683444131631,-1.5294235000287124,0.16813629475471426,-0.6010948364614195,1.7383825206647407,2.017281725431335,4.384814378243379,5.070730474547158
6,-0.7236438694967879,1.684660032428249,-0.0354548487417501,0.009952293861088783,-0.15421686403336737,-0.6020401612730581,-0.30149674185315106,-0.1412408210464371,1.1157106415289697,-2.387676953883573,-2.9148685465459243,0.23095257224389087,-1.3323514961083287,0.14370994438400064
7,-0.7531482723450613,1.8697276744469276,-0.6615604160198356,0.575280267433486,2.3265574823058417,4.166252625430538,4.34176166822243,1.1751876486733666,1.2814502439738298,-4.181410718790046,-7.010685299020955,-1.7475388336446869,-6.771924766722674,-4.765870693747757
8,-0.5089497957530714,1.5349178677715165,-1.0695730120574756,0.9618165359316839,4.066648520235577,7.688524785631713,7.62506156103675,1.982174132595727,0.5099759697533183,-5.423139567965273,-9.277863568471755,-3.4393626158642814,-10.378289621719823,-8.307302924586677
9,-0.00551255663167688,0.711398448552868,-1.1667807576887381,1.0841811777961514,4.665792717433991,8.995591781827834,8.639023441156912,2.0229775876758733,-0.9143007547743301,-5.54079791700041,-8.934095119161844,-4.38674186657283,-11.095703078219726,-9.512858633000302
10,0.6380449871575371,-0.40814621493979797,-0.9529998868307028,0.9348847236683492,4.061251579714432,7.757893569053751,7.156476116778739,1.3241327922788189,-2.34020359092997,-4.140687662255241,-5.929353263976734,-4.2736724348775645,-8.67277033316705,-8.07098321444051
11,1.2232279364559777,-1.5297931846466344,-0.5160152269405155,0.5757473554413951,2.5153981863930404,4.3885234051960715,3.7034686654257767,0.19748676818708494,-2.992065864216823,-1.1978397945568215,-0.9847385408556754,-3.0292373709530955,-3.7434027293400973,-4.4166776468761135
12,1.530992265194501,-2.3515033210619505,-0.0014544654393113736,0.11072097651348668,0.5111297658925322,-0.07638739540296935,-0.6053378685741876,-0.8679627843405037,-2.298257089678629,2.8300266892965857,4.589375356384997,-0.8793167384950735,2.342017082528474,0.3905213724614812
13,1.3976357041333576,-2.655175208246794,0.433351683450855,-0.34797807638857964,-1.4044761282554445,-4.2907738819904715,-4.421237271719725,-1.3924482219286225,-0.17864784732161434,7.029815253378803,9.2492899258274,1.6789484658101703,7.8909929825928815,4.969846534943108
14,0.7828279907335992,-2.3665116174544085,0.6673577843905765,-0.7082478280121173,-2.7758430683278483,-7.012512316889464,-6.594922825499483,-1.103813685934826,2.8335018549139583,10.22613731998102,11.65013141993231,3.9856471969301746,11.344766747382028,8.018595881118737
15,-0.1957699127797775,-1.5657604333411566,0.6510640461092639,-0.9132441775504042,-3.3476979267119122,-7.488320695667428,-6.5462987134330985,-0.06973351386637357,5.706622553497203,11.306179133816014,11.031866379972586,5.389043713573321,11.720415439693582,8.691199081326298
16,-1.2783388916783274,-0.45150658943643873,0.41844414562662846,-0.9423354688991813,-3.101309705453597,-5.684297213273597,-4.444414205551968,1.2964873535456862,7.24706960752665,9.586537405840087,7.447475324571501,5.434626345375667,8.891535401388268,6.844948474556305
17,-2.130430066681622,0.7242194014253985,0.07220658774966093,-0.8029026771706499,-2.2188228620331243,-2.2839200988506847,-1.1327869049152137,2.3726084000095855,6.550499115042736,5.101519215787525,1.7652766771949997,4.01560392833792,3.6253211715632117,3.077219470015885
18,-2.445169623028825,1.7241969905631602,-0.25252449638724334,-0.5206173534872435,-0.9988185328077669,1.5484606530484497,2.1771793318601995,2.5670048487185917,3.404405427950784,-1.297921131333215,-4.558062689065316,1.4335742207119424,-2.6354260200625017,-1.4586484896774201
19,-2.048806408094469,2.3759556291850776,-0.43411479083927146,-0.13416691337457212,0.2423671127774491,4.560800539180657,4.338985790642567,1.5753924345633274,-1.5218992293210638,-8.094055211377787,-9.87095029829965,-1.6585181911146074,-8.181831494703786,-5.403792278621493
20,-0.9736285426401118,2.593054981974152,-0.4048453958892589,0.3043276103614764,1.251116939187791,5.83024334003742,4.676541593260622,-0.44760872548335184,-6.799390935088529,-13.481816040198456,-12.775674171846632,-4.4238156458497535,-11.520181816664296,-7.603750821930047
21,0.5299680451176871,2.3704861830607302,-0.17269718228826675,0.7270656967993252,1.8791385685291693,5.061035408731051,3.2156028864829094,-2.881751213823595,-10.663662290087704,-15.878484491434122,-12.506050451815153,-6.076052727012896,-11.784856370115335,-7.452219535331672
22,2.051982220943362,1.7659248784800516,0.18232638406467744,1.0529819373079143,2.0857254177341273,2.6614639609596487,0.6554162078983022,-4.821990004502008,-11.615080805983823,-14.41144750624428,-9.128969056439457,-6.113186589842676,-8.96508225163401,-5.063686644936652
23,3.1381660220936602,0.8799725682741036,0.535510954776699,1.1998155270162807,1.9116840586912345,-0.42454611555818395,-1.9105492065322844,-5.397585870593564,-8.988964366591425,-9.22689417250292,-3.5166394465164292,-4.4780342395480535,-3.8848240389575,-1.2238933210226086
24,3.428190872977207,-0.15704803387109179,0.7586328838990138,1.1057145127744412,1.4436697968424574,-3.068390516530501,-3.4220492855769966,-4.120271213243638,-3.281377092019509,-1.5100962475091115,2.8976920909243815,-1.5927123336540507,2.0508471536418167,2.863197759554711
25,2.7728000558825845,-1.1927621306347103,0.7609728357843922,0.7540085849440005,0.7853746071941117,-4.362544445754526,-3.267294064075096,-1.1291003318705006,3.9123080849796605,6.805124126066355,8.507408981125055,1.749364144547309,7.261815694005393,5.950211254080763
26,1.2909672363713502,-2.0622796002894286,0.5168733620813881,0.19071778823014066,0.04327463028173748,-3.9346987915393385,-1.5270200575294874,2.7744104560964566,10.357873740366871,13.56179838776329,11.953185637615283,4.606444143824032,10.429366874805204,7.1251113906526795
27,-0.6534998401955926,-2.6074298124738657,0.07209734630145559,-0.47504335108837425,-0.6755939586930231,-2.0587283003957655,1.0497086233169945,6.337814050616488,13.907709485995865,16.987042727345944,12.462031094635599,6.162289494974751,10.838142190268796,6.077892557890898
28,-2.550495800714051,-2.7076319583588537,-0.470846353667093,-1.0920445536409167,-1.2631578532428789,0.47331081961260035,3.334607238021607,8.262879592333286,13.2500499013851,16.198344473838347,10.018384701602356,5.969259525719408,8.532954598702483,3.177328929161298
29,-3.8873386120859306,-2.3153529397774903,-0.9812525933614215,-1.5052067543130625,-1.6169756250107956,2.6654490420257844,4.268774999404008,7.673177999771818,8.414811815676291,11.454375927019552,5.331522533813259,4.08634817874385,4.258563575205971,-0.6590882634490254
30,-4.293263692696003,-1.4821663063603296,-1.3322101786667724,-1.5995470250554111,-1.65844514350638,3.6974188943958888,3.3005947939614146,4.477163606643158,0.8390277063485815,4.073467653325722,-0.37960672044402466,1.0682759533985202,-0.7854827040721811,-4.2552356249342465
31,-3.640892227588455,-0.3608964396860607,-1.4269767653070322,-1.3349616853906352,-1.3585590696842895,3.2263358304363297,0.6410688417617126,-0.5167332812017063,-7.058457168764145,-3.954820142445908,-5.7163130655040195,-2.1939222632143447,-5.293011247469306,-6.533364923412183
32,-2.0759825393055307,0.8234901306152886,-1.2153735412545887,-0.7596555925309212,-0.760212020512209,1.498940613479379,-2.7710965151240305,-5.7978071608262445,-12.669301577536789,-10.545377247183128,-9.452457994267224,-4.735406947275303,-8.198397898672924,-6.829274053491538
33,0.02939814705413347,1.8292495035912943,-0.7009886749736012,0.002398588921199409,0.015913942144467213,-0.763476857629891,-5.594624517830669,-9.619353158717031,-14.09198449534977,-14.104722999621549,-10.818677313649355,-5.805736694369772,-8.928491711145192,-5.074741367528457
34,2.1812512887467967,2.4623869752312384,0.057226154856331334,0.7851709846673102,0.7903927804825553,-2.658203720518498,-6.589305479017995,-10.587957062465945,-10.817612504023908,-13.953541603568514,-9.65343726287095,-5.096201011917671,-7.500775760710581,-1.8001037343044322
35,3.890839601146806,2.627282506396138,0.9462959635776458,1.423331636613532,1.368122462069725,-3.4558267884115095,-5.113114962383011,-8.174521261627163,-3.9507834450017985,-10.463284018626993,-6.395415042815586,-2.8365906218434063,-4.457983921442915,2.035269903626269
36,4.7872532775203025,2.344113453860995,1.8046337195579225,1.789771500667814,1.5940183749717636,-2.878542998592216,-1.42192308674705,-2.9593653007120087,4.13332619710544,-4.877374863390468,-1.933643642587364,0.26997863959364665,-0.6754749174946568,5.327848956116701
37,4.687880165727635,1.72656186815544,2.4366851030380245,1.8173842110078238,1.4029707044913462,-1.1959996368352455,3.3530781597516808,3.4936400141594506,10.59548712141213,1.1136717567379002,2.6350028117274964,3.25700820427162,2.8921128026236267,7.144065041608035
38,3.61687106248642,0.9299773851459657,2.6429755555829764,1.5023598750138256,0.845609180373734,0.894841622516683,7.559654610862027,9.11309692964577,13.130760840535242,5.900076699890599,6.274547596933393,5.187865266503822,5.450939296484443,6.974802498143352
39,1.779245103873214,0.09324309898764897,2.267618328931322,0.8941354992640766,0.07871142405309337,2.5547291471936906,9.596600824146329,11.999555772389314,10.806592535653941,8.414644438169107,8.23995967049332,5.4444162172045445,6.535194947762111,4.86362537245273
40,-0.49102893299939787,-0.6993925193349012,1.2565603129536496,0.08131077246992358,-0.6788142747827982,3.1373403989309954,8.504008409652354,11.08141290537645,4.432906427143449,8.3890002376557,8.220384522477369,3.9228652364483816,6.070709757056736,1.3808879239936747
41,-2.7900520116120497,-1.4195077137538552,-0.290313737351011,-0.8186923279609232,-1.2111472311561688,2.4419988182291563,4.356871185364864,6.516901390839847,-3.685668373260637,6.337703634346266,6.372891995314958,1.0751508619149486,4.336560870987448,-2.541112654330124
42,-4.699075923058605,-2.059775517976038,-2.0965309635202125,-1.6646696205416143,-1.3709531301561604,0.7854143625206244,-1.6901020830676925,-0.30944906549718765,-10.546893643918342,3.295408609632559,3.2506822568970435,-2.219942893888269,1.8521367638446626,-5.86155484152293
43,-5.835380301754885,-2.583259615829122,-3.7370864571387292,-2.2971237989415862,-1.123568815263482,-1.1334796032879717,-7.73868180824487,-7.211337337545836,-13.527028011449296,0.41172758597331294,-0.3487003910204606,-4.920215815559867,-0.7698693918201106,-7.703632669472453
44,-5.905501289653385,-2.8873331110943363,-4.725862326187208,-2.553820001285028,-0.5557129707223519,-2.5195245923953777,-11.761479227757773,-11.914454628930693,-11.35464137031784,-1.4502224281320024,-3.576399276957832,-6.140379623958462,-2.964832352986555,-7.576821367735912
45,-4.765503054315377,-2.8091783666217194,-4.650259437653213,-2.302333796518541,0.1535735963754667,-2.80303885100442,-12.28968902623461,-12.821795911674768,-4.6244485768478665,-1.975079074872794,-5.723617077971347,-5.432304694881814,-4.323121186615913,-5.496271476008861
46,-2.4824256843217896,-2.1820545458726524,-3.3185705232557723,-1.487389825232597,0.7895968326886282,-1.869024242546522,-8.937615635202317,-9.567477874992647,4.35193852058223,-1.4352947122586526,-6.372111287156068,-2.9378261248363766,-4.64876967246862,-1.9742391081442205
47,0.6229127876617151,-0.9264163008216345,-0.8709072920927342,-0.17898382717668218,1.1675064758431406,-0.10331365584739911,-2.5780987857040643,-3.162868024531528,12.327418705996207,-0.5103075149391954,-5.474375373693384,0.6367417875820892,-3.969549402378866,2.110664521684046
48,3.9803966821695007,0.8615268017301051,2.194527288773742,1.4012051967816033,1.1858299211148973,1.7618899622325161,4.900594310016046,4.32340525069275,16.270999177074277,0.03639041517771142,-3.3483271539635577,4.222002494301676,-2.506784476264202,5.733007061409375
49,6.846943545899798,2.8686060553608423,5.108022938844378,2.8971938237057757,0.8521723711907173,2.9413050908633207,11.183671558310127,10.448705319948363,14.483848047633924,-0.3049225550114432,-0.588501098343002,6.7060042348385585,-0.6168333896802652,7.9760257335110705
50,8.459638331976402,4.6036076815730915,7.020802098933507,3.8903019031706036,0.2749811862613849,2.9125005787415668,14.273014056806616,13.212204935944776,7.273032776541581,-1.5665760481725026,2.0863353049118336,7.27813362431492,1.2835827041458294,8.262120769546673
51,8.240294683044866,5.520343127731774,7.256726118330983,4.015193632423434,-0.3737001746468475,1.6298495908334232,13.138864817448619,11.724212525912478,-3.0768499313711293,-3.278389952809373,4.013833476433669,5.689793208934733,2.7968705199841883,6.502087329340525
52,5.9964727531790505,5.193816824657677,5.547280954590045,3.0890002800947425,-0.9110095052062154,-0.4477323173169031,8.063091919990383,6.499238745175671,-13.047596277346383,-4.65017866091419,4.752951792954823,2.347423683704161,3.618098728376497,3.1241522280023655
53,2.048942929803062,3.4910934363132817,2.1676746602313997,1.2086189591640664,-1.1946073682950011,-2.526663136036892,0.5592859945604676,-0.726766335606136,-19.101234833683687,-4.892596397372218,4.190654797999718,-1.7966931081721058,3.59201151683272,-1.0285304988868809
54,-2.7747405551987963,0.671124341470003,-2.0851586269338447,-1.2267498384882578,-1.1578646749376764,-3.7809708451174044,-7.10449500302579,-7.589401248945659,-18.940533675208965,-3.5539997451089276,2.5613155346664476,-5.5272549303097325,2.743729244905432,-4.910526040887334
55,-7.3052243974236575,-2.6344451550888914,-6.084323941889656,-3.5911163024117947,-0.8208295873740301,-3.6710149755063988,-12.62329093845728,-11.891910533958097,-12.36407279588529,-0.7430089309718833,0.37248001968293426,-7.737121299693623,1.2758280226878005,-7.545197031788908
56,-10.327469919325193,-5.569177375856079,-8.688721177408071,-5.196131238502134,-0.2772194559401607,-2.1569099480532583,-14.378220976893026,-12.329497662595829,-1.3983806128101832,2.8530474431473216,-1.7430293256334792,-7.770396615209758,-0.47064017192047086,-8.283260580056611
57,-10.929930225342328,-7.2923260325093775,-9.089774638560346,-5.500977577307571,0.33539040602613807,0.27445855311508377,-11.930986253579178,-8.896273480362252,10.357241240711444,6.168993540011558,-3.2068002906896327,-5.626881177348677,-2.0866641791660183,-6.976838524048029
58,-8.799389542825402,-7.2391974017329614,-7.07746588882624,-4.301241526002558,0.8716278695449755,2.779127654774453,-6.134363772994792,-2.844011494194808,18.955526311748095,8.115632418010058,-3.6543378442869816,-1.96014500799526,-3.185124058797804,-4.016989122037559
59,-4.359894497515228,-5.315574280327405,-3.133212927991266,-1.8289551238115027,1.2107503955240762,4.459123592227982,1.168591457281766,3.7800221169037522,21.46928928636368,7.961928353686811,-3.0280870135112044,2.1318271402730327,-3.491484770609535,-0.22011174837799716
60,1.3031120106965186,-1.9569380270443812,1.6899436444185172,1.2804690209755354,1.2791258751731156,4.686823479249792,7.749481985448065,8.844320571622813,17.01835223832296,5.607791732927062,-1.577919627522386,5.455770979418635,-2.9141243654025586,3.4065664371493876
61,6.725062350196328,1.974989963842721,6.0697435266515045,4.156405916808176,1.06084917700755,3.332300445251326,11.700628503815366,10.841377678384497,7.087263863798016,1.6469275221698183,0.22833227804169204,7.0972736507096235,-1.5754311933125513,5.951953567642428
62,10.47314450376434,5.432564032910582,8.807294502689613,5.951110752814389,0.5977990457368741,0.8127327739058489,12.012672302371492,9.351422391190098,-4.983811068919498,-2.8066757176860193,1.8539432028473333,6.696437179624735,0.20754275015210194,6.853706472058969
63,11.561229280339502,7.487045605767388,9.184900753305138,6.107479567950691,-0.018493700713064606,-2.0511752818186726,8.843573650076038,5.114887760683307,-15.157677932907678,-6.47113107094553,2.8538600420327263,4.535225740077221,1.9923809616492805,6.038980933190822
64,9.737974748974953,7.6022987640124935,7.173775183556205,4.547105570304357,-0.6615230834307119,-4.317552871486425,3.405531513373455,-0.2908268853619409,-20.098187576340507,-8.307287074394608,2.9968366193537816,1.4114573549173244,3.3169715601405105,3.9111929414119455
65,5.555289351604666,5.790220666564742,3.4254841332921133,1.7113061960082048,-1.1905303117836978,-5.242883100293567,-2.4768784146592004,-5.037130408162372,-18.312348682031452,-7.847228057558799,2.3138017745883586,-1.652070051044129,3.8170163721520316,1.191146051813524
66,0.19475809213472278,2.5987071060061955,-0.9469943922215162,-1.5650584491657973,-1.4767858558784859,-4.527578873556919,-6.9796361694059215,-7.675106953897719,-10.634116219004584,-5.330344671191391,1.062944294010041,-3.758572898915423,3.325471484154332,-1.3306644790630462
67,-4.891523658702033,-1.0624866205063446,-4.723015587540012,-4.310632752755813,-1.4330511847311693,-2.4064391659659536,-8.85698173248941,-7.590658583123468,0.11470195188475887,-1.6049093568699664,-0.3701481359504689,-4.424826663134116,1.9263885421945828,-3.044578112050168
68,-8.409404922824663,-4.200115805346011,-6.944270020021169,-5.723157321658883,-1.0405977524863381,0.44057822384793344,-7.798576087229582,-5.137972732898654,10.155229063742127,2.1656140516364624,-1.598936658732074,-3.7071428964588833,-0.054153854591011706,-3.6901635579337118
69,-9.58404343308414,-6.02965025457794,-7.180992470328381,-5.422669863360481,-0.365349780196611,3.1199179496283636,-4.461620366766581,-1.4277617028480076,16.09684848910519,4.886908444877805,-2.345247848523606,-2.1281280351621725,-2.1215252669674487,-3.3889344666341814
70,-8.344022054870704,-6.189199922691029,-5.613958243746597,-3.5675032767760104,0.44548396320457945,4.8154753994221196,-0.18500864467648015,2.1297410869265967,16.112747426478702,5.877015416838818,-2.4982418096151116,-0.43982603857908414,-3.734585551908384,-2.5384758184967433
71,-5.280496533660347,-4.812043017770788,-2.917563713571345,-0.7941202472438663,1.1911100052987116,5.041565314333022,3.5031259748532464,4.346810554467656,10.530423692409126,5.0557429962805935,-2.1113671799727007,0.6821845153593052,-4.446382120892806,-1.6162508516336223
72,-1.4095766110453531,-2.443523878424902,0.0029066569485584684,1.9983910186817333,1.6665093476958854,3.7789238138136727,5.410228725920043,4.654516570034163,1.6398499946311595,2.9244706262700997,-1.349431021361488,0.8962424994902317,-4.026897591288672,-0.9738104415330016
73,2.171270342270519,0.16056553035298088,2.320800831870931,3.9455976657320537,1.721947270847281,1.4579761755757101,5.0598459269594445,3.241273835078206,-7.1926517719844085,0.3540445442473277,-0.4146264877636739,0.30743620074748423,-2.534139996127197,-0.7033652975625221
74,4.613828346954606,2.280846627779989,3.536564675361277,4.496109112612025,1.3145685773506082,-1.195198963621426,2.8075601354474333,0.9042682931710755,-12.768808637916841,-1.7373235691803888,0.5161699892391932,-0.6032137928951746,-0.3119853927628338,-0.6280090782809099
75,5.531921930214931,3.443780363601885,3.58683085298805,3.578323022609478,0.5331535949320682,-3.392952090642727,-0.3339020790232102,-1.3091382300337722,-13.203842993806452,-2.7007840049506466,1.3208571915466467,-1.201154818340323,2.0883270614126994,-0.41600933736026124
76,5.04041029172843,3.5299839411787963,2.7909911453050325,1.602580229239816,-0.4164935150611275,-4.523007473370941,-3.087655261683372,-2.5215979304534386,-8.562792764265122,-2.3601770957082397,1.9251923994846836,-0.9821495628406381,4.045865974992026,0.23158469635856477
77,3.6284707513340084,2.7568199491105587,1.6716015011610992,-0.6969829697162525,-1.2657185572586471,-4.317021316686377,-4.380249597517883,-2.346897973834478,-0.7721503297002125,-1.03785876380877,2.2748204732191417,0.1957077634513071,5.032812393974795,1.401790651078313
78,1.9308308071189393,1.554911510208456,0.7269757353704934,-2.522244210501635,-1.7627128578607338,-2.90649256723577,-3.7204347819989763,-0.9990949517590257,7.140662019958599,0.5970107669342001,2.3110764983680556,2.024723743448553,4.759604997207589,2.8788168833156607
79,0.48872080249422595,0.39203853391677074,0.24466564150416695,-3.281300191251742,-1.752935547845808,-0.7590453637017918,-1.3614303548720863,0.8367154442909367,12.185248619468734,1.7961711277375592,1.9716133751390044,3.8420800007275693,3.261892860777785,4.186485365769941
80,-0.4147015204458676,-0.3897221009803852,0.2214867139242402,-2.777590434437756,-1.2328038281444114,1.4766964133297333,1.8031830365158354,2.307328984015852,12.500114809783666,2.0163614208593965,1.221720835358638,4.8729456102265365,0.9023276754745826,4.754734241531187
81,-0.7962127157660919,-0.669319734841049,0.4100654715268003,-1.2576286124080527,-0.35646086152305784,3.166223925488308,4.567402833200766,2.741932572332262,8.00361274431096,1.1180834861856799,0.10292314925561373,4.531528968637326,-1.7176753830063411,4.148869315303526
82,-0.8935249092533417,-0.5496443378919146,0.46208242081312256,0.6924381762106978,0.6092982860815137,3.8665880543561624,5.846473368919154,1.9134301581843398,0.3806091372351387,-0.589172220642406,-1.2284037193737136,2.666094386936418,-3.915909969384817,2.271429376100602
83,-1.011452099229629,-0.2784042245654028,0.1034351368678224,2.3596449156072707,1.3687962396785225,3.438672768199004,5.064611234415569,0.11528508101792548,-7.570618715397903,-2.4668594041384373,-2.500657382947847,-0.346288080670934,-5.115501283511017,-0.5468474766927485
84,-1.3619114986504208,-0.1253008893077517,-0.7312942568700728,3.149837026640129,1.6925575068371927,2.068474869067778,2.363874227514295,-1.966327319529294,-12.975189925776986,-3.7849361379103867,-3.379547270815797,-3.6943547344879817,-5.006839261151554,-3.610395976795264
85,-1.9613273751196056,-0.26523705128741626,-1.8571631246645333,2.7826566110255655,1.4914395915073735,0.19773009598344554,-1.4352372478783506,-3.5265811745582427,-13.914948308714553,-3.988863663363365,-3.565068517019117,-6.386096844356975,-3.637048832745977,-6.0617933957142
86,-2.6208145155352955,-0.7097717757508036,-2.9028486972263483,1.374101237703006,0.8441917362939452,-1.6121146097919212,-5.105210678495714,-3.951439045434288,-10.085399310912077,-2.8998211401623415,-2.901655440685982,-7.572534121778831,-1.3978355432968494,-7.155884057425368
87,-3.026003147934486,-1.307320840587801,-3.4514405101340913,-0.6141745399353511,-0.031132073095197832,-2.8427703583378716,-7.420552640558383,-3.044001383084982,-2.8531756557107686,-0.7786437667891704,-1.4584635647222106,-6.828334394191083,1.0878879942453552,-6.508274591858529
88,-2.869803618069355,-1.8060164727899377,-3.2011657955729413,-2.534664974760897,-0.851797876564476,-3.163985692711196,-7.565552133330237,-1.0868886472695933,5.28312783080376,1.765049576342547,0.4575324778025849,-4.292515565570907,3.148739238767934,-4.229436905756417
89,-1.984624069453703,-1.9516781077723304,-2.0846129517854437,-3.765184792978871,-1.3648430525508073,-2.521823968934115,-5.405285842160171,1.2741664887950621,11.609641814202842,3.9811162187222178,2.370423510377545,-0.6237728005144214,4.261917183762857,-0.8969152339349384
90,-0.42489206600471024,-1.5839412094391407,-0.3039994078381235,-3.9016314697030503,-1.4285206200559328,-1.1473591104551133,-1.5329087215125228,3.2725493937781795,14.145090212978507,5.226831226986028,3.7699770767273435,3.2089639290474774,4.202956440741394,2.6233281807807836
91,1.5277295152725856,-0.697981334160917,1.7264844431030903,-2.873995474916529,-1.0531267249074652,0.5158672778034893,2.917902351712572,4.292233641571116,12.27885098103759,5.166487285688212,4.268645390040321,6.224078026816565,3.1001073857053156,5.442041901539991
92,3.435059525390894,0.5459500030134143,3.506148436068383,-0.9560454853043547,-0.3886395331968619,1.945325152803455,6.629688887065269,4.067591804261476,6.88865658193546,3.85688449889252,3.7260749022212205,7.710308984780122,1.3756646992813295,6.90580174962179
93,4.822478908150278,1.864361640749374,4.594265202982985,1.3259260852421773,0.3341947995811377,2.6964882353706296,8.509119726093136,2.744717072522101,-0.07116241857674542,1.6980076356723308,2.295693125602404,7.404776605454161,-0.4056696966394246,6.7645632737259485
94,5.3086922519903785,2.9273351299217967,4.728277958698903,3.350538099110541,0.8864421005836316,2.538313921173429,8.016110622751068,0.7942165677965516,-6.32603339055795,-0.7219545272798877,0.37545118068908717,5.5188549128395,-1.7291038016221547,5.1999427780733
95,4.707123612840675,3.445912949787625,3.8801404914636297,4.574763581184363,1.1169507683401083,1.5267389051057685,5.314409645915308,-1.1784979752890121,-10.083105242171138,-2.8225450321121226,-1.5201570979094432,2.6212714194534112,-2.29572525403241,2.7193016061994326
96,3.0741726469962507,3.2462582215002165,2.2426837636869803,4.674456351164373,0.9953742791443353,-0.007928307016175265,1.2041782331148034,-2.6456502122112977,-10.584340428455798,-4.19474292815884,-2.9208830203148466,-0.5645305748524503,-2.1040960365911854,-0.032605763144978116
97,0.6977408631605116,2.3138195057131354,0.16220090031897016,3.6179900375968748,0.609315732010384,-1.5593595579579735,-3.133537128097979,-3.312435275310305,-8.231235986965386,-4.679442135545157,-3.53728372033282,-3.3699810797316694,-1.4199577609704301,-2.4695487237541234
98,-1.964547844464943,0.8004136377300373,-1.9526415718179215,1.6610228581957966,0.12018944569104559,-2.602797205140641,-6.494486357648729,-3.166304317824535,-4.276966383198887,-4.34676118766501,-3.326909020299098,-5.329082716153546,-0.647977650335396,-4.199956522424579
99,-4.378721476709114,-1.0041037289209163,-3.7156027248783583,-0.7280930949162628,-0.30269336704011535,-2.765295950917289,-7.9988963600659,-2.41819876883921,-0.24635320222527748,-3.403203751515296,-2.472268877131228,-6.2299158683572315,-0.1564596694938144,-5.068436127106724
100,-6.038870678177651,-2.728038389732708,-4.822879510066274,-2.9874595530976134,-0.5435175769229287,-1.9548599976919034,-7.326645516930874,-1.3764557416788474,2.6652640957464326,-2.079625306834327,-1.286852321092666,-6.078464653181742,-0.12411609883742351,-5.110029423317819
101,-6.565103183405406,-3.991416751979397,-5.08538222041208,-4.594039944436041,-0.5740952541728743,-0.40408817834250293,-4.7773734009163356,-0.31554140791775853,3.9774576906681016,-0.5538991381896886,-0.09162331362479291,-5.016060195722886,-0.4697609372842771,-4.458369494259872
102,-5.781768742568401,-4.485056410308193,-4.441918428716174,-5.179711162137457,-0.4500769809819317,1.3914282651104555,-1.148872988709107,0.6050530024094878,3.9647673887918704,1.0609381053853923,0.8876523243585089,-3.2417910977243527,-0.893665915764919,-3.261047784695406
103,-3.7653353398386784,-4.042260739356613,-2.9644983745037443,-4.608582988954629,-0.27414301415834663,2.826328626883516,2.51897747017121,1.346131933558529,3.3732471142350495,2.668237625887398,1.564774054320897,-0.9764458709327724,-1.0152610349743911,-1.6427170819614976
104,-0.8521518112731177,-2.6892053824883977,-0.8605312917024771,-3.0029316237444204,-0.14388633485891839,3.384867963288251,5.251422581707481,1.9306435997804439,2.9675548601462993,4.116408403094106,1.9693448962280364,1.5262523728556718,-0.5527777786462945,0.27383676071511537
105,2.4023563348732706,-0.6602068816675527,1.5339302588019514,-0.7150132489353441,-0.10724346229501644,2.821776741574399,6.404908246352618,2.3632841942894656,3.122731760100107,5.155861887432365,2.1754438836967234,3.9466546522666572,0.5282906520654197,2.3117039354774316
106,5.316450970909399,1.6325590664643357,3.7833123561054642,1.7489148799936796,-0.1440606798177657,1.26129984620439,5.818520342619564,2.5766908800769177,3.6419474320638545,5.463924905775122,2.2234140148306,5.886451085287026,1.9615320839162567,4.192959719449891
107,7.219386788098247,3.6770800945554076,5.415989324804378,3.838073000043475,-0.18071985385876752,-0.8251904136697352,3.8162263603704925,2.437020335078052,3.873772230563908,4.7451601540663715,2.076746046771416,6.9115068992452615,3.249476535559657,5.54381858387829
108,7.610587124387323,4.976767081659226,6.022130430367535,5.079240843897648,-0.13056994012546777,-2.7628420249055896,1.071619775735521,1.8102433558585855,3.06798373937243,2.875282780736972,1.6380174924479798,6.6580498103263945,3.8380564238154804,5.971529795465315
109,6.303425021343032,5.178495819734011,5.3676589920124815,5.186264645000458,0.05802056414801088,-3.895116155654237,-1.6137944752697113,0.658353181820725,0.8045566422438687,0.02808535621744436,0.8183537391432573,4.973799209320654,3.3342691288297774,5.196955141813376
110,3.509639884034477,4.179051811628526,3.489838519999377,4.131548072760043,0.3674956695347284,-3.809995673596154,-3.5466103836667795,-0.8834103422688036,-2.701246080003677,-3.2797097234828265,-0.3730695532524378,2.037683524445913,1.6847931736396602,3.1941955743311086
111,-0.17228103489194865,2.1750526784270523,0.7348764224277977,2.1595820836082096,0.7067661233421914,-2.4909806448939635,-4.321832693400655,-2.492946770000572,-6.562665096881925,-6.266739340811874,-1.7666089388724613,-1.603557569571843,-0.757064664966656,0.27451642139211835
112,-3.878553080692071,-0.36690641928693046,-2.29075083927003,-0.26559597144763464,0.9404246238084484,-0.33609511932170083,-3.9005540134845837,-3.7307168248858504,-9.486465404018574,-8.084463249771169,-3.036287196879363,-5.120985833525294,-3.3108801986377956,-2.9355808802733394
113,-6.6916610700669095,-2.820852697332734,-4.857223094570597,-2.5706198692044753,0.9413037182326325,1.9669184278095395,-2.5733022061360464,-4.175950936129682,-10.245407210741273,-8.080455227386073,-3.7830293725879542,-7.606396867694632,-5.176766782590219,-5.6357314208265
114,-7.888946644426547,-4.5672218749889675,-6.305760233800712,-4.215299563226887,0.6460164426543706,3.6695608959082304,-0.8329248034129075,-3.582296576946618,-8.175932807863914,-6.040139793500541,-3.674075278689476,-8.338829727054755,-5.70373972522433,-7.078909279208379
115,-7.1549388711682855,-5.166892359864962,-6.243329682001537,-4.830209300892743,0.09089006455476382,4.217040103908791,0.7943050245245666,-1.9924302642051068,-3.5029136167483066,-2.315966854219498,-2.5867858430790345,-7.027416242076196,-4.624895848075135,-6.8119449388756355
116,-4.6872295429202016,-4.489215624542036,-4.672558469589692,-4.310580440775836,-0.5875997076377305,3.4382904765544806,1.903429572503149,0.2378176123573747,2.6446068600295325,2.21602077450147,-0.6961054290242402,-3.9407519134539446,-2.172742408904706,-4.8431994283798945
117,-1.1542319329624693,-2.7510687344499587,-2.0076961129039,-2.8384664075448054,-1.1906339366355045,1.6032866267916162,2.3064843008204274,2.523743216481067,8.547624744495497,6.375786777930226,1.5386388385702592,0.13466281425249454,0.9723148074185913,-1.6705209802390486
118,2.4905390514270875,-0.45143371517525094,1.0364584664827463,-0.8258401051417978,-1.5212305199419098,-0.6732100276281097,2.0482322631172916,4.2222954248396025,12.43886477140449,9.01615580888409,3.4952531764766976,4.106983000709175,3.888808592122684,1.8505831355565705
119,5.284515558530064,1.7793691274782466,3.6520279957353687,1.2045388660945326,-1.4524789254336128,-2.64663826076394,1.3490338648432927,4.833505764344604,13.084351566804932,9.372490366701438,4.583274427291093,6.900924349311098,5.708741841761684,4.761231760876286
120,6.536420074704565,3.3674435788459975,5.176316613316774,2.764300619927977,-0.9752347710781113,-3.6985325527692505,0.5042322170864072,4.163996558233176,10.201383097981628,7.3098719337972735,4.444670236743791,7.784867334261941,5.899350372866511,6.292600146850908
121,6.020773104182882,3.959017424179956,5.282841390056562,3.526916400625809,-0.20750676301675683,-3.5415331860268555,-0.22071262801013142,2.395242418727115,4.567177223813799,3.3817976615085397,3.0866253707455313,6.59295873051071,4.434667033373415,6.098867561606053
122,4.024037619766182,3.5079320452096354,4.062721986836777,3.4006000616031344,0.638814723438199,-2.3019511689792997,-0.6646155759125186,0.031636289451596515,-2.2187429451320666,-1.3250029420022833,0.8940844126687437,3.766075408691105,1.7977304912642618,4.350411264893817
123,1.2300806583988826,2.2621475888746505,1.9722512844527103,2.5287248741474677,1.3231819822140576,-0.45477376034043215,-0.7954359569821932,-2.2551521210405725,-8.235750313770716,-5.513744710865859,-1.4873339335507607,0.197987829985546,-1.1859710858809875,1.657712421383457
124,-1.5125903887946628,0.6600348332633562,-0.3308985918582703,1.223748095966934,1.6516585203737624,1.3593468518155836,-0.6866711326739514,-3.8335519597129806,-11.83642576556563,-8.065872791656332,-3.359471058749055,-3.0589625065271195,-3.6238898614648085,-1.143285729811041
125,-3.4601561914834233,-0.8224441705907881,-2.2028357051507426,-0.13892362664186184,1.5369606526275692,2.5636438689153263,-0.46318806895190234,-4.302311939805149,-12.13716266264132,-8.369232808487077,-4.197914645994347,-5.126200944963466,-4.8435966890798525,-3.265730665290453
126,-4.188452870084409,-1.8186031697148601,-3.2053095238892904,-1.23061795621779,1.0235377347228443,2.8362707938299105,-0.2423091357495017,-3.6019842217362883,-9.250072143592433,-6.481450750732794,-3.816489741844106,-5.556339322432256,-4.5932941490423165,-4.210012626533155
127,-3.686210965801138,-2.1637806392651,-3.2125298952310604,-1.8491415976165546,0.2702197462716139,2.196775583646547,-0.09305662702003026,-2.0144149902359967,-4.193689999022454,-3.0801659631055682,-2.4131731331161697,-4.433346553327875,-3.0914281063266884,-3.887478818466424
