,AF3,F7,F3,FC5,T7,P7,O1,O2,P8,T8,FC6,F4,F8,AF4
0,-1.3673196634768483,-1.4456620793747041,-0.699854195115979,-1.4189838048368706,-0.48446221645043136,0.22611372823379938,-0.3793415160334761,-1.1395146484260512,-0.44802573915764116,-2.0443114608891624,-0.7535092778529527,-1.0128367605074058,-2.46268127061529,38.979464599914664
1,-7.144454514549133,-6.400794770486888,-6.444519754943944,-7.366696344215257,-2.1991527674811895,7.464549671989699,-2.1358855448824516,-6.431533553276242,-0.4323672067367,-4.580426144283974,-6.8549080793814525,-7.285225989370008,-19.92916085403248,19.556364552806222
2,-11.076937542668489,-9.716965853162836,-10.421815759611578,-11.419197582475583,-3.6290439568688457,12.635921781888413,-3.1633171763525456,-9.730296449267039,-0.25558458168633164,-5.775092785964023,-11.304338897730599,-11.595390590988396,-34.19091276265556,-5.760257593086414
3,-12.053098730365706,-10.440942194124943,-11.493926174079933,-12.450212228267558,-4.543176422254853,14.339173532477052,-2.9945830496215744,-9.84274590959931,0.09588668674521166,-5.049057361822049,-12.923034961254615,-12.677722251872227,-42.83566326522604,-31.16402194017353
4,-9.730503471141104,-8.29808775163103,-9.334906029480837,-10.143479187105825,-4.709807350599333,12.115469563344439,-1.6109043451479894,-6.646814448566405,0.5605845760362945,-2.4320318041149904,-11.217864751819373,-10.152195277894934,-44.03292731230429,-50.34973788982604
5,-4.636841278472108,-3.7738698589296598,-4.522779107774835,-5.077292225385988,-3.954326902939953,6.564828180463235,0.5384820442817687,-1.1442186136587618,1.01402828267614,1.4198101517441681,-6.524184126088179,-4.641549816623188,-36.92545762379023,-58.3653230517329
6,1.9542491433845879,2.0038745001286946,1.6248682496297702,1.4346759945232725,-2.2471950657052804,-0.8206059589882168,2.6941680541146833,4.874972767918026,1.307729800802517,5.40872154919808,0.050566560128104406,2.389484300622741,-22.046881810769847,-53.20241927935886
7,8.341935856948993,7.550558774432847,7.4216986170611605,7.697935016749975,0.21551918107922352,-8.058267624892752,4.064522103177627,9.439902029332425,1.3217312199317617,8.325595477552099,6.877495176578189,9.029063648973633,-1.5863297763050515,-36.53722148983837
8,12.831472696519581,11.403984868751929,11.281399091212604,12.086517039528847,2.984645446574572,-13.20263605297556,4.120475638828204,11.067117095096155,1.0111682255179788,9.221220053035422,12.199032792156103,13.43840599890741,20.702235956472645,-13.278392918761643
9,14.172434371934694,12.499751784334277,12.150841859956108,13.464390593277244,5.416763014554298,-14.858458342645307,2.7968757928163037,9.257330909801532,0.4287682415292398,7.701331789912664,14.573404911702706,14.354292636915106,40.071611525928866,10.012627236215094
10,11.89027795176374,10.44801527200026,9.788211939190088,11.468880393278994,6.822568450125723,-12.546093981197084,0.5245083422818723,4.650086718273489,-0.28632777672691917,4.053425099591822,13.26086580984032,11.436619245355198,51.79968803993195,27.331762376794096
11,6.425634981088185,5.642669127136928,4.814265873830659,6.587766498944446,6.670760090312445,-6.826130736227714,-1.920347261500257,-1.2131446578716572,-0.9506071717224847,-0.8322141860817732,8.448333964410706,5.367084335599809,52.4338433285287,35.28805220603901
12,-0.956467785341459,-0.8236334032877358,-1.469482880264035,0.019165102973630894,4.783964575415756,0.8458475527655186,-3.694401044431233,-6.4294036454852845,-1.394624335640764,-5.719359693832149,1.2432772712844968,-2.326425125576751,40.90300235106148,34.20835907905902
13,-8.467579289732528,-7.417389340031932,-7.4378494607299945,-6.640302675951655,1.4544974355894713,8.493813550439244,-4.192204229028829,-9.3853374104065,-1.5169717048006612,-9.37793445122769,-6.576194465568947,-9.67082554961995,19.114488698409453,27.79631096872717
14,-14.233999762871724,-12.532214879273813,-11.572027828736847,-11.79311756750632,-2.574259133080876,14.127095873083102,-3.2660513743413144,-9.290702680179056,-1.3143019758809475,-10.922076891241932,-13.002934755960363,-14.765374459886077,-8.232970905505399,21.383421813749962
15,-16.763988716932282,-14.878108091323725,-12.84629639994324,-14.222928128774592,-6.274301425237146,16.248177020646054,-1.2806682761020434,-6.411670428998683,-0.8766614535138773,-10.034045397766327,-16.325244243903263,-16.277339841542837,-34.6626479346595,19.38768173133327
16,-15.32741264815665,-13.798612366739178,-10.973110100977348,-13.370740471974534,-8.610172817429767,14.235314173124678,1.0176649422459403,-1.9304711799067256,-0.35025861011657905,-7.014226594744244,-15.594526574835166,-13.785328434812744,-53.5365700601657,22.9897212853171
17,-10.151796506227004,-9.439679830580394,-6.45097332278931,-9.446519836870166,-8.847248272826047,8.506165953754781,2.7711362698926774,2.5091789783654277,0.11804529493064271,-2.6546416158373303,-10.903253578257665,-7.882216307264616,-59.83960591689378,29.06644840399435
18,-2.3834185072169163,-2.72883894255287,-0.4134406000696328,-3.3597273538313477,-6.793288332341718,0.4236304655899933,3.3234003314041245,5.402123750354112,0.4333623872825557,2.012132015163974,-3.386659579240978,-0.014460850233570844,-51.61217406513488,31.027928379237583
19,6.179869643036626,4.832232760718319,5.672093567061265,3.5057897052481266,-2.8899640082763893,-8.03229586922416,2.4638905814953542,5.910881711026233,0.5823979160865462,6.0023008754600005,5.063146855224037,7.895743498506146,-30.59432467918048,21.489229810549567
20,13.520181543365085,11.514445674426474,10.372884377280133,9.61463276853391,1.884514200200131,-14.747319374821883,0.5154527098959707,4.137060079413149,0.6285885912526485,8.617910513379286,12.298484089819853,13.942897442149508,-1.866715619668737,-4.078756055169084
21,17.889468354828136,15.766289227973212,12.632531385172266,13.624971535637581,6.280164915256994,-17.994620721836903,-1.7684775152935759,1.0434386296581757,0.6744440832531743,9.56666077157495,16.494410273227707,16.714691947642248,27.432672216879965,-44.12827545461222
22,18.235708988520585,16.580784914678222,12.004506636417283,14.679838930304733,9.130036063988856,-16.870092673978466,-3.464953341725372,-1.9387745213389151,0.805670870488694,8.944660114896,16.63874202790304,15.6292564173525,49.966341493925235,-89.71378830910172
23,14.458324198356236,13.73568891959107,8.72766408162877,12.583365680904416,9.685993624802052,-11.534215356680194,-3.813336727758263,-3.470729031922668,1.039520471506471,7.110484855329698,12.791654143589907,11.049870667213236,60.11471638579465,-126.01664556198675
24,7.428528469761605,7.847753740180314,3.635225331746166,7.827418807012612,7.830687332618853,-3.1973087695275932,-2.5042559489003304,-2.828890001663864,1.2995537052061672,4.513216282949607,6.040721316300503,4.155443742645861,55.426432745468226,-136.6739442993444
25,-1.2295596574116527,0.22691607699121838,-2.0706487709455312,1.4671558010719687,4.100246481636367,6.155314868249942,0.17601966404319894,-0.1986600706351177,1.4303661775444492,1.546063583771623,-1.8305529000523049,-3.3889814089018233,37.21506296212179,-109.74467174541317
26,-9.539570698198917,-7.434043939515661,-7.116372821961726,-5.12320477503602,-0.48648798288828515,14.238500335304813,3.40141672914536,3.3706747316053782,1.2514664935645154,-1.521317633720501,-8.855847911885792,-9.86558645324363,10.16178086666648,-43.303524623298955
27,-15.651332751073504,-13.457414277217808,-10.451027522069243,-10.557376915980502,-4.734311708406656,19.03087559216447,6.052283457846082,6.338260162453029,0.6342558107882024,-4.516663199561534,-13.422932346418925,-13.921519271315436,-18.940957762483887,51.540187509060395
28,-18.274665346462704,-16.567242816246782,-11.467577671145776,-13.736806144977159,-7.614097765761539,19.287981604616288,7.078446012459843,7.242817561568687,-0.42469845374483006,-7.272385501514105,-14.674772354501707,-14.862585111815262,-42.944933214191856,151.78096791192291
29,-16.960628614337384,-16.170056742907956,-10.10445005265685,-14.076334326281385,-8.534527347078305,14.87251705921593,5.864141261016511,5.271579854797336,-1.7630131386163295,-9.523988688320001,-12.664673049759031,-12.75554223221876,-56.12757024209217,228.09001181519707
30,-12.165546451006088,-12.463873603349487,-6.813322756937312,-11.607372690940903,-7.46469953025803,6.810623993532182,2.4745401331946817,0.6229067379996092,-3.065357198518521,-10.863587923892764,-8.238310168917671,-8.329489624786001,-55.54701619996078,253.51395195858882
31,-5.0924295605906735,-6.3556924860834965,-2.4126443643911717,-6.940153279509857,-4.8820985630301585,-2.949080646387611,-2.303164156907789,-5.473897852160473,-3.9344225219181013,-10.791587180601338,-2.7033244898699675,-2.723450649981406,-41.657132472706955,212.68299974221316
32,2.6371196028560893,0.7824816241871647,2.1275244242601508,-1.1006149341233922,-1.5784225864288048,-12.019207887044303,-7.148867121999802,-11.102592100930028,-4.004828554253223,-8.868613318873747,2.5900390406620812,2.8342213362074955,-18.075860850258948,108.39854386401429
33,9.386131027576363,7.449202905379618,5.911346978965959,4.7131386370708785,1.6012604157954051,-18.178499817684454,-10.581306320013413,-14.264626974527687,-3.068009984053268,-4.923899445157253,6.616210530238937,7.319045630883529,9.385560803508099,-36.97334171287232
34,13.87295097780577,12.351858026295147,8.29904586959095,9.392812037789655,3.9964266807993445,-19.939756092388002,-11.405110517230515,-13.550122269837807,-1.1682891190345657,0.7568637479574024,8.879847231147837,10.100280408256689,34.15951871647426,-186.3429652752796
35,15.418882883668235,14.664997547729326,9.006941075570634,12.138051236400434,5.273934444161677,-16.928572097107654,-9.097755868904033,-8.653668333736038,1.3651312826233188,7.347811258799695,9.416590105367666,10.99230193735511,50.46862682198727,-297.96498880942346
36,14.023391286347426,14.154413938185526,8.112829840189423,12.584656242540522,5.444136430286652,-9.96964461521827,-4.014401815688479,-0.5592770767365004,3.9690145301192348,13.56225207828086,8.622052535723846,10.179674205578031,54.630899373026985,-337.8529382759966
37,10.269208996326263,11.153528550852759,5.979557041368062,10.82423050304113,4.766027801496669,-0.8568323418894395,2.659830457566756,8.677327385107564,5.97443082000615,17.904412903660884,6.999859407938777,8.066076787571049,45.85071979885687,-290.6447851240102
38,5.1060167570232755,6.419095307951026,3.1290131661613287,7.32667350761273,3.594028617414199,8.129266639698798,9.205956261789193,16.49298002660893,6.782633099467512,19.04390818516622,4.939183974470792,5.113983715330416,26.346502547906724,-165.28744317290645
39,-0.41143389650969603,0.9210849412367178,0.10692862607906292,2.8002932716540165,2.2328025729183523,14.822244825514032,13.836352507492414,20.561205001616532,6.041051821731926,16.21443149760219,2.608639227911266,1.7332829745922864,0.8062082186557683,6.5639957407465275
40,-5.353752352753168,-4.370446592223748,-2.6255715001387836,-1.9657480388945758,0.8541352123634609,17.72332927249032,15.197316569983503,19.49131729739189,3.7675906790846643,9.516664106920864,-0.0023763399546002724,-1.7521851210233423,-24.70465301146825,179.2143265050589
41,-9.061741693408571,-8.650802092392576,-4.751917060640203,-6.237213452176255,-0.5017927910430374,16.357181606439212,12.763422413654443,13.269654637227362,0.38232919774871543,0.020418475786239544,-2.9290146379444946,-5.068684352951999,-44.14873997090305,306.1090316442918
42,-11.188234206992698,-11.373091422240796,-6.108267570187145,-9.426055733369306,-1.8556728301086245,11.338930778988912,7.007704191117763,3.307707432040605,-3.3702454142116847,-10.389383758003511,-6.046168066201027,-7.926509845173066,-52.93248077480698,353.43833981401644
43,-11.65612361301876,-12.27038807236263,-6.6529572762022955,-11.134892901735082,-3.1917788497828212,4.14580735211253,-0.704118837764767,-7.9199373057300475,-6.59459929171846,-19.407130314985245,-8.95052223333305,-9.975044392434626,-49.01111507577122,309.8936877063998
44,-10.57540213398042,-11.330557726278291,-6.419548481774827,-11.168268711474711,-4.3854116358522,-3.328776313256954,-8.46756965098484,-17.543145161421315,-8.470559830065929,-24.853309149088982,-10.979879859173248,-10.818991844796564,-33.41146576607368,189.55407946216127
45,-8.16560447995921,-8.753006887469832,-5.476128634617898,-9.529767161541153,-5.193105556596134,-9.301705682288866,-14.342448925941952,-23.07610821708821,-8.47239991872951,-25.234363307866126,-11.383530698869928,-10.106355182002845,-10.017511958309631,27.125213766666747
46,-4.71463556255886,-4.908896060377579,-3.9060668350346557,-6.418343759662326,-5.315150612573024,-12.55367341879094,-16.864090157158696,-23.086838870472658,-6.519222461772097,-20.162846123191642,-9.592815622852623,-7.663273055533158,15.365670297985767,-132.78417446065262
47,-0.5787816037400592,-0.3104432472199191,-1.8139534931296106,-2.2245666168733065,-4.508342079454037,-12.686219834758322,-15.421464621822643,-17.570012512270665,-3.0122366067065003,-10.5156459053369,-5.493706566343098,-3.6241711494379274,36.46507557845006,-248.82661569161706
48,3.79629283512238,4.4204229570249955,0.6507382045961186,2.4848966974813935,-2.7047740134489944,-10.12482256933446,-10.401028619992113,-7.92632249990094,1.2548807905494956,1.7244833508347421,0.4079187797323325,1.5009049171909985,48.149446137655424,-294.38212958288074
49,7.866950623076836,8.600841063308458,3.267124456037324,7.0113607140030485,-0.08827142312347076,-5.890804369165309,-3.063404473685572,3.4343366161781637,5.290853376460578,13.913179948795271,7.007324278291143,6.863213073128931,47.76475331768436,-263.9447672129676
50,11.025061782236882,11.565312813954733,5.730298736758867,10.608170476085087,2.9053575816093447,-1.2334739913105406,4.804644549414199,13.744055153336863,8.15534518071165,23.36466303610502,12.825812904202454,11.423929674948576,35.81552827514995,-172.85417466572892
51,12.68476651175034,12.771422004073203,7.666000794327405,12.601761502244232,5.670990201116479,2.7504525624719314,11.360075891332945,20.595613668708932,9.194304123142098,27.989045313148644,16.386085880967332,14.18311194556975,15.782819623152212,-50.989965980234025
52,12.408663524496871,11.91385464141483,8.678493014670023,12.529315379207988,7.577557715094496,5.39052205164995,15.163738314797973,22.53274832447531,8.199055180105091,26.783300916098444,16.629421257887504,14.428155564036091,-6.882775025560941,67.12368649260496
53,10.03840389385609,9.015734814264901,8.427938103467072,10.259512381362473,8.129630499243063,6.5357756799512865,15.509164920237506,19.362093408783586,5.447831859471296,20.052967267683485,13.245876110751746,11.930971909173063,-26.305190529086207,152.46350925044672
54,5.7860073999031165,4.465467392936534,6.723674769242184,6.060158173381499,7.09977241467165,6.461697214474749,12.541844008562633,12.121657872674254,1.6215848002146576,9.314989532022633,6.810863360833115,7.035859830590723,-37.808059983371635,188.82162420686205
55,0.2494901750518921,-1.021224160896615,3.6115927769620906,0.5861345293170889,4.5950350218944225,5.650268647000613,7.15364073408686,2.737721981805727,-2.379363940559091,-3.0834438748638937,-1.3212655553114943,0.6106833690793739,-39.1380437055046,175.42733090355097
56,-5.663137759063513,-6.51437013897258,-0.5706047869744738,-5.219469235348552,1.0422796635602156,4.54251931517665,0.699772946735538,-6.516622003035829,-5.665093548353413,-14.52382009155917,-9.342391491501788,-6.127974107454274,-30.931568461275127,124.69912809549908
57,-10.891226964875496,-11.036931896007298,-5.1950305676155155,-10.295263036207265,-2.899574708973136,3.3641619638168283,-5.369867063686082,-13.603914698680722,-7.569346252110315,-22.707630792444256,-15.444279583454453,-11.871644756786184,-16.313411064471648,56.497150608628864
58,-14.426904367804378,-13.749948567092193,-9.41813973099802,-13.66755869871879,-6.474674051416494,2.088018819193389,-9.858854696951209,-17.190801332553814,-7.7914370070710115,-26.136800610598193,-18.272883231915518,-15.495639177204092,0.20749291682017645,-8.838670332260207
59,-15.52243957451912,-14.115268544172126,-12.328069336666202,-14.647771056267336,-8.979632491648692,0.5368116036416991,-12.063072442622786,-16.892050233618992,-6.435108564388357,-24.379301470579147,-17.257420140268678,-16.28957935220236,14.162974060757596,-56.32452364329802
60,-13.853558669444787,-12.002412884271365,-13.143742144339408,-12.978376462185386,-9.896797618244452,-1.4298064793326337,-11.85275366688952,-13.250231526815565,-3.943168544625956,-18.078523379883418,-12.727774059309713,-14.094382371952376,22.405700109295406,-79.41953617223403
61,-9.603922958263295,-7.720531458870604,-11.42400499251631,-8.896523124727622,-8.989908912122802,-3.735777763749266,-9.600662561082334,-7.485919664403594,-0.9552549358661845,-8.731024002406741,-5.797012927695569,-9.32263563199379,23.8535378348863,-79.88953130895965
62,-3.453503138104474,-1.9726708568918525,-7.231623352500927,-3.102246426123282,-6.3508770572361275,-6.005908685857508,-6.002560014411167,-1.1109427481553473,1.8656570668089147,1.691377016458538,1.9473935038081633,-2.8663394279281946,19.50938382905334,-65.10971253965386
63,3.527924277579436,4.257199729759394,-1.1973648666392593,3.3628546810199054,-2.3941447672682417,-7.6290154079177945,-1.8594846760693218,4.476741176996888,3.9889074369526507,11.174170064238012,8.849801765188099,4.08213920638329,11.822221367201683,-44.206341584275286
64,10.065032440641325,9.86582445359246,5.5527440900475895,9.304509651008436,2.2004455985792695,-7.954509600759449,2.110104873319229,8.307618155318735,5.115827218809897,18.049985334931492,13.57622116335185,10.257036416239679,3.6715825485092846,-24.580599913742464
65,14.909595771864765,13.818236832655769,11.610363380538157,13.598884152657412,6.59218317625113,-6.551623404402888,5.38298414093336,9.994476264739067,5.205942387198415,21.27409415533658,15.387846902011255,14.551289309037754,-2.63806038785839,-9.942481964897953
66,17.083182814684395,15.335709725963383,15.599997773445885,15.410322738576337,9.922425501801982,-3.429057211009281,7.656899707359303,9.708857391785306,4.435177152542396,20.550543381349698,14.239498469646136,16.214077075455023,-6.0253843281845185,-0.2369152157400639
67,16.08578997393358,14.055232858171834,16.521717226140076,14.36309705603969,11.478636170957815,0.8784033654483961,8.809446105573144,8.014612118283372,3.1095398895777455,16.30926955902177,10.698007242251608,14.981758011751474,-6.735835906027881,6.9171780144899335
68,12.025702748427689,10.129074689134965,14.028203303391722,10.631232355546432,10.851875667647121,5.403480155723564,8.82938206554028,5.627802845812443,1.5660355420232057,9.560599370762656,5.72526065659141,11.120756633157287,-5.931145306926509,14.154222053306679
69,5.633721158841289,4.2349386716950015,8.551590711088844,4.92198931585302,8.05217787094204,9.00116061515419,7.761240623757152,3.1829206575985127,0.09004853993523396,1.6676662913697085,0.40192726191342215,5.37412649014158,-4.985703099971205,22.628836073593323
70,-1.856210965946134,-2.5218871537305843,1.2323152269795172,-1.6527245880782744,3.5463772120598693,10.684849887900741,5.689484231860834,1.072354650164583,-1.132228408191346,-5.91843951458065,-4.326480663550286,-1.1809144298595764,-4.8044862093674485,31.305849660779945
71,-8.948848550778644,-8.811462615395962,-6.342257747302131,-7.798645741699008,-1.8050149263944577,9.932105745466991,2.764759040438376,-0.6039804242512089,-2.0217979256049814,-11.917389374265412,-7.818417966514135,-7.340433738287684,-5.443072313942592,37.44578217940324
72,-14.207440658578493,-13.355506804107428,-12.524200660213774,-12.312126538020957,-6.91186965534243,6.856681707839639,-0.7482625927720618,-1.978713423057897,-2.583203244657535,-15.432763871472561,-9.791939960325376,-12.007243641424107,-6.167287653239799,37.94757022748901
73,-16.579286886019226,-15.217906117372152,-16.01097371093716,-14.342781771543665,-10.690353456997604,2.188978218345917,-4.435507877390541,-3.27958232191001,-2.864449126875232,-16.0862551014641,-10.277037005039805,-14.402579980373611,-5.8987445572437265,30.894938750136305
74,-15.643810253855309,-14.035067366812232,-16.15707499639708,-13.580783139885053,-12.316301683685827,-2.9281517701479154,-7.743576043140588,-4.668202000802469,-2.916895942188816,-14.049640933826772,-9.503426172659406,-14.209605743575578,-3.830699029836765,16.629671029452222
75,-11.71266685104649,-10.11777989302498,-13.104892181059128,-10.317950282912077,-11.429764625626664,-7.260770477145646,-10.052781233018568,-6.113188100971388,-2.7677362884340835,-9.96749065384599,-7.774561811218053,-11.615768460544405,0.06947513289746605,-2.0803966393521476
76,-5.747663830923084,-4.38570380570435,-7.703245155580361,-5.362721039149224,-8.231989727004969,-9.819709306289507,-10.80628984344775,-7.343571699534369,-2.411398757363705,-4.78561809325138,-5.372472683903634,-7.24459001902169,4.903654244375887,-20.82128968058286
77,0.8870537613825884,1.8580826937046566,-1.2466502288797299,0.17095102017557043,-3.4428112478128345,-10.109011955936205,-9.663902271241676,-7.903187998130875,-1.819939816890325,0.47613094618743307,-2.518517642414636,-1.9954133406862082,9.1163636451668,-34.932585749210354
78,6.772453544628296,7.255919781414003,4.879105519971832,5.143819261091447,1.874786444136874,-8.219204498061444,-6.633406196414742,-7.295026159250529,-0.9676751128994718,4.9506558461183605,0.6093759729333691,3.166090378516972,11.098066503773214,-40.98554664575691
79,10.78386078592545,10.736206911717233,9.53626448972606,8.662362992476822,6.577140907795078,-4.751144541727458,-2.1320846013189168,-5.174652746520446,0.13771365134756508,8.090350880290755,3.823413128715777,7.411078053072457,9.873070973289146,-37.80731168209005
80,12.342313223062876,11.766900946672665,12.063569157565995,10.264715638439103,9.71717976155418,-0.6096352058921121,3.052851907344835,-1.532051735905412,1.4269303023796942,9.729283944583338,6.868467823734063,10.192367198778003,5.5807151769882095,-26.724163912445242
81,11.49874398827641,10.447930511371544,12.34186990851863,9.972495512661533,10.759659826777865,3.2584311116164333,7.907862487103229,3.2020693685472947,2.7533786375850924,10.027878061754874,9.392261781283189,11.298703342910795,-0.4678381504048115,-11.002170950672499
82,8.8353433540873,7.419243768024526,10.702625121082267,8.20288555798475,9.67703252851401,6.098973601926596,11.412037291083443,8.173634194288285,3.898560305186139,9.326223245281954,10.964868821747757,10.816263957659654,-6.208692874290187,5.254638219480028
83,5.227427673204235,3.62089929361002,7.735860053869667,5.580679106553386,6.906044539170817,7.49599296708677,12.777881900326232,12.261715078700794,4.603531031350653,7.96477453406668,11.15278474833805,9.02541929191193,-9.578171776386558,18.330720414326795
84,1.552827251146271,-0.010582118753773712,4.080106212463695,2.72133684263637,3.188087827090105,7.401790432337437,11.650319278368283,14.347812594220168,4.624992460455081,6.1439202043674666,9.634456209910041,6.280157934098431,-9.314467351682257,25.841620103657462
85,-1.5515157871427692,-2.8068889492258107,0.2700215899417168,0.06178819982170913,-0.6498494399006595,6.066668828447712,8.208569926119772,13.631930509748855,3.80611035793853,3.8796050747285515,6.32821744435995,2.9185558423072377,-5.489458950199721,27.136410368933866
86,-3.8089404014360175,-4.508753660478788,-3.3173180165993843,-2.2065863789359,-3.903238006986841,3.911368185027941,3.1401495983026986,9.905191955905574,2.143982114626278,1.0741055507449697,1.4939413819761287,-0.765536337204493,0.45455430192294805,23.12450022375582
87,-5.271470282559011,-5.245911557281273,-6.423624727435978,-4.090409154741708,-6.127292756041507,1.3947016807920039,-2.509798476141107,3.689915722406033,-0.1687266905491495,-2.3273924738356295,-4.230447115866788,-4.4898849645775,6.2017562401778745,15.691024567007807
88,-6.168187448650556,-5.379250356850256,-8.824244553316369,-5.665668718045301,-7.173651775841193,-1.0818200758119818,-7.576981208418369,-3.811986130405176,-2.7480407977716217,-6.1636383664924095,-9.88538342582679,-7.921096423639908,9.422995829611352,6.9738360379920925
89,-6.708667033794282,-5.278194449942745,-10.259606606698526,-6.933411881474829,-7.1342225780094,-3.2144031277808196,-11.043746861876079,-10.968715695750998,-5.078588809153176,-9.951156080833439,-14.345256951043654,-10.629862048441673,8.679609994948049,-1.2328558618475733
90,-6.930220135425851,-5.1275582738239684,-10.433839991498472,-7.730564816205557,-6.231203590102863,-4.790630147290714,-12.264785259894198,-16.112056880291007,-6.622672532941389,-12.909633236339484,-16.551531930319527,-12.108446284283264,4.0220219347901764,-7.786026887202976
91,-6.655949826141729,-4.84275301774206,-9.095581999160407,-7.743015517529392,-4.706020746716422,-5.662574177794808,-11.0970222184193,-17.9708656582418,-6.954592435326057,-14.136120250086242,-15.774672683905212,-11.869319634589454,-2.960078325819849,-12.193480190264825
92,-5.582311985247439,-4.126510578492982,-6.1728893878102715,-6.62430168581379,-2.75208269181578,-5.728968999666867,-7.9047671691189265,-16.02055400363187,-5.884048842036201,-12.886395338695989,-11.838593465314618,-9.606280656547003,-9.676061422555852,-14.407972674684572
93,-3.459178684530156,-2.641970733306626,-1.9021213885243098,-4.176458714320192,-0.5112327969702588,-4.944777605977764,-3.4451821500428967,-10.642658346901655,-3.53063712337207,-8.873538342827297,-5.240625512796607,-5.3646571507084975,-13.476878727440349,-14.57406402429371
94,-0.2844079122326376,-0.22864515631512608,3.11621658197036,-0.5185224339918969,1.8775174202792255,-3.3566663747501404,1.3294823932020505,-3.041738366345154,-0.3222457563910487,-2.475343248630749,2.8807968111954216,0.34962799582068677,-12.65759470690897,-12.864791670641143
95,3.575026905958302,2.931841517223439,7.979601760193093,3.834152972760132,4.212916096964232,-1.1440029486965946,5.496655834544297,5.060864979718234,3.0888722112370144,5.237447463522362,10.942314788237361,6.582225645395659,-7.1429430744589,-9.468426597956288
96,7.397967054091807,6.276528977608995,11.665576115848431,8.028159013736742,6.1938203438176265,1.3640568427553859,8.35616325284159,11.868964327927966,5.973933069919034,12.68629030678107,17.242985058041217,12.088144290326508,1.4118817056754693,-4.69410521719768
97,10.27156682748512,8.977723535562701,13.288626323731185,11.066934758680059,7.440880583454003,3.7194650044284217,9.546068640428755,15.961043548194645,7.700918271566455,18.148155346210803,20.350417813720373,15.6098496163967,10.160459650263634,0.8990756525316772
98,11.355459933701528,10.18523912399305,12.353939396278651,12.089277337012529,7.583027132445469,5.440051349858159,9.062934293229219,16.619727032284693,7.88649458761197,20.20072123280741,19.450896258524498,16.204524691120042,16.0618921080006,6.45632909081039
99,10.15991361350722,9.314425281176039,8.924740425019479,10.643189700373426,6.3840915088453825,6.13024626376187,7.196982961151467,13.954760037498092,6.485894602892069,18.12168780756703,14.571584497682053,13.524525065676839,16.978028411774613,10.929709133961097
100,6.740110533226712,6.278866293838336,3.6444202008244084,6.862020690375857,3.8634018019790113,5.600407268945002,4.415490251639992,8.8002213949707,3.798586717475354,12.12341081176356,6.611941124950262,7.961406406721123,12.468986008867901,13.320696251682342
101,1.7341306656474949,1.5817366211963382,-2.3998059964577028,1.4780575706536676,0.36019704086030946,3.941222766305275,1.2372750157685377,2.43619838945767,0.3918864779920128,3.3502930942109788,-2.83086832656397,0.6005085438347488,3.9879382765702447,12.98409170100464
102,-3.7760493900931578,-3.774161469602153,-7.9349105265640825,-4.3396635234652345,-3.4928136895174546,1.5206845011594774,-1.86472762079283,-3.766709020134167,-3.033355396637242,-6.365682903114103,-11.804817530744158,-7.011698265334534,-5.608158018519319,9.877021270746361
103,-8.541991779143894,-8.53719974518527,-11.807998286719522,-9.279617751192534,-6.891942482809087,-1.1036519528135704,-4.513734111823915,-8.669966367394684,-5.797959411406127,-14.928093457256875,-18.43322646714548,-13.229576403137177,-13.064947257148445,4.647724089462724
104,-11.480452449658335,-11.544488973861963,-13.254656991702856,-12.22788533348497,-9.053346915884473,-3.33408133959462,-6.435396639159667,-11.572419168673884,-7.382634402313911,-20.46740904119402,-21.329954390828682,-16.703414927941363,-15.89422168961298,-1.4869513771396512
105,-11.958397887423565,-12.043575267086219,-12.059832968905903,-12.553970373316567,-9.41967006188382,-4.6971659872952065,-7.4408039992992485,-12.264476206750347,-7.520930953642327,-21.775626575899533,-19.902509270273367,-16.702296095414635,-13.271023928919972,-7.050657017572306
106,-9.947522780766041,-9.901024876526618,-8.57696890891919,-10.26084669730067,-7.821732223322895,-4.969217633723666,-7.412811239360278,-10.951655493668287,-6.233824296970283,-18.579059860400527,-14.475331113779049,-13.2810020750556,-6.331961493542909,-10.71062375188768
107,-6.007839860126183,-5.637083463575207,-3.6132240064776004,-5.9613885436194884,-4.545505297525874,-4.221554886850043,-6.314713711758096,-8.105877917038836,-3.8077422516922983,-11.589506256409503,-6.209777490537767,-7.2517629428825625,2.2423688030171816,-11.64725299014573
108,-1.1139866108803294,-0.27999963861528837,1.776872637001651,-0.696534573718571,-0.28119909262162,-2.772534471723945,-4.2230608547509325,-4.312364937176664,-0.7282439573434368,-2.330469396902884,3.155537818863253,0.025136785640209335,9.215803936232646,-9.773122548126478
109,3.6158049580096114,4.912336209453882,6.5295671404358755,4.344479759680729,4.035003815639701,-1.0666187599374684,-1.3675978595668425,-0.1614932630704165,2.41402971935556,7.212643721345785,11.681856753502037,6.971654389748211,11.997675036114309,-5.734862370220626
110,7.2041306490756885,8.779233181833176,9.784136163688355,8.11840053523278,7.445607927633223,0.4738571279172375,1.8502163081832617,3.799894546207195,5.028773961981528,15.033255275933225,17.640567160005162,12.1560521391936,9.613946466437286,-0.7028900253654007
111,9.03247396987277,10.53958889078916,11.028601055750315,9.957386713310283,9.20366194075883,1.5707880397643863,4.886922090879112,7.0771942669646215,6.6285913823191285,19.535976419538688,19.869752918699852,14.601639684071953,3.0841983280297334,3.979044359902008
112,8.941409388432934,9.956498338196823,10.161593919456047,9.68123508819313,8.951318735625634,2.1454451348768973,7.146179656532464,9.234004520860026,6.916026141798032,19.86891461649037,18.005143607575963,13.972040496941718,-4.944717895501274,7.172453207595433
113,7.20203493066069,7.350101693402761,7.4739951680920695,7.5787951439385655,6.799857251451501,2.293527764933254,8.114308744265418,9.927237863684628,5.8425242541645135,16.089239951657646,12.541455176285673,10.600485203590999,-11.18320245673766,8.237018834666305
114,4.386133410293916,3.469878078528566,3.567101378269321,4.282036282729473,3.2927840244652695,2.1986319612596383,7.506080481853317,8.978887520035842,3.6269737623765343,9.131271357054052,4.714573056044946,5.370049329407544,-12.944031477159887,7.158235574755905
115,1.186887131686543,-0.7254811734612807,-0.7711980664119727,0.5807272302615706,-0.7356535318671025,2.025695376838235,5.3724191412665885,6.461526116869179,0.7243243930675675,0.5865994682591897,-3.769933998610807,-0.5152775894753914,-9.187295331206121,4.486548001983569
116,-1.7534130862598882,-4.31361947487705,-4.711356264824483,-2.7674970310178235,-4.367922589559551,1.8414053362242846,2.1268921620212042,2.7538591277035973,-2.257649393350286,-7.656028327209612,-11.106190274040317,-5.80907542296749,-0.9709467654744144,1.12337990767966
117,-3.965583840691629,-6.614668562816465,-7.52898654998839,-5.186427200403188,-6.822765734921655,1.5945455027529896,-1.5296458510100237,-1.4771243883897067,-4.683247450423771,-13.833385154572705,-15.778668322677326,-9.486738446349804,8.872980497409133,-1.9682148317433052
118,-5.206488341081103,-7.312684196886368,-8.734317963810717,-6.364369633428951,-7.6321686915133355,1.1619585088336981,-4.774145762565567,-5.387979793603822,-6.031535511309751,-16.699655963182025,-16.890328989604917,-10.941385648671934,16.73195474239168,-4.036054251602773
119,-5.448113502526621,-6.475563923992276,-8.16375121955038,-6.2673278451451875,-6.734099130142464,0.43675960509516887,-6.872594281896781,-8.148426542803701,-6.022829435240982,-15.79767222111575,-14.354006476527436,-10.076689104659618,19.521892416109566,-4.71722312959964
120,-4.825207248205135,-4.4847321288517445,-6.0135375226322285,-5.095758449299454,-4.462347327578905,-0.583235526215872,-7.375289451187805,-9.157401388602064,-4.693504566367907,-11.544116534520306,-8.899684279309998,-7.285772114820015,15.83501913332875,-4.081823594287298
121,-3.5691316190843043,-1.9059411296404343,-2.8017865537769646,-3.2072580482555426,-1.4413978931502482,-1.7495155543208005,-6.236017837548888,-8.216097129779156,-2.3935935451743187,-5.105756191969671,-1.8910587661229412,-3.3289782476351717,6.503039551200471,-2.5464450264362104
122,-1.9499023895895988,0.659198592444196,0.7414834567280283,-1.028071009538347,1.5823956369497743,-2.7843403481602107,-3.8175345181788933,-5.596379458091223,0.2983600767882929,1.9046701976803744,5.008781901543317,0.8572232639777932,-5.63785829370047,-0.7001712315654989
123,-0.2365175608103612,2.7045226012156953,3.837883368828014,1.0288245676595353,3.9277474246039397,-3.366205737482849,-0.7814885855869594,-1.9751209997338253,2.7241753647766656,7.836739617308397,10.242385152972519,4.375607628607305,-16.702643614481012,0.8931198888144903
124,1.3261871947856176,3.9081849789614624,5.841445232730862,2.6283944794798026,5.135864319959911,-3.2482550012787113,2.102435453713672,1.7501238865873907,4.318637918849918,11.409087380880507,12.731473843174944,6.560026312761873,-23.092037717180713,1.853490262089022
125,2.5327627454623336,4.168251641481258,6.390385467001185,3.5563405493325186,5.060964520150007,-2.363247760296983,4.168564788061896,4.707940958290149,4.756231441490429,12.00756511839942,12.121685536082007,7.102511669763833,-22.726063304797954,2.062349623070793
126,3.23287536935873,3.587552908204413,5.487178563000307,3.738917190173633,3.8758281072074725,-0.8719017116966968,5.024237697782443,6.2850252955883805,4.0285331012485885,9.797067408811225,8.834110603302037,6.090065755853243,-15.736528073116146,1.6472179605692492
127,3.350204803669014,2.4199813127605623,3.4824347386940664,3.2402310060148283,1.9973429744832398,0.8680161257799301,4.628121867359871,6.272111961469102,2.429593360681081,5.621978815974502,3.9123158039528785,3.9472120274688356,-4.381221995135829,0.8932478680158982
