,AF3,F7,F3,FC5,T7,P7,O1,O2,P8,T8,FC6,F4,F8,AF4
0,-0.019238765563831264,-0.02183197018341033,-0.008042536889746196,-0.02542770241562197,0.002828786641745764,-0.0362389767792763,-0.01719755559323486,-0.010386975316731245,-0.2054762552624248,-0.13792387404078754,-0.06687145391527344,-0.02427911676198833,-0.06634525468725405,-0.02319590879104115
1,11.180505422336601,9.015827841288537,10.966716906681302,9.821028335209718,7.801492994454675,5.7432263966816866,4.072305501476508,7.85387563841582,3.126258967403712,5.005435217757143,6.702871459848025,12.328997395776598,11.988100678602958,8.137634359903542
2,13.25313899656909,10.27171255377482,16.02372625489077,11.790300099840714,9.298947201311805,6.2924503047979,7.139263275772976,6.175003420294717,5.647643158630216,9.551255855403255,11.50501364198976,14.8134195256511,14.949454854078231,13.34728677626624
3,5.370727812187597,3.594237441292868,10.693564732582027,4.452031001606627,2.8200818911263417,0.5612396107059481,6.376181874183871,-1.609191229864821,5.276145328347085,9.393247533213394,9.74369448944436,5.948283502415378,6.71680631445972,10.351676887741474
4,-4.741254535672344,-3.991946244340999,-2.57666964045013,-5.44333315826752,-6.1349741960652775,-6.036850846592566,0.601297392706474,-6.5664948108961125,0.9201790072915392,1.6883276139156205,-0.19137139754807522,-6.3795020877018285,-5.706340629443623,-1.5972053673943156
5,-8.631719319905422,-6.05937972471321,-13.104309597663098,-8.975860864695576,-8.827537569069273,-6.020809736568225,-5.8699496551004335,-7.23117000977454,-4.842165969029522,-8.608045713753384,-11.027474991434536,-12.104249262270192,-12.008372044122897,-12.95391334287962
6,-5.021473907865022,-2.9994581395813205,-11.837905581077917,-4.258951452962645,-2.541855300349004,1.1634759598653641,-6.828248736454051,-6.299234416714197,-7.306615344248499,-12.200429812747611,-12.495759014401397,-7.758044862544897,-8.114675274772532,-12.53613009310257
7,0.36295964192542685,0.08200489534234603,-1.866063696701032,1.9463351658038022,5.501867337235883,7.216280394839698,-2.0069346791517195,-1.255021796834424,-4.034175199360139,-6.036573817468827,-3.460882189292041,1.3176580435499765,0.5495535352087778,-1.4490538625987628
8,2.2154261419291155,0.3265533176980726,5.66349621327073,3.144577070621269,6.36346247774786,4.89374738131621,2.513743608912434,10.257360081308157,3.015344750197413,3.74031844829407,6.647375549043741,7.15980722820288,6.005159155244358,8.23866897524541
9,0.9853358586134975,-0.2728431295535329,5.274095789212804,0.7362577832778728,0.1404554789528188,-2.7829559467246328,2.6201796259765917,19.288881845003655,8.83928796971012,9.616108729998905,9.194775380868297,6.492819140178409,5.792287893539492,8.486621706770952
10,0.032267260210208176,0.7200893495944498,1.3951764169713794,-0.11487707050765106,-5.0338395780786955,-6.9118669411972755,0.6305791569467413,12.445122173599984,8.118828635301124,8.784545857004908,4.529619260194638,1.483734884378259,2.441035160188838,2.2693289052413355
11,0.2062240273498407,2.106658512752379,-0.613349583749695,1.0641054356422062,-3.8261272969513427,-4.167185633533131,-0.08101618186763215,-8.662240624968804,-0.9127770968810495,1.8445885007810638,-1.8671419255565809,-4.028608896006011,-1.729142566596361,-3.9178960303835204
12,0.14962647702930923,1.419555119144024,-0.8770224599776261,0.8171491532141746,0.8330133675352321,0.7822640063722135,-0.13064311748398133,-24.907673335828154,-12.522868228676955,-7.873998075754643,-6.010167507814148,-6.487810243706641,-5.164055102154984,-6.693765890124547
13,0.031719785602528534,-0.6797308685739158,-0.9623920993215755,-1.0043751251933926,3.4126015832814027,3.2486779383366757,-0.9986046380000834,-20.642758995122893,-15.622532401714698,-12.814205526729582,-6.160226984514828,-3.5249130903367245,-4.95857720485548,-4.491572372868664
14,1.1534306557037275,-1.241566121849651,0.12046632368420415,-0.9266811041488869,2.5246253190595476,3.5515432924589945,-1.1262391499504583,-0.5876771854536186,-4.410632816912416,-6.370860122957315,-1.845967285277257,3.1162574584306486,0.36276329695669884,2.3627760395943866
15,2.6969801864759106,0.5842762280432037,2.637847229065734,1.3684759482186024,0.4401113152479619,3.3772340396307277,1.1954586817142576,17.659846770127174,13.338568634310098,7.653240657822293,4.638138218494643,7.402496153299222,6.678931943701767,8.615720173352583
16,2.2710923746246614,2.4046087730035572,3.4866561220130934,1.8299780390890548,-0.824211126803046,2.067666217104358,3.849508186738235,21.9341217640789,22.32352493814107,16.34382931700508,8.466580479043495,5.409961877407863,7.573039514728578,7.677520534992234
17,-0.6941496929236708,1.5303854484861021,0.29336048129637765,-1.1591418132495708,-1.0199967992499284,-1.1314684489613616,3.194248730096107,12.441575948651781,14.510909175013852,11.175241353890275,6.294045414333963,-0.10687715469206832,1.7923179314356485,-0.14155067898934032
18,-4.267713650077725,-2.1593058243151186,-4.575860363452928,-3.6655659913263765,-1.0609716584253095,-4.305600250941723,-1.049894161241858,-3.3819382602164545,-4.002318045693314,-3.2981884136612596,-0.9209382438239355,-4.445470147946546,-5.67549777583507,-7.663188641007002
19,-5.820137832699632,-5.608384915862131,-6.592845638899501,-2.0391988938613377,-1.7803415776921194,-4.866908697342829,-5.37240032063431,-16.245503409899193,-19.680718809217442,-15.060918982508309,-8.707871843359838,-6.645786524474689,-9.12199599988247,-9.196395367357221
20,-3.4854917585184007,-4.718393041354017,-3.931521513794697,1.6908843679090828,-2.275998407512404,-2.734042333281219,-6.090235311890719,-18.273357088723074,-22.52736905247675,-15.56974563174843,-11.309636780557717,-6.7855852633534255,-6.30292471740754,-4.841066147970704
21,2.0747468246155347,1.1157021666546312,1.5381676680926875,2.910677957368995,-0.3756792417461862,0.21048078966641676,-2.4274592008248175,-8.106946491593224,-11.842766414124332,-5.331168896631277,-5.446280537404456,-2.4239060576574682,0.9916845262015204,2.137997939739294
22,6.63825093042942,6.840768756619134,6.336327969645151,0.8698092293067349,3.5702407256400575,2.6925549003759017,2.980675720876018,6.306132773536207,4.986435856622343,7.542536916515117,5.166446730556645,6.3047401693302705,7.698095958852838,7.550312377681836
23,5.980199313360395,6.749401967125152,7.363780430892445,-0.8465114612175392,5.255715813821502,4.411891509793156,6.065711756065424,13.96493810118427,18.011089188552166,13.784463821812011,11.433664754422049,11.857668139248144,8.505620589515857,7.350916747129402
24,1.1538534728343885,1.3674324843004597,3.5793621292594637,0.09902831822680931,1.7033934448164298,4.549365810420233,4.789459198970026,10.93818663268469,20.61341431676808,10.434482873959622,8.415953194273543,7.033994887046138,3.0017101538413304,1.5798480470294218
25,-2.7376533025586065,-3.625397540511118,-2.599394340136747,1.5108397751262097,-3.6726538025007844,2.0768642595963906,1.054914109758919,2.4986450704465626,12.335945934918419,2.3676946084869033,0.8799799800179235,-3.9033573875456673,-3.179130865181633,-3.5526916872281413
26,-3.2074366529699225,-4.693801334305796,-6.357641078986417,0.3492159453186866,-4.842111149974937,-1.973621419809191,-1.5339671479110077,-4.017502682903946,-1.7457647228699056,-3.8976276260018032,-3.728768374190935,-9.163581192004015,-4.492274387663596,-2.461082520734143
27,-2.3180632271135004,-3.103443531557591,-4.771209941656258,-2.3016803459621022,-1.0672523473705533,-4.556050680892758,-1.8019205425593516,-5.8049426837484175,-13.717576676487042,-6.3040603515808975,-4.4451744118210605,-4.778305859055571,-1.8661266441575148,1.5172261377564165
28,-1.9416127942698496,-0.9986040720256858,-0.24057166994841733,-2.773600436252447,2.4706623963346575,-4.146107196614112,-1.882253108206682,-4.583847533546072,-17.270522730515694,-6.676095072857722,-4.904815478135954,0.9385422647231748,-0.8082548397531761,0.2524303978290966
29,-1.2352256289495456,1.0044693263586735,1.9906344861761305,-0.5145595889944876,1.8151778924139803,-2.41571801941672,-3.6012854490580706,-3.04677089479501,-12.063030689969365,-6.469285613798096,-5.618912469427462,0.3692055110327229,-3.3700820069427477,-6.37668794163791
30,0.5176142613792258,2.3075347440449074,0.445720679318904,1.3373067285218208,-1.0842601556440918,-0.8995651345085045,-4.998967347947167,-2.080636456898657,-3.1150777063961743,-4.641446803998567,-3.348925216867673,-2.562754125200295,-4.551075391068109,-8.51387684605585
31,2.3124987531056536,2.16884429039595,-0.6047024526752532,1.317203420450237,-1.706992561512884,1.5877441276147557,-2.079267230917957,-0.2520924097200287,5.0926671829608,0.8639089461010862,2.882722986231399,0.41563977060359186,1.0700070556935943,-0.14191331262264686
32,3.316844876833989,1.3436772973631779,2.2426105615516074,1.423756602052834,0.9833736851484178,5.527340679083853,5.245903186465914,3.7442973245041102,11.748436366116518,9.290761946868342,9.060442353362546,7.963719923375087,10.026754425767498,11.04717462147249
33,3.1729444092070764,0.9552578568667993,5.31784292093792,2.228321945595612,3.3619674664247388,7.093988082233686,10.527602118645744,7.515937641292984,15.62272536787957,14.529318694052787,9.722467545936007,9.490367266991983,11.504730856993762,12.705690712261408
34,0.6902033664316931,0.06079940827396505,2.497372621446704,0.8120851788181885,1.8051693364396804,2.367148696935409,6.907808062446636,5.949414952734351,12.12743055130124,9.354432490546106,3.040548047829264,-0.046044107043702126,0.8307919997953779,3.029237513260512
35,-3.974187669847624,-2.5215790768652697,-4.8313543595205015,-3.448781396295448,-2.4989782440504396,-5.616611224646766,-3.7836530029583115,-1.9077406555142393,-0.6152741430507034,-5.099245325874713,-6.754460595254435,-11.584911864043393,-12.143317153732976,-8.288651555882636
36,-6.427325535259997,-4.464726361094646,-7.887966813898111,-5.319045681323987,-4.475336363026789,-8.802251418389785,-11.234677856275946,-8.968333592834766,-14.860303084665869,-16.818184307058797,-11.693253446062613,-12.056539354723615,-13.423745071353727,-11.835288204256535
37,-2.2997811158664994,-1.982670276214995,-2.1801282294094535,-0.7021593923401239,-1.3592044358053528,-4.111455750750531,-8.006939493517557,-7.15870133128385,-18.53074606472801,-14.307963087373622,-6.932668025880394,-0.43860426864613744,-2.08486148497489,-6.407677955005004
38,5.2183737023503305,3.7588913022272985,5.811151664238002,5.6394272334050495,3.21379840181567,2.638214595496636,1.7285088469051353,1.9809333099325277,-8.570502647666663,0.1600165273862069,3.594861944137411,10.779774609797236,9.059063278573257,2.7821419151651803
39,7.417840225896867,6.267303723410463,6.925255921565052,5.345692889638412,3.446315952899925,4.799534979869147,7.5740415086368555,8.072905806826585,5.175606109666029,12.400477260458157,10.077344475679443,10.295729010659896,9.882655086832589,8.843668685952354
40,1.350360447807867,1.8608559999468512,0.8248199644065235,-1.434765655093879,-0.578316402811816,3.0482768344439974,5.19136240359409,4.547408566556805,11.139428698003641,11.579619226549449,6.696937640508257,0.3193202020319046,3.1999652873909903,7.290896910234765
41,-5.766425533402356,-4.7560737366769885,-4.863052110607702,-5.678796452294707,-2.712169364209216,2.067205584361812,-0.3227758256468457,-3.425538931348889,7.798312611903946,0.8818245424879667,-2.3208673453610844,-7.644466619126782,-2.8699674659254106,-0.08871320579574785
42,-6.096587402322474,-6.041519985851147,-4.899412069042235,-2.3857849411257215,-0.023108094159181115,2.176942429971072,-2.6097087711918414,-6.273978391000932,2.119081547426874,-7.576313231562254,-7.609062807254728,-6.587389717519329,-5.411784243095632,-5.974832669488575
43,-0.9115355245961112,-1.0904817551975956,-1.413121514529066,2.673295439461349,2.4105250925886152,-0.4342870914898538,-1.4659519447552818,-2.0342984543161315,-0.5881188239682802,-6.308538610518467,-4.855572757945836,-0.32942082892362884,-5.6027932417033295,-5.321524285747425
44,2.9691317947743805,3.8738761889010505,1.3358713834592173,2.451593755500438,-0.15688171432759723,-5.765074261580589,-0.6019574154054982,2.993723369170464,-1.1404887260054786,0.7897964775592016,1.531650820577749,3.3193000880778616,-3.080313883219028,-0.7420677197745104
45,3.1229629228848608,4.0640674550063345,2.7384828275026782,-0.9846901498018886,-3.657079414827216,-7.822210705977225,-1.1010225427461326,3.749758097516816,-1.826047750980341,5.001383045688675,4.907478566877189,2.3108895602261788,2.703195013059028,2.705566844910631
46,2.733483562667684,1.3356422592210269,4.082063058255451,-1.1262045881793192,-1.4774427336035387,-2.519476516235193,-0.5683665942485312,1.6457820573321125,-2.1402834645058215,3.5449621706341743,3.9282482800460943,1.0187652969863679,8.111974860311973,4.1912952863527675
47,3.1346138076327548,-0.3598498100781192,3.994381786738671,1.9641532390045222,4.002822600903363,5.814245818104533,1.7302921019618875,0.020482310567569384,-1.197152537762797,0.5811638787869745,1.61081496574083,2.3098090410993124,7.452591183526045,4.227856175928122
48,1.0650627783520483,-0.9582713497616184,-0.11028509703358877,2.2876701253175433,4.240676528261498,8.926350028502553,2.6159440679496986,-0.983093238922817,-0.960054662723092,-1.2924730646081273,-0.7050596232913735,2.7078258565359112,-0.20001686022909132,0.44291986215677615
49,-4.784245951413607,-2.530378358996524,-6.237769650432299,-1.7570369732943167,-1.864151625630856,4.260379292197192,-0.12564982244672554,-2.561925938051316,-3.2055675130414714,-4.233333359640504,-4.021298227800305,-1.9400800668546665,-8.689999757133192,-6.853197737285424
50,-8.993216078222224,-3.930393895075407,-7.831144358437786,-4.484564872581757,-5.565615404967065,-2.601889242665953,-3.239739818179925,-3.321085786584117,-4.732805301628579,-7.683831787908368,-6.700236364810883,-8.218062393133923,-10.279706147070161,-9.696206655908613
51,-5.267756143361875,-1.707247060470805,-1.8871257739645106,-1.6031983507878993,-1.3985134967417836,-5.07467160594155,-1.9320607941843184,-0.8532718286481186,-0.4534676467929166,-5.087156927631215,-4.245843731564956,-7.569015315045046,-3.2141465094475414,-1.7962959303928192
52,4.438151060974454,3.5509796444484585,5.861392406973676,3.4188102705006687,4.610070506499199,-2.848895045966896,2.6928364376984653,3.4903008713793557,7.974382673091956,5.694014381225848,3.5100741109772735,1.9819620768999795,6.460032194135069,10.003448555420942
53,10.625327433295817,5.982016687587764,7.212532953445285,4.3475957835807915,4.022811582059113,-0.6671423802571053,4.2591326192269605,4.838196737780936,11.545706669569949,14.382220630302198,9.273719602614984,11.078682599390383,10.570414342898626,12.231584303356959
54,6.983623045720003,1.9333488058087351,1.5644674316230749,0.43500827631983696,-1.9666848582499095,-1.1561980922369361,-0.027958421757986913,0.9832683016913863,4.97484092456737,9.602026741510267,6.5092235620803445,9.54498455688157,6.082772845088068,1.9805135284193078
55,-2.1107309023486733,-3.9669617925479796,-3.7299214752234993,-3.2864468857018245,-5.009502507516685,-1.5339828499878294,-4.8899397256178325,-3.8820437977847,-5.439243818542379,-4.4512490981261905,-1.5211586834119044,-0.8220138459677954,-2.6901829762916862,-9.351103493226917
56,-6.94661894004982,-4.121048413422526,-2.994511498046518,-2.7360121160627893,-1.4688611928068154,1.5680654599782553,-3.7697856372749405,-3.8848295229429706,-9.38281287011076,-12.148668293518671,-5.698745075107102,-8.396214562534478,-8.01020233292206,-10.06724120752591
57,-4.170627253597376,1.2623907780639183,1.0476677479993695,0.6572812566422481,3.5392189465311654,6.015207905499926,2.166272904698369,0.7192714780474512,-5.513699259809394,-7.175228926143836,-3.3020933833816803,-6.306684181486511,-5.577775198586436,-1.198547086660631
58,0.12870415371845811,3.6687554147605255,1.8021821621885845,2.4148046779073753,3.7735782120501953,5.826390428892516,5.233913116104983,3.3237871670658867,-1.5384758978503383,0.4609615760872565,-0.7711056258905808,-0.1117569560068755,0.9041062197652684,6.097482013189178
59,-0.041497647966078854,-1.2992216022628924,-1.9203284537912886,0.6765745017722588,-0.4311771478846554,-0.6994101332576468,1.345040952899486,-0.03002720478356316,-1.9526376432724986,0.8812281998342345,-2.6777409383673016,1.3603140657633315,3.4206093801610673,4.221301985400272
60,-1.8992887098130171,-6.1560373029703825,-4.17354892606648,-1.787528720854871,-3.5186599324931067,-7.38376415824724,-4.31016042353655,-4.173762620129162,-1.7564447635677405,-1.5349990381059504,-3.901172486373734,-1.3300114716317921,-0.043208786434640184,-2.1329829982451383
61,0.939564277056342,-1.827805182723128,-0.18193198348976913,-1.462768814408522,-1.9561609494815966,-7.054075045083911,-3.9071504234554824,-1.377123464509574,4.797736719907788,2.668983647732788,2.0097314596119333,-0.27578859719373466,-2.1497279173512047,-2.8186096972564236
62,6.849652403931395,7.608443232952785,6.081345798161876,1.1463790483421255,1.7516178867602636,-0.35692817925309156,2.3527003499159935,6.526314343669128,13.211094205020808,10.884103350861217,10.478360156261747,6.095995071172187,2.5249410949170237,3.3987411555626523
63,6.713301241215852,8.884005028334364,5.959287587365071,2.2967761242988334,2.685650779966426,5.403289254941758,6.007433821564406,8.496472770773165,12.065889434919509,10.387768126789636,9.750685419685944,8.631715119436421,7.310323344320395,6.6010081041376045
64,-2.280715904382558,-1.39109197239109,-2.108197235359025,0.3818359402917507,-0.03525702547703993,5.427689598858787,1.706956107653912,-0.8511532383540759,-1.8096247631149722,-2.709192078669964,-2.3373016152481854,0.651019185361796,2.6604133465165867,0.0859682360473956
65,-10.150777988820645,-10.58766942734627,-8.909512303115571,-1.8206986936312473,-2.3663029655698407,1.7622019539345184,-5.090911100155171,-12.16827769847238,-16.227998883862124,-15.335407647533085,-12.941755381486022,-10.049463100247225,-7.441250320902054,-8.878953496168753
66,-6.727268111884131,-7.2065023775863715,-5.667917249857408,-1.3687760408235323,-1.1586283674554783,-1.585516206410667,-5.467345573318832,-12.101279599815262,-16.341665367764907,-13.100967895182702,-9.92918539973405,-10.074669958265968,-9.353541718925003,-8.438947233034824
67,3.8341776064288977,3.4565263973772278,4.032884099268079,0.6174646387037829,1.5216762582985373,-3.4954591546369236,0.5479061460217532,0.21387930189603402,-2.4562848931227226,1.1922770662755184,2.3223947837525434,0.7361471929943489,-0.19800056374905675,1.3983957902394615
68,8.445629526414473,7.883296898663232,8.65113441024321,1.079653364639359,1.6873581262494974,-3.9807508259677786,4.539893654082615,12.654537988364773,10.684041669190865,11.544692977017219,9.339636854170907,8.548373745531599,7.4833914656305405,8.98215395256565
69,2.959108535423141,3.1336358674593816,3.8345781573888167,-0.25938475990685383,-0.6977849155099866,-1.7767027527764725,2.1217805444895927,14.159789944570953,11.939164107130502,9.036311884903837,5.552902759757084,4.905965070328711,4.669352168778694,6.728488526277739
70,-3.642259097730014,-2.0050861925304577,-3.0391247685835,-1.0197908130678777,-1.9155268285899838,2.825322827358433,-1.6942542339533797,4.555273085404503,4.366606549638245,0.35284665776427465,-1.1283829035135522,-2.568719850125662,-1.9374011501182455,-0.6010699132230876
71,-3.4806462278698445,-2.0037472837258186,-4.323506919737551,-0.18576433574557238,-0.1384038226402024,5.53947124538086,-1.3174914294092,-7.9350322975806264,-2.9497447113697257,-4.2938299549589045,-2.944434857933667,-3.214011941625471,-2.525190615038679,-4.631238544566237
72,0.2708151435153685,-0.6611693960548544,-1.6249367110040145,0.8009256008865517,2.00999927121497,2.672814958146379,1.2976900820264974,-14.115832650054852,-5.921252785253996,-3.6143834456309745,-1.6799402802062262,1.4231366392434537,0.8906581982881239,-3.8676014303830315
73,1.0719731365731435,-1.567105418890192,-0.5978056277574563,0.8303446142182662,1.467313198282675,-3.059956388720616,1.1631343684511644,-9.657092815901455,-5.138915937386822,-2.120344698648822,-1.8975054358293888,2.5078414217658094,0.5416015311813773,-1.9717200119098315
74,-0.6020992736686861,-1.8789844634729231,-1.5270551834027921,0.4573516554811643,-0.9425950731892497,-5.104465546054081,-1.5000334166477005,1.804817593119041,-1.2309221806857964,-1.087895483513992,-2.2474409462421887,-1.598955152384489,-2.9523086468938406,-0.38137220836218355
75,-0.27689721592126976,0.9573876356356904,-0.3918939106660453,0.1883992312326253,-2.0199260861991224,-1.227990283724166,-2.279004326330576,10.801429249675493,4.2687657709718865,1.4126458391570005,0.9980479428303571,-4.0314953045864925,-2.369777564165888,2.111204705375827
76,1.742939204310206,3.4435493114681384,3.1995562490263616,-0.35898878433060843,-0.7604763515951743,3.862738332083582,0.27532908910760384,10.20933713062422,6.926664316844076,4.31024822131991,5.611543330917575,-0.7812096130107276,2.941018097539345,4.331058880277123
77,1.192185966691569,1.6282534157636368,4.679342796426263,-1.1529404487019783,0.7383270983674828,4.292745468283592,2.698645610269392,2.070633776965399,3.1102132928197204,3.303301970731722,4.896537538547122,3.5893550943058017,5.136892252845554,2.7435183592190935
78,-2.128228525584206,-2.1306868552164517,1.5484879020691178,-1.3841886479438883,0.6917178244054282,-0.5481624147604458,1.6118792693620203,-5.084948770911554,-4.8214742079951165,-2.3224064147423995,-2.2944212164126294,2.9899382995037347,0.2577318009667803,-2.3127539171807157
79,-3.094878446758602,-2.503375309554612,-2.424422019247452,-0.7072248288772818,-0.04778359156650376,-5.542566300170522,-1.860047797311907,-5.511016757129531,-9.582905463710574,-6.518019754766291,-8.011748417183545,-1.5380959835079802,-5.0746906195683446,-4.73122919275408
80,0.8890384048433915,1.0351743612888311,-2.49704629204793,0.501296899619146,0.2286355852466909,-5.012390472031842,-3.380674556082823,-1.3758746651951226,-6.019268979394403,-3.3033813110956074,-4.883120043591328,-3.371434191301718,-3.356931009370976,-0.6497476642457332
81,5.0685419721075595,3.3948621527737473,-0.07357368874793947,1.8347534536618992,1.2507404656268566,1.2014047363010911,-0.6076369946873625,1.309658102247215,3.1576435894197115,4.380155747191017,3.5072618760643435,0.27619811935834837,2.5761332169404945,4.375829746782477
82,3.305768623633452,0.6570399900321223,-0.5130889671044204,2.4893151144181003,1.0339169715917411,6.8688949791774725,3.456418054756151,0.023444679635967802,9.5521013586101,7.021858069123881,6.903060017946457,3.9876562129147834,4.012245676763445,2.161591919639924
83,-3.174326999126072,-4.383792689912127,-4.080397317692325,1.1753772224202865,-1.0463182829798394,5.960034045195627,3.512795191581979,-2.56882173325831,7.910683038151682,1.1802366718079897,2.2370435779153497,1.5039539437045635,-0.5409170725929378,-4.956657820699112
84,-6.7639730938271985,-5.055311905501214,-4.247537582056337,-1.7913990025420417,-2.7055694727536137,-0.344488195299528,-1.1799274888307916,-3.2821540434765497,1.4486186508927261,-5.2219428543707185,-2.9939907645865538,-4.841473754448837,-3.8172030201342544,-5.947288187845629
85,-3.2055777198657,0.6594179542406592,2.4561508282432016,-3.4591046661863403,-1.5029205482078702,-5.422761483472431,-4.959698092082368,-1.5871460776304573,-3.441987584592843,-4.108070154044329,-2.459647941173129,-6.268795260115539,-1.3264874067218728,2.090500481101351
86,3.348172181728647,6.722458669053406,9.656724645266742,-1.6221132209891376,1.4621373699697267,-5.309406697468741,-2.530292414648184,2.584968979254616,-5.238316454664523,1.4435698494365707,0.7905040374428797,0.8241120921232411,2.8069410478881456,8.435565333236053
87,6.244151653277363,6.229674363194039,8.719149175769166,1.6225349203825725,2.5917515609808293,-1.9119598939640696,3.9253355941763517,9.283320165517026,-6.112117740027685,3.2572389434426143,1.255816679209945,9.25436655238724,3.4682574227980782,4.789964485338019
88,3.77455612766542,-0.15628820252270423,-0.126511454743132,2.245520306978525,0.6712789032022035,1.458072965443409,6.829672584925727,13.430163520881607,-5.394387466020253,0.587655291293207,-0.521928277629029,8.917195043239474,1.237326297236775,-2.8199979639062156
89,-1.155706593494681,-5.927598589983551,-8.873811163799294,-0.17347599779499065,-1.537307419584919,3.7446899486857883,2.040330648707175,5.953705887072713,-0.5110536058858696,-1.383878027117818,-1.4447611229981716,-1.4596655639081957,-1.4681842807537209,-5.154173251496448
90,-5.131245639511497,-6.714293429152504,-11.195848371428305,-1.8398450549078669,-1.2736588365005905,4.464783102592784,-6.228247162009913,-12.092167883499172,6.355604884405873,-1.4518926681467261,-1.8952831311543845,-12.057210495573946,-4.266335436390514,-3.462658185443978
91,-5.400261504707377,-2.969917988934418,-6.329687073907206,-0.030955174902246717,0.7603195048169709,2.2816526718576915,-9.495543954528712,-23.08486871308306,9.063452591671561,-1.6289667209668377,-2.312860277248094,-11.675768540900943,-5.199063610366264,-2.951814699924121
92,-0.7189668883930338,2.8581300216512924,3.112934124576047,3.0791097237845335,1.8559938416503368,-2.372291005616356,-3.5387848316420065,-13.129294010162504,5.5529032801997,-0.1635414826144653,0.5466290645400862,0.22395381582245572,-0.42711354000722807,-1.1308598082901786
93,5.460202247542234,7.213245846279622,11.46091292887549,3.0071152837233295,0.603648087112024,-5.735647614879975,6.63953556196006,5.932668752725006,-0.4147491245292358,4.388283453196701,6.6725867881064085,11.861912568696726,7.465077493365327,5.479853053429439
94,6.195597584528117,5.79562657146031,11.18096371235097,-1.3081740236314068,-1.8973936472142197,-4.411632849963899,10.826912265673275,11.340070845756673,-5.563359273274631,5.653526086467136,7.7758770924738005,11.342055559302116,8.406170415428187,9.601591069744092
95,-0.17936139806582344,-1.2671014185460938,0.9896584381931905,-5.442870225562017,-3.023948474584827,0.5066377866368718,4.534530470946791,3.4464413785349537,-8.916868856441196,-1.8749008873486763,-1.2880177083765096,0.3802431401121868,-0.9591259913291271,2.504964893073002
96,-5.833123323738402,-6.454704375698447,-9.012550466014103,-4.148627669805818,-1.004916979992869,4.7808336828833795,-4.926375488496859,3.3463029346687265,-7.471010916670395,-9.587479686324725,-10.74813700699056,-7.651443555647187,-9.233158771556196,-8.480683275198796
97,-3.415209174579498,-3.530365708466495,-8.104420295318018,1.8754845605424681,2.6081578432863055,5.480773824049608,-6.9608362693198575,15.120717015629376,1.504824446319461,-4.673423391746408,-7.519845735054888,-4.771986641859725,-5.41261194522814,-7.834709408270335
98,2.8443338582196094,2.551655861332281,0.2518608971958129,5.8847533379721115,3.8615485924566824,2.7348668095771194,-1.4506619672184726,17.33222878498332,11.747490537061061,7.82977183586368,4.142499607499846,1.637053893156577,4.235989513044476,3.0131478126423312
99,3.214623536768524,2.2632306766805566,3.245386316706593,3.3141529274366768,1.2208693755838211,-1.6415269415861338,1.9178073610680177,0.9878781598308709,10.910875234343738,9.414485965858457,7.561713572354139,0.6496510669861572,5.493502482543277,6.059397290684852
100,-2.330012466188816,-3.2686522415415324,-1.8265902284386724,-2.176441409878256,-2.1196000947899662,-5.366765504587414,-1.4121962727728112,-14.147084512346234,-2.583109964419347,-3.375141809491767,-0.7962006958019638,-5.3585849026683885,-2.0289999185995944,-3.845440081012992
101,-4.079445556652848,-3.6255479725098962,-3.8676443983205457,-3.814983965281771,-2.624942563486506,-6.106662911313492,-4.298231372856824,-17.708878261986612,-13.70365135418017,-11.934590797696181,-6.035179990043958,-4.627713881476,-5.262755893692578,-8.801533109767233
102,1.6118867833034396,3.5139302847394926,3.3059525133417993,-0.8600358161709792,-1.0502802089012957,-2.669784629884535,0.23153060595644043,-27.979462386833468,-8.99784446958583,-3.3059109233475352,1.0142445958415864,4.817337668742966,1.1328897353319596,2.9862486547684672
103,6.221131840465408,7.583974003792509,9.94311893475073,1.5385420861167838,-0.1351864153114051,3.266320944013415,7.5105457190631535,-43.94111280179965,5.595964747221903,10.545410523866744,9.294545144224033,10.857288281669424,7.00222526979976,15.359073658091912
104,2.5770278655698995,1.8188303869235616,5.201319951654654,0.5840842589535737,0.05012570095381053,7.3070410255858285,7.7528207346885765,-19.23946347980687,13.10656578199176,11.012681989395684,5.388143479530118,5.128559771529491,3.30309851099462,7.881127971757328
105,-4.066435906176462,-5.746997853400425,-5.8178392734974445,-0.9110485088261475,1.018473790655639,5.74099302313738,0.016235952983286416,62.5166246517295,7.08429808420887,-1.1705427918901576,-5.913100545144232,-4.725424359808683,-4.4539314370689835,-11.15270188766562
106,-4.744707477589654,-4.9184149800955765,-9.523094432026092,-0.06888900152631117,2.0396438804514285,-0.33749713372053564,-6.887623028884212,120.21749020740343,-3.7995225769310945,-9.98938259345769,-9.877880786538798,-6.982491021734217,-5.73680479130396,-15.853698904315186
107,-0.1941539685590451,1.3633346496674559,-3.198516468924745,1.6325954888800531,1.3585760767627084,-5.317553179746211,-6.300794997157682,61.573878897892705,-9.709579633846772,-7.268338243932004,-3.419348784909081,-2.3310212943099886,-0.4882404298598271,-1.1854613482352745
108,2.0712945989456535,3.1312874270569515,3.1824870126109226,1.3549618004050783,-0.1445310018167769,-4.911497979858768,-0.9384314401974927,-72.4711102936696,-8.822846742464522,0.13067216474589927,3.1748180472356617,0.15512657150327236,2.7942011291718156,11.127177967210939
109,0.1310780977695848,-0.8536032504567383,2.720724852647988,-0.7023825653359435,-0.5316843382089351,-0.9333279243116043,2.59699121162045,-136.1237606394317,-3.13761390245092,3.7175485069645173,3.161607691239323,-1.4801889395536199,0.653646802733401,6.148840840638103
110,-0.9895490771355575,-3.0622643171909965,-0.3438110214806809,-2.09344900734166,-0.744825223538531,1.5040231195932878,2.0978493310689483,-65.71443197636387,5.314049629439175,3.3592452825187924,1.043820543421074,-0.8661125926505383,-1.688801436621162,-4.685118801032168
111,1.1257844962466776,-0.17092961063674164,0.2776594650224547,-1.5691360872073596,-2.567670603480919,0.7099242780120487,0.26546889760496983,43.168352967794895,11.495012883009407,2.556322068874605,2.225715259789788,3.7894959112558038,0.12831197350791612,-4.622768556892269
112,2.8516008770461974,3.143589777456688,3.357019034371664,0.062234642515002936,-3.7837418581366262,-0.28243319289328295,-0.2805463789120699,74.54890525924206,8.674323999156407,1.6688126456774302,3.940001254115514,5.860974510045941,3.2311519361840384,3.621659087000902
113,1.2465459473031604,3.0058366866541637,3.474787780007809,1.4566268257315815,-0.5708952568126748,0.9767065345295411,0.4358457621318416,32.48855505970508,-2.3473170120456976,-0.4802498390300431,1.054179553929708,1.4697476997550951,2.763025178304426,5.6694895215745476
114,-1.626396154966309,0.9929306375659979,-0.4515002336193001,1.7862012040894863,5.293828906659412,2.8428693825864984,1.2653811327949203,-3.3102388418504063,-10.683687861558159,-2.585452189470099,-4.432933524830796,-3.8964011532072846,-0.9226574597454785,-1.463178205183167
115,-2.653774779939244,-0.8646867540625184,-4.249070657841588,0.9268153877481268,6.904844809128786,2.5396343912505657,1.4935086830014699,-1.4309363182601489,-7.545582295371962,-2.3189250210584036,-5.682688521231779,-3.8367196514642234,-3.3680197625789337,-6.812203138779647
116,-1.7910737131059782,-2.9411636135390027,-4.585394305700746,-0.4774353515883096,1.376762314081392,0.04803615855526596,0.5844628576656449,3.919162612521043,2.223418717698593,-0.32073413850067456,-1.237225417770606,0.01630295004347504,-2.3075314867710297,-3.058427383377833
117,-0.5027541016536298,-4.2990298686531565,-2.327194611364623,-1.3957165128715898,-5.594014721584604,-2.662990667905062,-1.6727776861217567,-10.9207972452451,6.323312030825066,0.3607515710277072,2.7213185040114274,1.8922200095406347,0.020104799686778696,3.9336387443397376
118,0.9427516993807759,-1.9938801181707062,0.4382641327007919,-1.2247485189464855,-6.55790439708954,-4.120850530807509,-3.6954335199905715,-25.76656190284989,1.1558430407991744,-0.9290828577426424,1.664504641322978,0.44056024179325626,0.80912865595875,5.023523020517419
119,2.604110091081098,3.442658262956017,3.332881334017727,-0.1779618916849781,-1.1486007523224944,-3.3565098133701197,-2.60872082801087,-18.197503105733944,-4.277147218225415,-0.9471090035422352,-0.7153305506857502,-1.0690169011004191,0.542624922580759,0.19339197541525666
120,3.021745715519392,6.324155176277761,5.561456049833933,0.8938084096657504,4.177623108855635,0.14068288744857133,1.649150096344761,2.7146041946999087,-1.7676673978265496,2.133508647207908,0.7969228841964454,-0.6433516963950217,1.155250298784975,-3.4067399932245697
121,0.5630158385127334,2.6756436443264384,3.9983858088589437,0.9691212055577233,4.041717861822915,4.375521702744542,4.369125715148444,14.862087920244653,4.695960849517672,4.404554755260751,3.62671329644269,0.38385701300905894,1.8978368353505173,-2.268592830482079
122,-3.4133179991697307,-3.894585540804055,-2.2483120359964417,-0.17106679574299904,-0.2597522369020264,5.271925219653332,1.6892160122792064,12.09298665625185,5.509416067755313,1.4108705783272908,1.5132536462242556,0.4748787191581035,0.40949772680207175,0.21550935787292477
123,-4.65873791940266,-6.07940826210815,-7.240579793836949,-1.2062493581537672,-3.1777345881647023,1.5960264333496583,-2.9366718173642923,3.6923957780734065,-0.38373803223990344,-3.841368001258244,-3.926333800418697,0.07960795314236781,-2.292956563456226,0.7652812673190685
124,-0.8525180420382256,-1.5676011463122355,-4.207712250096044,-0.5531015303362127,-1.6097752612308984,-2.845129623493321,-2.7140097361424584,-2.0899377798576055,-4.89869154376523,-4.055754079024757,-4.421909271937056,0.26655993234887526,-2.2311096009755893,0.7121208725238789
125,4.455729630694433,4.364673463346618,3.8626814349168037,1.224222372227483,1.920552133791812,-4.096620386280291,2.144026697743617,-3.973939470578373,-3.4978452502313835,1.0377999735605865,1.2518222920597375,0.8374702424851397,0.9400432620960381,1.6649584210239825
126,5.090119942262037,5.052841491557805,6.375075829272047,1.6985792251639766,2.792252107456226,-2.508839249158221,4.053085457236781,-3.082706270454142,-0.5807892560973634,3.5540970577428523,4.24423701431576,0.7253283234941217,2.4518134013254436,1.820673475600387
127,-0.08137739667208709,-0.1024904398690798,-0.22067543229698575,0.008627364685572583,0.005321474908643639,-0.2814633341716722,-0.3383298848666665,-0.1434863732055996,-0.31774899811190516,-0.2807571106021823,-0.13481353367663754,-0.290507661702454,-0.10395185940149013,-0.21734024289521486
