,AF3,F7,F3,FC5,T7,P7,O1,O2,P8,T8,FC6,F4,F8,AF4
0,0.003905248291324881,0.01386026898919078,-0.0018794486841988076,0.025044575650797693,-0.00039434320710313164,0.03665623039436541,0.013481837530547738,0.0314337897176652,0.08497769898222365,0.028517542095466225,-0.050853798355143504,-0.03328085243011136,-0.057641551358732224,-0.004077524492455964
1,6.618339711588438,7.337076064066045,4.979094809523774,-0.35841827931080344,0.625622509419155,-1.9226360473789317,-1.3426213268118896,-1.8345310806442603,-2.6846197034762467,1.0636486895045365,1.4981993516680783,1.9050564122085751,4.4158853220098315,7.289884800055618
2,9.052099487928153,10.259737409797383,7.656055750923407,1.2755509761945711,1.6664745512434425,-1.7757819004138966,0.6080969079783722,-1.4375614230510474,-4.736731145588237,1.3345097528693375,2.5171779307990945,5.106925219872861,7.496801949672553,8.93993236760261
3,6.578457175729166,6.734912505820946,6.604719904271336,3.037593411824953,1.8925155852716355,-0.8861895532738966,3.2280286470684683,1.4278099222480987,-4.447144627718319,1.4639029088425901,3.1346387438228667,6.823450190765595,7.475037212347144,5.030103563163647
4,1.7284403900005225,-0.517830112420829,2.3972670758793813,1.9304467378133947,0.507587115429443,-0.6615208984611262,2.167061824043091,3.567565084438662,-0.998790379474563,1.6595145751274978,3.208571741310247,3.756952750896302,3.3192079989777286,-0.09518512955754185
5,-2.8097016320831125,-5.6707989077959535,-2.532183039599674,-1.2462504019787333,-0.9688556491200896,0.5947030001415476,-1.3598656254288313,1.4895810624836459,3.556566301744231,0.5406730262737144,1.5099916896264913,-2.4352826852996614,-3.4634691099088446,-3.2475476214677363
6,-6.08350605565524,-5.831237445271788,-5.849873739687058,-2.9590800725581823,-1.0534986677171418,3.4413085657577014,-2.565535842962491,-3.1225351538602766,5.523744963187592,-2.1981553484804595,-2.48862174056667,-6.594732936732916,-8.577006050792066,-4.398996071913755
7,-7.645752970325599,-3.7191297704510955,-6.784803973756337,-2.0519979170907074,-0.7767193177108633,3.91793035200762,-0.808491005937219,-4.40764140188213,3.3834918391427036,-3.9360853720916995,-6.337125072894334,-6.183493093088628,-8.124744398400974,-4.5733970934581265
8,-6.143448574233345,-2.6978458800604312,-5.370222958504865,-0.6289907002229874,-1.4900607408949682,-0.5803892512991091,0.052049653409347744,-0.4264233639375697,-0.5542832831590131,-2.370270698409599,-6.258765238536912,-2.971534961201587,-2.5862578130404232,-3.955047217368582
9,-0.9118035443862704,-1.7102406073759358,-1.5409126779433833,-0.06125910945661754,-1.8961747997900824,-5.524533523926993,-1.3036167441343762,3.5621558840889582,-3.009556705309921,0.9109880262182762,-1.6901775485005157,0.5835287469305082,3.381020875992551,-2.0028326474785265
10,5.604140040044567,1.9837091599677206,3.839327912406919,0.6867112527936167,-1.3293457531428701e-05,-4.908758336755654,-1.5812849917658405,2.561908106177111,-3.167709317577659,2.6515863205248165,3.726230786990131,3.4604378818274375,5.682074685744,1.6650627081416216
11,9.11184471036904,6.977677654430618,8.047019024593979,2.183474822541008,3.0934784229261876,0.1319386851200624,1.1986538075914703,-1.0202205812111589,-2.0309063174952104,2.4882296610214176,6.415657533132003,4.896471506004121,4.444972273500538,6.202889757992315
12,7.483857867218338,8.319980454631004,8.153969746917506,2.8216795621946145,4.055184853041492,3.8576023952713014,4.144530273754619,-1.5868214573122605,0.06085194039988051,2.3086019122473647,5.952677109642083,4.128270302723926,2.3503164359710467,8.718042529101519
13,2.167908556476559,3.6729741451389613,3.6103842845326723,1.2531151740583208,1.6485423561143897,4.299224115146919,3.6171362967794995,0.8591559836586409,2.610260251131267,1.8745126112038224,3.1310246355331115,1.6546614046767432,0.6273796201693705,5.744766997095438
14,-3.992152316339264,-3.816234361042146,-3.205705107023137,-1.3803608572379105,-1.8821928511054682,3.2460671654552735,-0.07727792839156289,1.238882730265473,3.035503722401735,-0.969766212026971,-1.7800611561673596,-1.1968327294926482,-1.4745875831285657,-2.5934122067185954
15,-8.327814272026512,-8.810065257220046,-8.430705950673817,-2.885858581391953,-3.6233189132276507,0.5913875955982968,-3.6510870682568797,-1.8394991254447928,-0.3971109107458568,-5.125590969231004,-6.838264127837434,-3.696625679073889,-3.7141881075475998,-10.426095562257482
16,-8.284154372036001,-8.078847345325961,-8.727912705007444,-2.4376347742896582,-2.7375039735209925,-4.371837464800009,-4.496046877088834,-3.3802602004321645,-4.123062957968596,-5.586903461123592,-7.775893751746835,-5.072708073425126,-3.9659178673890016,-10.65330244028054
17,-2.9983255528872226,-2.175940667505114,-3.535744709417851,-0.7581889407218673,-0.5258832020505331,-7.615072839919181,-2.35682065357132,-0.013586461274536724,-2.580988879612444,-0.46500730043738153,-2.8677276169421884,-3.6750515080345356,-1.4476343653914243,-2.5485462856686065
18,4.192533653304296,4.809284972919842,3.6231006292726162,0.9401524020682478,1.1337138979030539,-3.888475883624989,1.0710853715618998,4.037831590616701,3.2620588521057146,4.837865454110747,3.5831987090592823,0.6535025579511269,1.2411338600218318,6.7136479474949775
19,7.590332515914528,7.577787650806017,7.352795891822347,1.6125201085609395,1.4109506931162261,4.3007021367382325,3.354590666047504,3.0246043079503884,5.8121361625967225,4.3180327581903395,5.828845965120257,4.433880068159099,1.4087805172073173,9.27392576257194
20,5.070925944023071,4.287672968870589,5.409069633725197,1.1595550599914375,1.1481669129316483,8.187140068695602,3.160091760767893,-1.4513368787261915,1.3787235745737891,-0.09498459129376359,3.415428269963147,4.05655877536526,0.26149801416667423,4.464202560808395
21,0.3247388480093396,-1.0300602660206708,0.8943991473537738,0.824712233180409,1.5350579457349343,4.308576649535048,1.3470622022311538,-2.901637009433444,-4.200104184492777,-1.4926995672529426,0.5426201567849256,0.9293106668617247,0.954541534250189,-1.5883496702810274
22,-2.0725157892535573,-2.9422651526059798,-1.6987882948071313,1.397943523123671,1.9677462910108445,-1.640146534225731,-0.3570652714331145,0.02987793546685097,-4.016566812371418,1.468868036141126,-0.13100195929874758,-0.5097166730133555,3.2862805209552275,-3.531345344571681
23,-1.8272335470627958,-1.22054932159862,-1.651439895317525,1.2178425495452396,0.4851739922696528,-3.8319692131176435,-1.405784594229288,1.9284490476004286,0.19698885411215686,2.6716829101032955,-0.017056165344476674,0.30791995035126174,3.50918699132349,-2.052547968672469
24,-1.5442387112477327,-0.23562064230914884,-1.543424467781289,-1.6030890729316205,-2.831138525247912,-3.0419135103692776,-2.1672968591736765,-0.34182315192131774,1.7818344986716912,-1.5859586767914986,-1.2170064471718778,-0.3290842422231798,-0.06507690940843265,-1.0086103751916107
25,-2.104176425012527,-1.8643739243928936,-2.534374506313396,-4.865977996851142,-4.581974459954002,-2.2562687620465227,-2.2924190980415053,-2.818874881806865,-0.5442409528540821,-6.339114019053768,-3.232294054131702,-3.2610640706915244,-4.262639438647861,-1.5585172122765556
26,-1.9479244072180857,-2.719546601347351,-2.7502076394434725,-3.748888601270491,-2.080632424706363,-1.3111137608538326,-1.01384928629092,-1.3230010029056463,-1.9961129569167082,-5.02338003730719,-3.756529212514464,-4.131586480616911,-5.189468184994953,-1.6011063519422664
27,-0.2474207777687676,0.06911311704904276,-0.6811400964125774,2.010004308544609,2.48969813704815,0.8610334596189073,1.1075181760730781,1.8662365271986503,0.047320628096379755,1.2048486405547585,-1.5357201848165691,-0.4954743107622832,-2.782944142358429,0.10948556848669057
28,1.6422863836371098,3.710811060961555,2.2062916864727122,6.097034174059281,4.301214767732518,2.9104469400586828,2.356909172996854,2.308005341029324,2.8721603714028237,5.607901108451149,2.089506280801226,3.5887406992987834,0.3929186069127985,2.282578709628787
29,2.2310912883828826,3.4636654528522492,3.395597303145035,3.568280046106029,1.8538730608327534,3.200660663615805,1.9360904410450361,0.5692881789190507,3.467430492761445,4.938236076094409,4.274082479124118,3.4697153664055094,2.8048615027842834,3.3156841629085854
30,1.722193789257252,-0.37684907819424995,2.336754908547988,-2.209360657678051,-1.4941175094199661,2.2455086613861863,0.6580015817110736,0.15955868276786167,1.9094690718560294,1.8569667865306076,3.4288405792473626,0.4622893903127074,4.260312784647358,2.6600818519676155
31,1.1097569050939031,-2.786676010840499,0.46825789318567196,-4.168972732273028,-2.0829658630510615,0.7326742014922747,-0.40812677626772603,0.8709756320944136,-0.6851608420922128,-0.5533189923981381,0.8146511368325753,-1.1993802599185794,4.005732553665399,0.23725920556836433
32,0.5413529486104579,-1.0593319368098975,-0.7715122554329578,-1.0125890483268611,-0.14099166281087785,-1.886067006860554,-0.9362678372993944,-0.3735566173944746,-3.5035340598802067,-2.1847614884817754,-1.147912313441819,-0.6621919017413612,1.1703802968803036,-3.022243689260986
33,-0.5298930793271903,1.7316863118129113,-1.1424136927054593,2.010412185336503,1.2251115312887593,-4.741657836276148,-1.106109868479216,-3.150088234693621,-4.8138824006532825,-3.5564187505290716,-1.8158763745398023,0.04941120301111975,-2.9425292165991643,-4.434793317175158
34,-2.0244801187268426,1.3773037101284276,-1.37017114784202,1.0033863518276351,0.09412464113834212,-4.607101139317611,-1.1716759266062204,-3.3571564865499033,-2.8816266529544863,-3.7438703527250303,-2.331929670335543,0.1168782937373513,-5.057911894929989,-2.0468033898316373
35,-2.8639618609904507,-1.712888280368409,-1.9701243173874183,-1.7958785105487407,-2.0103915820399507,-0.26240668289084074,-1.048167307391621,0.2659357228924095,1.236536728822653,-1.8224339072548215,-2.7497932901679807,-0.04060633633981356,-3.2295749836259833,2.134094215157778
36,-2.010470024851867,-3.2812403516538096,-2.0405413832075423,-1.8910871856967222,-1.920189343055019,4.52603701182917,-0.12376672672120428,3.8273258885247117,4.314827328045891,1.5836307805857923,-1.257243033066732,-0.629357148449074,0.8954689260511677,3.809646826964428
37,0.34333577015316263,-0.8732784233131684,-0.06400755200786008,1.2968383418003755,1.1125054911094028,5.0814862870704465,1.6245856488984078,3.583666147062448,4.444605276944681,4.600460202482317,2.371680892244121,-1.4412874006384329,3.6004134245254638,1.5829588757459956
38,2.5894304649311426,2.9699295172153994,3.1956638210709505,3.712791190202348,3.7548219326498553,1.4587018697162528,2.4597809293735877,0.37451573657505577,2.062666766990901,4.937431270630621,4.533501347256638,-1.0442044869114666,2.597308533030365,-1.5155153160523516
39,2.8347406486541167,3.669467078369204,4.121829163112288,1.8190691366542,2.326738289304865,-2.181029284235105,0.7446761760083354,-2.376296959226701,-1.410211329645174,1.5273407743459178,1.9546089423494986,0.6529961729176268,-0.880260982072794,-2.142596317669526
40,0.801022000734377,0.2523808272563999,0.7200333414197431,-2.591576740321264,-2.0298081047139447,-2.8100889230619397,-1.8618558011952135,-2.7171551398435456,-3.8293375161069503,-3.268634645602029,-2.726538239223707,1.4411181230281875,-3.061482841420195,-0.48521489741463897
41,-1.3314587951879902,-3.0567793578826814,-3.516744004341152,-4.165732800591969,-4.162068660416171,-1.1658177745695912,-1.798302689510634,-1.1353724352598686,-3.014005285956041,-4.912091713545984,-3.400780952405392,0.542735642780602,-1.186223034769353,0.9907746027728596
42,-1.01909098214887,-1.9796731770992806,-3.2962039880554213,-0.8549238759423937,-1.5523454247736899,0.3446166167767029,0.9474965117266987,0.8074885164105662,0.22083836374810545,-2.0157126460704107,0.8426901876997696,0.3876668859861249,3.1162866645151515,1.1641420755039764
43,1.169981440937007,1.8545123212064998,1.1529028359194204,3.1531838420117264,2.3244731837952624,0.571988128566385,2.0116844174499606,1.7411136126766897,1.8131194925373362,1.5355803381969921,3.7018287034267847,2.0910809240989727,4.683077312362664,0.7908889648821422
44,1.6177792445249974,2.707585366725424,3.8406571524986237,2.9602209024306476,2.8569286873234194,0.11890920365346484,-0.8178669769199816,1.3165469837712491,0.029979848941966435,1.7748302111110257,0.5892077893305353,2.323735691054261,0.6019019331079098,0.10958602551502489
45,-1.4156856730398935,-1.0566169338896707,1.0329998121759165,-0.6516379005857913,0.3236354836905086,-0.08648171789365854,-3.5130555567262336,0.3529775981260676,-1.374183800635381,-0.1931841803973962,-4.334824573762259,-1.5983584569346623,-5.323664938514527,-1.4567912342749587
46,-4.446578138417435,-4.097110889934703,-3.582780090737064,-2.8389422745330135,-1.3549614829526164,0.07843910965132764,-1.4601165641299183,-0.3180228183597763,0.9835329422256975,-0.5862342924802305,-3.9762203427288476,-5.961626654590235,-6.226809738504562,-2.746989388032019
47,-2.92562570848093,-1.738411242115679,-3.910993821128029,-1.344000835671161,-0.5784581947062551,0.20927371274887846,3.2492543556611437,-0.8941645498263505,4.017331868403889,1.3532669804912696,1.5059466545835622,-4.702045831396382,-0.6443938554265756,-1.1113630232192893
48,2.109177914793708,2.909246000290964,0.419207370846795,1.2766565149865463,0.26055054421035534,0.19249728235538563,4.389350788352291,-1.6386034092384922,2.4702794554420198,2.7231293058714643,5.203755666276025,1.7131741456349001,5.286610473956263,2.935701549599464
49,4.944837051709687,3.5787695728217197,3.9285819532749295,1.8147905639180986,-0.7078237431026424,0.2517452970195408,0.4861573847595737,-1.5562843343981567,-2.7372411294407395,1.2252691845080697,3.1785710140600343,6.20722580850678,5.393141166292278,4.403290690434993
50,2.9082590767545002,0.23801165790341933,2.796520395181588,0.4118001099560784,-1.5625669901220556,0.4255829300783431,-3.318456263874854,0.3186596258046456,-5.410398476477182,-2.013522430127624,-1.2363862065998672,4.306187439517054,0.7361244250367295,0.4130515555490638
51,-0.5921376596167756,-1.5862284760382674,-0.6358971356757538,-0.503980129188228,0.18233192149496052,0.48573103935887574,-2.83302290526903,2.629572892852186,-2.6204493392828634,-3.8508456229877974,-3.2691407204015177,-0.7954035317203436,-2.9074118038480474,-4.442082421603861
52,-1.8262990945049387,-0.08603899022866746,-1.9540559433046876,-0.013948634456920319,2.891422193374625,0.21034265200752197,-0.06838689929902583,2.720374343078226,2.0402340952933122,-2.4291899712630127,-2.3474103351402973,-3.5032246540555634,-2.7747666040043533,-3.707377045888692
53,-1.5348770275743275,0.5020600889440207,-0.6696081644746298,0.1984791188452748,2.5075968049933226,-0.5417501233264335,1.0012562928420727,0.2203295993820206,3.887282075759834,0.8813179313663771,-0.48066234738946423,-2.4065889361256976,-1.072135160666417,1.5666251286511765
54,-1.681619948853689,-1.9093928684918249,0.26205174522161984,-1.1418715043349776,-1.213628624561509,-1.5876235165640424,0.3569419184053251,-2.256403463471488,2.2966964599772153,2.832307821886183,1.1372761246240373,0.08165772278479422,-0.12471959666683477,4.179050133199845
55,-1.2728261363059927,-3.045225932760434,-0.48209738122444573,-2.3343008723277365,-3.6220224228588416,-1.9935802653007868,0.45247369723803016,-2.462721910689396,-0.18854291317024402,1.9922445034001843,1.8592688757944162,1.5565318214107928,0.5745983743556369,1.1319478618580248
56,0.9421926286152349,0.3593436289087946,-1.024734942669353,-0.8747569231057812,-1.7012587910548354,-0.7286389398679509,1.2952861946310221,-0.8633004659726579,-1.339424377119583,0.3280575748384128,0.9467575431830868,1.1248570975931746,1.698133667031159,-2.6955285969161347
57,2.5898809181143636,4.221064423992075,0.11437957285769709,2.3882197793298987,1.5295861294763389,1.6853348936136672,0.8523039055020883,0.809954455362287,-1.0138847481492597,0.023853436118440173,-0.7502108025084179,-0.6595136443961054,1.8664561120245542,-2.275995084301903
58,0.9889384349671628,3.0251996450074237,1.565014098264765,3.643348378603306,1.784004120330608,3.1087755242946584,-0.7822297435530702,1.5721946822184076,-0.7093348508442118,0.13122059958802673,-0.9301703386497403,-1.7439671213472876,0.14951591757169772,0.9432503933676679
59,-1.6122438665689007,-1.5149610720273758,1.4202028031432863,1.231933090925886,-0.045095179772528665,2.2042822927567807,-1.3170808814754023,1.2126978334566316,-1.4474897125281367,-1.2554082734149956,0.6876948861416887,-0.3202045635320251,-1.5932970761407987,2.4106197376073926
60,-1.0370313612240012,-3.189484738981514,0.06599074896687045,-1.9280489034670758,-0.07675663371814748,0.0566328010966078,-0.1777966946816444,0.031220177331723907,-1.755314732430527,-2.741417481191656,1.462732112095008,2.2668135241110727,-1.3284589184536157,0.9302221746435901
61,1.6713367625728135,-0.7277829131123545,-0.8912753206228207,-2.4552752684286534,1.6318331519322804,-1.5162910605672555,0.6110594081832467,-0.8698037818332375,0.6911578039552119,-1.2538309654080986,-0.12020497239117212,2.412094123595758,-0.09704282569647041,-1.0888434795080966
62,1.5247917264468651,1.1398483341133423,-1.1153206518124414,-0.960864337848512,1.1639675008494528,-2.2115211989907713,-0.18826026185030661,-0.537514079079128,4.472838479371463,2.2184401332886874,-2.0435284186436573,-0.7732363555734519,-0.05522002288770264,-1.751966628537831
63,-1.9039047907824664,-0.14421045089032963,-1.1038192461957554,-0.16526506147133932,-2.2475442203629936,-2.505293081436346,-1.1863901100816858,0.3131541571039773,4.379530057091741,2.9049924942617147,-1.9433720393243894,-3.5524560546279815,-0.6716859861255022,-1.233593328918558
64,-3.0615950015810007,-1.205619323914646,-0.41913027148276044,-0.2809288122918098,-4.061366721302923,-1.7666204333664002,-0.6220775485240267,0.25603453608240595,-1.2584139832171823,-0.3647328543420676,-0.26836633000657956,-2.3119457972296544,0.15157934912921625,-0.10656174433527606
65,0.6382813125581974,0.9342868692007876,1.2971125494986546,0.5697799839639909,-1.0733597275521176,0.7890237260316058,1.1238006226183679,-0.49352842415937437,-6.16446796496686,-2.536545349852061,1.2612584657037034,1.53462290684223,2.0142239106834867,1.3281413665542894
66,3.89601142654848,3.2294319840894774,2.289229232226794,2.1189536520949535,3.4097213540156397,3.5795629884587012,2.02195634250605,-0.5432439897627446,-3.7999255002247487,-0.045210770740159924,2.0037779509716818,3.4457468425501183,2.2143798200416844,2.0111419884872603
67,1.3819155797860567,1.1868132580592567,0.5518416944464024,1.7996021372861744,3.9110712500816773,3.5250401899580845,0.7740611356187869,0.09766247784822088,2.5855278076795734,2.952508782337756,1.7584422882884145,1.5534431753303055,-0.07149787733837062,0.7050990455228509
68,-3.5510866848243783,-3.379723664857202,-2.3106376924703302,-0.7013473010563,0.22242588830426252,0.24293232018067287,-1.5201075350243407,0.15800732959607272,3.9741776876018706,0.8574172586746115,0.16922019447071143,-1.4445688966400259,-2.4622419147583496,-1.5689504983342908
69,-3.3977255395559607,-4.087390254917773,-2.285887492248609,-2.174559630301786,-2.6950551501506337,-2.645198957764912,-2.0864369178723265,-0.23631935449480113,-0.7672075240954228,-3.733457654924373,-1.7003840051013441,-1.9953466589933584,-2.4949798512715677,-1.7100520116575861
70,2.0643647760436834,0.5924882655723426,1.1118504063485997,-0.6787128164654166,-1.6642439287695705,-1.9805748917007249,0.3326508265884069,0.3866990237566048,-2.963918953675754,-3.17978028195054,-1.6317525765441248,0.1250796133817544,-0.25359874547971584,1.1369683339236092
71,4.926503447550269,4.496213461371872,3.2984769226083435,1.2606877104107528,0.9260835624784646,0.5991910558133408,2.9800717167632533,1.7228144474399958,1.8673637586563674,2.888816846766726,0.21091375186395997,1.7135561543639868,2.0772330141058943,3.0912155132184407
72,0.6693934008332248,2.4081492779846876,0.9227071653487003,0.5287740002156331,1.1575183201713353,0.9872630470734214,1.6943136814309263,1.3212438773481134,6.006558627797858,5.629380214321248,0.6298227533401807,0.04253605446722755,2.122818891412201,0.22508709516640255
73,-4.948279850916543,-2.4843716925986357,-3.0279640566498123,-1.6530304713755917,-0.9470054578668746,-1.4134286669006269,-3.0677755399051767,-1.4567601197330637,1.2492059827799213,-0.02669273739174354,-1.5383255796478186,-3.260369997962218,-0.47373269423909936,-4.912999971561883
74,-3.983299653586478,-3.491576851718031,-3.291359099528182,-1.6467148630726203,-1.9699996500385046,-2.7171139069281285,-5.338867733848817,-3.4410286282592253,-7.343105518855225,-6.750432540446597,-2.509411752818482,-3.3772157035020594,-2.8752554195970643,-5.271613659636647
75,2.3835142121086412,-0.053952886239286825,0.31296127216743697,0.9101207084748139,-0.1536994812917999,-0.13096272537190062,-1.130491662224326,-1.6197962932880552,-7.749611845861833,-4.630271284606497,1.0009759974180568,1.4431712631083409,-1.619123300176732,1.1036902408928504
76,5.63662430108519,2.414809152147843,3.021961332427514,2.614451777420034,2.270250478906157,3.800131798887825,5.277055300838191,2.2861443087362594,1.418075992490999,4.244488029691614,5.568655135977542,6.290058621521068,2.5553055604545447,7.2188039062649505
77,1.8278673899396722,1.270293639541137,2.0259184432800716,1.4536276176882013,2.258039711709993,4.200454792868968,6.12768637518784,3.587496344511692,8.53793970146644,8.121441526364045,4.637264364469217,4.997739118262634,4.566212942641318,5.771006767666712
78,-3.530890297806758,-0.2808812451172943,-0.25040298224148994,-0.6362742197618368,-0.02967278856541714,0.13484589597264154,0.4439975600033604,0.7294747042257236,5.22063829722022,1.9398337580014138,-2.1106209443757704,-1.5753828084889585,1.395965839807664,-1.1369645313488987
79,-3.7087606679004965,0.25718004860705773,-0.5487398190062401,-1.1961137131360022,-1.7064428739588735,-3.9535794846775376,-4.659136067034712,-2.6091869086374144,-2.9100191825507826,-5.873105170032337,-7.1927885315045605,-6.171969044686551,-3.5533601373769663,-5.072853386623266
80,0.3566300889810061,0.44602033189773554,0.4040575675195566,-0.6150349175220637,-1.1663467955697677,-3.539555198394468,-3.647739019171196,-2.3463429011533314,-5.397950891928918,-5.63824926028571,-4.578862580614144,-4.356355643529166,-4.872521959258697,-2.7535138687739407
81,2.4883442383146677,-1.8568573201689635,-0.36560148017589583,-0.5949456585938906,0.05428753122727826,0.42075573277388617,0.5613089922169916,0.8071750712392259,-1.0633174804817258,0.5740739765201175,2.5082439843002864,0.5020157811637878,-1.941868580358679,0.5535128194478504
82,0.22314188033925342,-3.5393229595022957,-2.8580547487099315,-1.1390109116634997,-0.02836856367235974,2.751555209250616,1.8286946525743462,2.6461925752729125,2.6334270636070256,3.543751413764028,5.679912288333818,2.7247575783962836,1.5228937261418725,-0.1822726089677404
83,-2.480759759689655,-0.9113630737516274,-3.4084662377627732,-0.8850962148029036,-0.8432011848134178,0.7845291406256802,-0.47955100177909976,1.0744525495975614,1.2298992309317338,0.7056911176483864,1.9214228884963853,1.430751953163921,2.9809381561815855,-2.5505026328614115
84,-1.329984267626472,3.6220436212836704,0.14727834379608784,0.5684397675049286,-0.43103164810838024,-2.2530391926275417,-1.858746899527741,-1.6618925960218736,-1.8591300578459686,-1.715293871675576,-3.1195390734788435,-0.07294462011417897,2.783968887647537,-1.2290137584189473
85,2.6017697712795975,4.49788449482616,4.7497741712748685,2.1896287818236093,1.2798053858601652,-1.7894048968081715,0.04345379476256753,-2.427037050367226,-1.9165591266362727,0.38345496261647377,-2.916813681334284,0.40890865896025064,1.5939194977029563,3.680091217871421
86,4.515648424463707,0.9907347851194073,5.3851197555663495,2.7490805960854594,2.1963927537290227,1.9000566924131206,2.6986130385568705,-0.9456526007813076,0.6947458452488241,3.058840535838787,1.6394420375730734,1.7860881814453462,-0.4354143240553022,6.6421185741339075
87,1.7341550142527482,-2.455801413579927,1.1372611274844633,1.4990563952814375,1.0033342318570864,4.199341732872801,2.995348731789216,0.7949110498501787,2.4575622658958935,1.477846475216001,4.011629024986284,1.734221215099168,-2.295254582459768,3.744496688061596
88,-3.2928918550013853,-2.927657137578878,-3.855698619267764,-1.4277485638849592,-1.0915582026223813,2.1554144412299125,0.8604501539476722,1.5145744323795325,1.8080756429736025,-2.4581751874037665,0.8893731510056477,-0.6399015601156675,-2.6377792340036135,-2.8923003432770993
89,-5.509226554139562,-1.5421531560715125,-5.185286500049915,-4.1160307301191,-1.9491374430919994,-2.1554110153575263,-1.7730120757135317,1.5878285288212064,0.0664654246623182,-3.4395049725246696,-3.676580498767811,-3.588188857770736,-1.4650250223338899,-7.337275291600453
90,-2.524728379138211,0.0889160117631434,-2.3778962337998295,-3.637778176464238,-0.9775377017953903,-4.493253488604787,-3.1252721183658236,1.4567332992518454,-1.171013049098547,-0.56503847183401,-3.92487984408595,-3.9150249657238954,0.2568544894792154,-5.502585804059526
91,2.557196943990655,1.4391232615385057,1.5616584180319728,0.3976284556453784,0.4351513730914976,-3.122764577503996,-2.3562468606802005,0.5360307613134835,-1.5695301422092254,2.12050669411753,0.10962322455182559,-0.5506385437531537,1.786581502248138,0.646863180793537
92,4.307824534970113,1.5013496079831832,3.4035789692773144,4.078587504179512,0.676146492686848,0.1235160911686086,-0.09165842527725752,-1.600199464193008,-1.3790812280501845,1.6890788911456347,3.184234503908927,3.3706198720832536,2.307487657462308,4.743680116742292
93,1.4117370307403836,-0.12556878595357854,2.290672812195488,3.390394039363595,-0.20588122083933935,2.4910867750861265,1.6565950721626772,-3.5660567382239163,-0.6449892521307253,-0.40050971625302484,2.130877624704147,3.837733860402473,1.0671342330970321,3.289821032439409
94,-1.662195179589494,-1.078220167713513,0.02609817379688569,-0.40527066902950937,-0.6139502260713232,2.8658759061834935,1.5410053430075965,-2.9778963615237606,0.5103973952300188,-1.1972761256649584,-0.5015310555384197,1.015912997018819,-0.9384488032111054,-0.03238587603290548
95,-0.9000434895661442,0.6360468598363109,-1.056727904057562,-2.4082754289510877,0.415481286814254,1.8175640213874313,0.597079059360498,0.5145875841555857,1.400839833559879,-0.10755762728817424,-0.949052360197385,-1.3552791293242878,-1.3864683733993999,-0.028201099537304708
96,1.4285095010921116,2.2770897870424607,-0.7975294675804666,-0.9435282916646057,1.640330464000369,0.26491889979544436,0.4907581615549739,3.9395129145018406,1.1724245766224215,0.990464151398607,0.34288200129403873,-1.4040003110232615,-0.13342808705911807,1.8964456366384819
97,0.4627516990701685,0.07311400126630851,-0.9812498957088798,0.6368710111348743,1.1521111529520378,-1.1275248257221109,0.7756114789992928,3.9456521476279964,-0.062218064342006524,0.479681588808412,0.2119265295929619,-0.9740024994437871,0.097142170768264,0.18069238461085832
98,-3.0528845417623356,-3.6065919490783314,-1.8317475408207726,-0.17565069754173118,-0.711855668041915,-1.7538208990202095,-0.07185196113636708,0.7095767438448096,-0.7586802403994052,-0.9097734719614601,-1.6861827667956633,-1.4615176764168833,-1.6036996957720187,-4.868065479920689
99,-3.267502874103767,-2.8206081657349995,-0.7993486004722639,-1.1488441355815273,-1.5473752846925086,-1.288289791832709,-1.5006769396745472,-2.336639919206176,0.447557934783375,-0.9784093148462097,-2.0781156687467432,-1.1750274172923332,-1.8889837457983893,-5.85100515237739
100,1.3484507939991976,2.1024918635223924,2.8560033524893167,0.3325672463586763,-0.4609342269422019,-0.2679451272477481,-1.4336115810564218,-2.6378098429820964,2.2074787619663505,0.8204139179119566,0.656756938330176,1.2138834567413743,1.5360698905796693,0.6600472131084208
101,4.671487026670973,4.063603456938822,4.650942630974729,2.2387586657696597,0.43409082924519277,0.25067162783048735,0.09083023902690833,-1.0393048172165167,1.1130513112951061,1.9890923969410024,3.3594402446256204,3.3882787580944544,4.89638332910529,7.560655340189045
102,2.0992476864353344,0.28710514447874064,0.6141706963289867,1.0771296934863173,-0.5114802156144304,0.018504492487196753,0.7597408454526725,0.17538973050816592,-3.2873386641403903,0.22164831052492437,2.378059512943653,2.4175288838255855,3.0032448968105663,6.249816243093612
103,-2.1164126493938222,-2.9457520290518926,-5.044647598756967,-1.8545371825456298,-1.4594845409054429,0.004988483868631564,-0.06944245310218436,0.387824370961701,-5.8232906318604,-2.5731951236583273,-0.9695075075195846,-0.7295514613018295,-2.6616279882229565,-1.537548572881468
104,-1.8031459352280363,-0.48777891587567795,-4.425889673181871,-2.126136548700576,0.019637377372731843,0.8399573216352604,-0.3880315356699594,0.6396221349415796,-1.7166340962534468,-2.2029640641666437,-2.332245029057599,-2.683508244845738,-5.370926161030975,-6.371025304040487
105,1.07727302603212,2.9313890461236483,1.8252255317082424,0.4840866312054773,2.4978305326213524,1.4656896111164925,0.5377074250370386,1.251242312699989,5.436727376041059,1.4231187320259542,-0.8924181827931064,-2.4528436147379034,-2.442468403475008,-3.8648992960591437
106,0.17617227025724672,0.38552324264254895,4.428577947715306,1.5039759245964233,2.4236209947939416,0.5763730965225029,0.6425853620423385,1.041362625449651,6.7340057909471,3.1977905919385092,-0.21558314507300932,-1.6470619230165906,1.5135808881587725,0.8111230483867108
107,-3.899984274571143,-5.0780670351393145,-0.3385161318256671,-0.5742536254514067,-0.29564401994879624,-0.9484885919830082,-0.7878035614379535,-0.6469282125187596,0.15235039313458593,0.08850176219198057,-1.8907136071101116,-0.7344928488430735,1.7786905850243626,1.6296559683757659
108,-3.8797140522077136,-4.137978716689812,-4.4697464079828,-1.543300113606712,-2.049762958533184,-0.8884483532446458,-0.9315461627429893,-2.236797631722962,-5.6926268545350664,-3.631499588078099,-2.257360484933625,1.49544064067728,0.03385399467009501,-0.08348803574083706
109,2.422386774195273,3.9570546041306907,-0.7430355889952762,1.233525322363414,-1.0987220557227144,0.7217481302017159,1.7073776441704176,-1.4147631707585173,-3.1863389285046533,-2.0881698119779433,1.8160039326132633,4.409107970799711,0.851207995401878,0.7796170428010439
110,7.773334176568522,8.753685846966222,5.734855782077619,3.7162193631981983,0.20428319247731574,1.007479446747446,3.3645383162221147,1.6522743070766912,3.510295559356224,3.1787882549203936,6.594418996857103,4.617218208116923,3.8376306148147044,4.1009631575663255
111,5.252167226122806,3.1927317630350602,5.207458296523104,1.289928309983436,-0.23696499469313248,-1.4143004303586957,0.16431157283050274,3.6513543223216556,4.552654918032235,4.8281485043165375,5.2586968877256455,0.33832211903025367,3.512980163913623,4.037554404280828
112,-2.549337691200656,-6.1402834491688285,-2.111835333832596,-3.557121095274713,-1.0143940373285765,-3.4851245437550933,-4.791461774920831,1.6769950695598406,-1.4192029549388103,0.3888060853716409,-2.2210534223372815,-5.037442840764508,-2.1758733896986624,-1.6957030043660923
113,-7.156668074990271,-8.095174207173411,-6.708115509770039,-4.45329893081294,-0.10004110803033354,-1.537608092157692,-4.680600068426643,-2.8012105733456885,-5.805923663129875,-4.041792479714086,-7.591407847691849,-6.0312752319978795,-7.29340763245795,-6.8632253147439775
114,-4.5683529571387105,-1.679369309490565,-3.5269311268999117,-0.39813112670076517,1.5817308588371686,2.936369038167517,1.001058462328735,-4.950676032382971,-2.880557394947106,-2.9807419677843727,-4.849921073581132,-1.5943400117705453,-5.297693259225926,-4.875233295857467
115,1.0055635242893557,4.246464009989142,2.0114676435998033,3.056515148127138,1.6996321424445489,4.547600406852147,5.084487634641676,-2.2204899982832313,2.620215047244911,0.6083462942103179,1.652265974511794,3.403054481908928,1.6584056087725176,1.5144615893997733
116,3.309987466110398,3.9134312138064464,2.9520014630444966,2.06608716567106,0.1606660363006901,1.4214853819207849,2.8435413997258525,2.4306077704751514,3.686906309390832,0.9452295465497521,3.633964553031292,3.996396152008953,5.537401948980945,4.258004472625852
117,1.4350648986874057,0.7823194121510323,0.1281944252651455,-0.5189431916963283,-0.9415986602601615,-2.0439992961491025,-1.606132657999843,4.3108249044880464,1.0985870648069183,-1.15237024772482,0.47333223888567316,0.833141039802451,3.3402927414245176,1.69784871921924
118,-0.4443881859288725,-0.03193246088750472,-0.8315563962552907,-0.4002646846942694,-0.514947095975006,-1.6863486318936332,-2.1078922237125055,2.6362510214757666,0.14862277421642936,-0.5400190586615494,-1.2363085341556843,-1.489174613336797,-0.05265971228029863,-0.4477712220728119
119,0.47915819346764094,0.5683289593915267,1.501914217811316,1.4718585267058044,0.2090651533610357,0.379679592300734,0.5624380719868872,0.25190075590759897,1.2627057052634714,2.7975320942885697,1.4381986096715667,-0.662435400127622,-0.2583012362331578,0.8090957002773738
120,2.0976685192314664,-0.8315914880681418,2.89312060389122,1.036233892248626,-0.17728812990935253,-0.2764713102921433,1.1627884018324826,-1.1763265708944473,0.33625189435638514,3.5036510947019375,3.724682625342543,1.030944519169418,0.673177712329316,1.7630899252125296
121,1.0985169178641954,-3.1143988970955525,0.42851419716679634,-1.9256214225930048,-1.1253889563576787,-2.8027117238103547,-1.2151154668546889,-2.5465373433391987,-3.1368744527046464,-0.01806136399006132,1.263188790871589,0.6655861932294598,-1.0571659942039688,-0.5422596125177056
122,-1.9411199215344104,-2.3266729928604124,-3.1337931692773946,-3.3007798725943016,-1.057380382125069,-2.412555500789609,-2.3498183347141466,-3.8570157759230037,-4.586761051955132,-2.9181683972643784,-3.19215827368877,-1.2871569638774158,-4.228592476377774,-3.2058411661092294
123,-3.297580251509452,1.2310538206502881,-3.47836780488666,-1.045154425356015,0.25228283798228973,1.4441407056233266,-0.27167402164675203,-2.769017009296611,-1.5057805970419156,-1.875927662546598,-4.172956789686416,-2.0509927153361835,-4.0627432778874,-2.498239017690516
124,-1.1957685912559575,2.958383177611305,-0.4576820292642817,1.9770699397758342,1.402180186629334,3.8454698186984615,1.9214526398076273,1.6606377959243757,2.895031679559814,0.23393790662908379,-1.0153222649211529,-0.46638469309766417,0.8280821631312263,0.5400937680218755
125,1.9140481385509043,1.1624355833468802,2.400791519025638,2.624276173286346,1.3780107919071591,2.2232802827261438,1.5962690333528613,5.988652149229219,4.486208598584426,0.16899647251113087,2.2617802443170185,1.6572302056648687,5.924366763381255,2.405745676101403
126,2.486931635968921,-0.6425123682641128,2.459614137459995,1.3922471247835047,0.6472548317654463,-0.055787107074511275,0.2929413559974875,5.515122007727431,2.9182667881849085,-0.5977015596123634,2.4912513689374767,1.9229209984778504,5.778569735257767,1.9016519884450562
127,0.029048689180788945,-0.004898430806614347,0.14446328695004695,0.04951611507673838,-0.038096056582284446,-0.07798888367193647,-0.0026002650416244062,-0.014454102864603854,0.08035731969436014,0.07943871337100437,0.08125779059591051,0.08990130174613609,0.1727705620593555,0.14663337495052164
