,AF3,F7,F3,FC5,T7,P7,O1,O2,P8,T8,FC6,F4,F8,AF4
0,0.046376528605292885,0.011396610458585171,0.07912052680329965,0.009514307406204136,0.01107872868495944,-0.03173052543127522,0.010070279687821643,0.01249573722623485,0.006668571789514105,-0.029711860530399314,-0.01687567017782767,-0.01802719247116681,0.007228195600380356,-0.07526161225035924
1,-0.690568924291622,2.263394356112203,2.7192698937267172,3.6792014094463386,0.6293589849983037,4.221368827922385,4.930495177353887,4.642923628067802,0.4749426259343611,1.2405265485644075,-2.2888880036175077,1.6490007653768852,2.2203720827342606,-0.58978891616537
2,1.4036055998095862,2.9992925304604108,3.21854927119978,4.4950357426767,1.4131837813540018,5.33148365269153,5.986397415126904,4.431839034559901,1.1170326849792396,0.6114694146854509,-0.9962571524962669,1.3118435989644774,2.849295196690534,-0.5885642178175587
3,3.3041042686872117,1.27353971207974,0.7295313324360769,1.7100810249339031,1.346154613837639,2.114562966886771,2.4226148022194405,-0.2527496835160674,0.38202108942903057,-1.903336753058053,1.1595949836898245,-0.8173912494981406,0.7115328554108583,-0.6697389446449072
4,1.2563523637951532,-1.5257212005660779,-2.8120631798657216,-2.291866057549493,-0.2999045002577742,-3.0920551126559177,-2.526333598560895,-4.127795273491798,-1.5354069757465798,-3.3690360983510415,0.39876135522266054,-2.058962436540208,-2.533759550362595,-0.7733170852257135
5,-2.1990589458347887,-2.2193713857173134,-3.555669831752584,-3.7379180205905898,-2.012953084717557,-5.501281406984747,-4.493655889622977,-2.907147486475065,-1.2355590779765355,-0.736414988798816,-0.9861053010377607,-0.14467698750120486,-2.8048682244327736,0.6173313186327648
6,-2.088837099117545,0.0731984724501054,-0.12736144362781512,-1.3451918197187616,-1.4311113551515302,-2.372443236603449,-2.328656746211628,1.5723605129178422,2.171534923857954,4.256339576183296,1.0518453882823162,3.274315330818062,0.7987366887130215,3.349324861570208
7,0.7236082488878539,2.116688353092612,3.6139712440390053,1.9884194456853261,1.1207667624284945,3.236992825337253,0.9876161158211878,3.501795009651273,3.8393080748963424,5.655030826177009,3.867334295264304,3.5464581108338153,3.3401861354388593,3.72974425504001
8,1.0698316240122112,0.7925448629448979,2.8248760114523264,2.4804517528821433,2.3079132154728366,4.996764690157976,1.931736951577986,0.4176825871239861,0.009543401686444112,0.7608363885792426,1.4368026624907497,-1.1281059726203098,0.5876674689465626,-0.8310899814657315
9,-1.8827010169104679,-2.405793132141572,-1.591296434570415,-0.08516813332173497,0.13989557727077565,0.7211452976535339,0.10974360001991078,-3.5671932446191423,-5.252877417927288,-5.39737650866624,-4.873925853584899,-6.117576426188538,-3.898559256568151,-6.424051585332099
10,-3.2266797019107805,-3.344723951195398,-3.786041561210592,-2.5171467535314247,-2.765244097084047,-4.41027087253565,-1.7920466831447637,-3.0579002017722647,-5.027543046649714,-5.8397957787152786,-6.618441429158111,-5.172825916180767,-3.037802954669901,-6.072750942728765
11,-0.04938333149775164,-0.7119684812860458,-1.0495661824797262,-2.2930256963891,-2.286603442431527,-4.076567132102128,-1.016284983350718,1.6127595800908154,0.7626882204292726,-0.386647580450743,-0.6354692219804419,1.4839590516133712,3.0764716078158534,0.8771205454227144
12,4.069161880926922,2.6834812509576937,2.591112825365441,0.06689932723118738,1.3992820428042585,1.1222828273354735,2.2324378387716646,4.811279425993891,5.381839054409497,4.376714394701358,5.841574885346542,6.779699500660154,6.272076902541797,6.75657342010092
13,4.051294853143985,3.6371660024282195,2.485383917491161,2.3684679810419844,3.6603429140370762,4.73641585827013,4.362084629326497,2.722744169930322,4.268475821588141,3.486562309698715,5.375185579189595,5.217246906797316,1.602824565109669,5.078835027772353
14,-0.0906174307304519,1.7205468415331897,-0.4325712889853152,2.912924468295587,1.627048967293119,2.928019824168337,1.944140946693594,-2.1386383776265303,-0.2291975692987581,-0.8377559326282893,0.004921251467368569,-0.9323253145553698,-5.40049302761447,-1.0820359472911836
15,-3.6927399923367097,-1.135914096022631,-2.12541993046577,1.3749353784547595,-1.9008640968352022,-1.4432339030245964,-3.4701416375917824,-4.356774591259436,-3.2247688335304527,-2.800562859221524,-3.146271922270422,-5.093529835144302,-6.220967945249085,-3.6955734140160366
16,-3.136485030421058,-2.6488579553582214,-1.318854928746744,-1.0948108774654952,-2.4809941691223454,-3.4453615805996525,-5.852373129243149,-2.0443177209299708,-2.754871216847075,-0.3172662764663385,-1.7975830461588314,-3.8495761212295214,-0.7283170139111608,-0.8508099348994013
17,0.4694447322483659,-1.7369675715469974,0.22018238176229074,-2.5271411100609953,-0.14332471689337234,-1.8319202447933516,-2.052660446519556,1.579636460184837,-0.1732990154316522,2.902261616526901,0.3775628979974144,0.5095682396663137,3.601738039169794,1.619290750553018
18,2.9818293974125547,0.5338947221895797,1.2735891483122932,-1.9128141506426415,1.1674117711083498,0.8014846342349037,3.2921359085997777,2.5237257744217025,1.9564505748995469,2.3043990585506897,0.28449971731331036,3.3471301985934736,2.6936734558471054,-0.25818531317000104
19,1.7693855480806917,1.519992667450231,1.7974988426301022,-0.32697992997880754,-0.3092831687644278,1.6931242123550878,3.643769765432737,0.5436636962192819,1.5819481392867414,-1.741090887338432,-1.0810247553998502,2.276479207163347,0.7896753266331928,-2.8757546972952617
20,-1.5407316664568216,-0.08421434219212766,1.2088145587577497,0.5255513941911543,-1.667535578683513,0.6049093430362723,-0.1877881610829402,-1.1955509345677475,-0.8999233646228172,-4.319959555167034,-1.2890953492140966,-0.9190560237416555,2.3890587912895134,-1.6375033089343447
21,-2.8919292641121834,-2.0283551186043574,-0.8357311652521149,0.5478738252642463,-0.05626576677822333,-0.5762165849295509,-1.611572179728207,-0.414713374644586,-2.2687631498291716,-2.218488903668664,0.1575966524449959,-2.493049465536586,3.967334596865577,1.5891633766091253
22,-0.5351568594128764,-1.0604198266918192,-2.5680270137545365,0.8889530273336547,2.6837352986355545,-0.39797478727063157,1.2557200429696826,1.4192861346478656,-0.3816578603062185,1.903096918881353,1.7893847362298962,-1.0370305190689988,-0.6519570090562641,2.2704833031877625
23,2.6647342960383478,2.2749501561456493,-1.7955592174568886,1.5913464607780368,2.637868794499786,0.40642268191968495,2.759012336360093,1.3321337384030743,2.2203451617930607,3.2313887751205184,2.205920371694409,1.1876612286239048,-8.567741487052729,0.9070030374273185
24,2.6198320647918614,3.751901073629284,0.6921047095792019,1.217622078595361,-0.3457793941216152,0.3251814870534542,-0.7933413514096822,-0.8283182051190775,1.7144608904703962,1.2827357958221537,1.284255263329426,1.6528906850320462,-9.267614486840735,1.1154474226110307
25,-0.7529533066481822,1.0676956546096887,1.7771941557796496,-0.6855285369037503,-2.6245156801380416,-0.3712787028086404,-4.729871445505457,-2.2078646906020394,-0.9687460679757025,-0.310908646954744,-0.31443602436187157,0.6529145296012555,0.22606340696561347,2.1363183606645997
26,-3.3270605016621393,-2.90685146376365,0.32776409446875865,-2.2383335642102264,-2.158430637890143,-0.0839605758717067,-3.0977358678746234,-1.1956156417260284,-1.550852057838383,0.10189238859735211,-1.9300527885002887,-0.18016523113862004,9.354417819285045,-0.13097934057486077
27,-2.010670090378247,-3.804357473684679,-1.1817963665009315,-1.544194173198827,-0.5727682612825574,1.1342025132828077,2.2257023294483536,0.4892893502616329,0.6933689391715191,0.17916683757665625,-2.810951498176042,-0.6473888637449193,7.969161588965475,-4.944165633531479
28,1.4945758454725369,-1.131130502437158,-0.26087323532816153,0.5071063498450217,0.3966868933029234,1.0490443767637174,4.453771749729633,0.8642989604052247,1.8604478635551926,-1.6558824093927065,-2.08027649787392,-1.3766934961870083,-0.1926038514804751,-6.159201709519303
29,3.1548262098718456,1.6935886830117612,1.9283530506130082,1.2932686130530735,1.0652661245646304,-1.407638707728382,1.4982468949146226,0.4643210367123523,-0.3799845415622212,-3.178711114344721,0.2446043571114806,-1.6978641005468835,-4.388627080866158,-1.1851178405811889
30,1.629943329927863,2.038272450469677,2.199642671649796,0.15241263048285253,1.6509444260200912,-3.7588798891665123,-2.142604520378351,0.5627110308982002,-3.2828337449444875,-1.7660745728748923,2.621052169724695,-0.30085741457037196,-2.033784633375254,5.064537040460309
31,-0.7147103741589045,0.9507695817307181,-0.04651252628331704,-0.7072424777564194,1.2160896929626934,-2.4933393232533376,-2.3074637007888326,0.7772816700013824,-2.8465633768052996,1.7677154108236042,3.285561071860177,2.2522404931452504,0.6400448351176877,6.952102279466152
32,-1.500060339042755,0.6736709479195594,-2.09869535231888,0.35694593445572,-0.13954850792291235,2.3456053296877957,0.08720403272942767,0.3295107155646489,1.1073712081650875,4.2879648197205595,1.9663855176045448,3.3850472780274323,-0.1267917405584612,4.083118656399263
33,-1.1474378278317745,0.8507418272117506,-2.038332385549692,1.7601866534365285,-0.7888062689589534,6.297106818117977,1.6880818435394154,-0.14207039026413082,4.716716736706112,3.6939801631150484,-0.22470218708066714,1.4042828071768352,-1.5766572272392692,-0.8728356499840866
34,-1.124832169283403,-0.6169885204749159,-1.0498015623959487,0.999389617677834,-0.3459890388886876,4.828867740634859,1.114758778590691,-0.05323592117880564,4.2144994479903275,0.39865989345412656,-2.0549994204375928,-2.1607656807140176,-0.9637590542007679,-5.360212599611942
35,-1.0808268065002287,-3.277967744148266,-0.595666672270205,-1.4901004286001913,-0.45210326175080634,-1.591385654297814,-0.4694056564400119,-0.5093736843629553,-0.08528271653276592,-3.2413066403396726,-2.804478543757711,-3.8179877926461776,0.41834189032936697,-6.483065441941947
36,0.20296802723545965,-3.5524782984771552,0.11613267370592253,-2.751732960923331,-1.6695013304288455,-7.240659143943751,-1.4818686443286264,-2.183711405591458,-4.095045988015066,-4.612311949892352,-2.3146574229196086,-1.9461135208416693,0.6457898970080992,-2.536170361580988
37,1.879701388048828,0.23480060886746426,1.8849512571338163,-1.2753313518612241,-1.928722321208932,-6.5601230747683195,-1.3433057295539546,-2.9601932259354222,-4.420367775534562,-2.94072039098444,-0.9993320779936689,1.1540374496601726,0.15314989706134696,3.100091464989226
38,1.7984007719176698,4.511678814424068,2.9569136387042163,1.2360365969395946,0.2819479459722334,-0.06884016800783309,-0.4158637463731132,-0.4544799441434012,-1.749369413159307,0.14355074670191714,0.5828557352667687,2.013105563352457,0.1261239421403706,4.414870289222266
39,0.26711962637067577,4.484935669682398,1.4334443352804789,2.330223843327454,2.981030730169472,5.8225646704303164,0.6770007008299478,3.772690869619649,0.9146764172390751,2.5425239469833896,2.257313481913598,0.5338153460921168,0.7182823982805913,1.0420585668888436
40,-0.005514844304436026,0.3408076618053366,-1.1904418401911605,1.5830756554505174,3.0797732267007643,5.669191499893313,1.5878851031971908,5.341784397848152,2.204598352320585,3.620914706424468,3.710551750097524,-0.08030990296018628,1.593441051046038,-0.8183850147978907
41,1.300017808327204,-3.148314917996546,-1.8892768703826062,0.20699989117148593,0.6700454645506876,0.9244117745046948,2.0311048615816163,2.4827955522542697,2.9362215391672275,3.6059182993310785,3.6517858412027833,1.5349728477890836,2.165791880088487,1.8907924975182628
42,0.760057692056945,-2.914935907025314,-0.7052077061355877,-0.953319269068355,-1.411981904902611,-2.4709428829237394,1.2982323521950991,-2.054710061357438,3.330528385004464,2.0613826244980946,0.7957119570047517,2.3605900640883397,1.0884707202013006,3.708863045237808
43,-3.100318476975116,-0.8533237923099277,-0.32894860173402585,-1.7777370299218773,-1.817095320424482,-1.8552012886661957,-0.963079445355176,-4.715815104349193,1.8748569700771087,-1.4765534833877,-3.829110626070364,-0.4154986719372174,-2.2967931564185715,-0.8478722961573188
44,-5.8908760077098,-0.10865580638403385,-1.3500544516119248,-1.8319959880496965,-1.7651590563739357,-0.4794558556394014,-3.2963395729766467,-4.4288113767726305,-2.134365880998683,-5.431089310149329,-6.633344081515698,-4.369073788216846,-5.607978870463417,-7.561029285672993
45,-2.7707797924143063,-0.4761047540670908,-1.2986028132780287,-0.5346668665063227,-1.7500964050793322,-1.5112981816060713,-3.2526158022816016,-1.907989427704174,-6.076177315081946,-6.356727713297072,-4.62252565672782,-4.472072498806574,-4.822400894293126,-7.234547344109476
46,4.084158678168787,0.5679737521746671,0.9767456015522082,1.5204532124016692,-0.3412254747135405,-2.6167196896908567,-0.3676519551364871,1.72148226808078,-5.707056955666275,-2.2589619245797774,1.2593011681139432,0.1199798367375974,0.7889313047859142,1.2698185638232984
47,7.496846567562182,3.2228303095635016,3.0595453289887944,2.6439137732545177,2.4619820810307544,0.15789460978552022,2.9584617413222913,4.604418943987937,-0.03555730896307356,4.4677901878263295,6.466537791461921,4.808787212989162,6.6132007805418676,8.717693737445087
48,4.273144774139073,4.112625422245294,2.438545435926453,1.7954983745014512,3.652366369490339,4.822346093047223,4.064920117354826,4.573716299763036,6.294310011627099,8.174926370315841,6.739052706847226,4.986269533052059,7.021297334449349,7.257836258408121
49,-1.527203418796282,0.6501236136721704,-0.06741971313985735,-0.4577570102782265,1.2097473148276376,4.731861450859483,2.2668823542138288,1.3697503101785082,7.0131093638546345,4.9774218940804325,1.8481082730554825,0.6481323121753308,1.4143560513380176,-0.38089339855050125
50,-4.604043778612943,-4.636351745921549,-1.9075648401675331,-2.586155215968685,-2.4269556512914088,-1.5463779431518385,-1.3434860364692929,-2.531083697149119,1.1787336467450247,-2.7511020353750135,-4.183615504051609,-4.207087774605274,-4.920792118549672,-5.812022899051229
51,-4.186114041984911,-6.139500877564121,-2.157667407272064,-2.993781659308809,-3.2832655812423854,-6.528377168000689,-4.427743333314263,-4.232091244033415,-5.1488761689564875,-7.766148132071915,-6.5669028366046325,-5.18737950484526,-6.233667918783632,-5.261246745308445
52,-2.4502715746177435,-1.840650362668569,-1.5883625102489383,-0.9554532462321259,-0.9147141051665184,-3.4736561094630867,-4.112372173808881,-3.0212342063298365,-5.482662429934476,-5.231760544144497,-3.757954402048237,-1.1235334167727702,-2.1355316899617844,-1.492160539489432
53,-0.2664874255440067,3.8588410151931436,-0.48648414479592417,2.187699744363609,1.6438601352483562,3.829799740430102,0.21330098358791627,-0.32175983945863096,-0.2627765586530732,1.938740170680701,1.6382558129869509,4.373087050929771,2.630442814206361,1.889815687495863
54,2.6806933537079876,5.27282015584243,1.4739489566918058,3.5339107464142856,2.095441550098641,6.011991242784681,4.771480904228556,2.1161254079199696,4.1389707536627895,6.4797709923902795,5.380926101130883,5.747758953674206,3.853582996015594,3.6943107713607195
55,4.942312518531162,2.0514803332197102,3.191875943542813,1.696991105383157,0.9157544257114686,0.9359502214971596,4.704572034696003,3.2241742378780196,3.250764987100471,4.645856596389069,4.737030053103075,1.3617409710780082,1.7692808709834114,3.435733278154946
56,3.7323012200793317,-1.3594928941258513,2.2101399100931323,-1.338138047073595,-0.44600432814038643,-4.281263676423408,-0.06522183357620369,2.409061872513429,-0.9423646873550959,-1.02863696421425,0.21505541076717508,-4.378412275667318,-0.8650715689238803,0.674805474658253
57,-0.9990541803929149,-2.0403927551121894,-1.6675684087519813,-2.6578651380337877,-1.351513780396568,-3.855693868846442,-4.412390001593422,-0.2364865576239416,-3.530592893772008,-5.5129810239469,-4.508714475423179,-5.943604064331495,-2.3145636840139643,-2.8424821079820695
58,-5.067777542694712,-1.4410066907337464,-4.415425520676629,-1.7319487629663746,-1.6027020257738176,-0.030209845984117925,-3.918951692599303,-3.0160600263622697,-2.41331558207623,-5.445813393232639,-5.124144932925226,-2.44836200381576,-2.1491726212734408,-3.6819760368687033
59,-4.352240843198616,-1.5209616841900513,-2.177743254835873,-0.06323746013782654,-0.8157350606534624,2.2065406713658886,0.36392471742661264,-3.2618074334255462,0.6462572895403929,-0.7726266182272422,-0.9179810118839701,2.5761611563498743,-0.2158556504071814,-1.1952990535740633
60,0.1897248960209523,-1.276574985381717,2.841838867437015,1.1946916658122244,0.9194717771684526,1.8622336853281738,3.5599984384852195,-0.31588152471743014,2.8560254000882956,4.939832760410053,3.7748068476081635,5.30843240685038,2.3744030680571075,1.1055598797255355
61,3.56616954436051,0.867191507598229,4.329422953076323,1.7236150959337737,2.348174557529197,0.8353129288388054,2.4599607175462883,2.8828442759347293,2.672377908346798,6.558689358869686,4.062663285386067,4.112476754619103,2.9086566727796352,0.7748302346625184
62,2.79848956047781,3.358418157100422,0.44053805574244964,1.2047398735559443,1.90282559441187,-0.01958705768921931,-1.17437511818113,2.9020453396832337,0.3998719544861719,2.378210435685877,0.30918715157966936,-0.05941580152411386,0.38065342033412897,0.26309717434205193
63,0.029307601886018518,2.9181070726722553,-3.38438861827573,-0.32896750666196556,-0.49612911258612524,-0.8115555232311105,-2.882444377087686,0.052932268905337865,-1.9733798687691972,-3.4390336441322864,-2.4955973728321177,-3.8992191180242455,-2.2483005585451603,2.2542494662598123
64,-1.1915096511841297,-0.8268616332714264,-2.2586762429632232,-1.7761826431677321,-2.8117721664828514,-1.0943083143700918,-0.9067528282542375,-2.2683427048055282,-2.291010373986703,-5.4777044990578965,-1.3901357566569748,-4.087241620173164,-1.943540622708113,3.8396649188511165
65,-0.6826164789339024,-4.088369449179086,1.292527152788374,-1.8035383083085477,-2.6215331020158557,-0.7036126312077786,1.8153439287089757,-2.0350401148870723,-0.633149910356847,-3.0920056639255433,0.9894072227112976,-1.0022149039942174,-0.13741229253857898,0.5145531371762864
66,-0.6273648942785207,-2.9907834535827518,1.8939453216004616,-0.23521473600773854,0.24088955324196581,-0.2964676354073536,1.9176124953993912,-0.31312976363201683,0.7527969578822952,0.35532202813616903,0.8722834158344424,1.6194390596173347,0.1225815224260905,-5.241397025763602
67,-1.2055947869014971,1.6448178999482368,-0.34172521432033337,1.809494630545328,3.1165130557870766,0.2084436222974441,0.17535296071766762,1.1819109131685142,0.7131056855949913,2.627869662100245,-0.994289706985811,1.7553924233354816,-0.31679991990028306,-5.797026564797129
68,-0.41528792168471373,4.592990515778862,-0.9604541204273964,2.7030193076843987,3.0873682126556545,1.4678042583109105,-0.4699032348176878,1.869015338391665,0.6727943623652582,3.7397282826161184,-1.0953349958295109,1.1783796875340407,1.1810438697646877,0.2846478652957151
69,1.7029455925925652,2.1054904783727317,0.8908333040150322,1.2908151470754983,0.020254132091821274,2.1534242582565812,-0.032775315766904047,1.435831620103467,1.4747012824788421,3.0466326214610953,0.6823071931556756,1.180313005858866,2.862477526999703,5.145056618656082
70,2.078242101386841,-3.2285076749471395,1.2036209019839366,-1.864044856753863,-3.31134623751895,-0.13052087091774606,-0.9938506014666814,-0.4334760313190714,0.9618110053070479,-0.6131954442753409,0.6865622919831434,-0.03945072155339967,0.5429330873962298,2.7061385316194992
71,-0.5567957207475738,-5.191937109434432,-1.6629657877424602,-4.121353215077273,-3.917234459182352,-3.894263321554334,-2.964511612168459,-2.6005338405411385,-2.3977026438969458,-5.2002431099980075,-1.934554090528119,-2.9646976883819764,-4.23362672293424,-2.6913582131076317
72,-2.6369642573924534,-1.2948660011082433,-3.4474709975756457,-2.886410635148631,-1.0838933408364682,-3.7834670108233364,-2.165220201992361,-2.6471913253752866,-5.052230329152384,-5.566290093304901,-2.4887234451922513,-3.519022165790698,-4.412707336001633,-2.944582506862872
73,-0.44419405916654997,4.481074090134548,-0.21843734195349837,1.3975474253369886,3.1617800320303795,1.6698985953653034,2.3547901666488786,0.15446067734109742,-1.8674945670085041,0.36728384279981935,2.2881840598586662,1.2497234646119493,2.182007635515294,2.407022002733635
74,3.66469192860284,6.303007461643996,4.9721206062773655,5.085494416282562,5.357309759427498,6.288590001324159,5.790853909422883,3.1824934464959598,5.564102771951985,7.325600073907633,7.409021390937748,6.65426848223922,8.023802803363333,6.102630681062072
75,3.3932549122292492,2.1535441275045755,5.252139044346205,4.629066627210855,3.15956874367891,4.137795922560756,3.5575270512483943,3.1870864581208824,8.652028486322267,7.378262148812323,4.817346590206015,5.018015004111201,4.990298998768551,2.7455963858977905
76,-2.5814348688781457,-4.6951421046583555,-0.8781426345994915,0.060572181627745816,-2.154730159914558,-2.17851161032404,-2.2933892413730064,0.20047972152156873,2.355028002012777,-0.7551206219286308,-4.911675801607869,-3.4128340436803213,-4.744708145385035,-5.0051568801976325
77,-7.308771003643038,-8.104152825379177,-6.779962819088539,-4.720765586347016,-6.080452028368465,-5.542819109781906,-5.581985433991332,-2.56496205116549,-7.3040169717646055,-8.987830213818974,-11.296355905938345,-9.290279819264878,-10.631046299393642,-9.367082577027253
78,-3.9523505005746467,-4.10253396358031,-5.606391970036981,-5.441088452766358,-5.009322600850479,-3.8341808593095035,-3.593978521113324,-2.653443176204138,-9.898321644615338,-8.191573483709913,-6.590238302622641,-5.602618042234835,-5.956268193649575,-5.216138624125345
79,4.546571399298245,4.207782559966838,1.0514086830947071,-1.699968945119232,-0.024343196352611143,-0.5589742004684138,0.6046220991462636,-0.8335704866549954,-3.0136059563738806,1.1108431820087752,4.277692462569491,3.417741695412028,4.485818861162331,4.242587733340113
80,8.408237911812453,8.391759189561512,5.318880938245618,2.681521201607576,4.2968265293738295,1.8011556173691585,2.8740032858156246,0.7573075626494356,5.69901086277637,8.687106100925588,9.933797502506472,7.799478096057243,10.012512628973585,9.767458208244774
81,3.521019531628009,4.154466376202209,3.275329472123556,3.9872228193612034,4.804609971268521,3.6090484954259816,2.340875246915025,1.3683852116751616,8.085592401758449,6.480177380119933,6.143654392238018,4.156339046903133,6.049982051089363,5.91380178768993
82,-3.6838775535495563,-2.9702812328342896,-0.6935537778081453,2.3414683285328706,2.4376658437506324,4.186666988287639,0.7565927358396977,1.3843467574128288,3.5163862110501967,-1.7902754841015087,-1.032227786002744,-1.3952084720250744,-1.7350169071705581,-2.3191118277315708
83,-5.4610938110099765,-4.899110919623441,-1.0945315947060825,0.34358235955049793,-0.14416691299561657,1.626326046700576,-0.2354680555351449,0.7510430367260394,-2.5873714161941463,-5.886784270776169,-4.409656911996514,-2.510018436436918,-5.44017506353369,-5.6599953992586896
84,-2.187740363574113,-1.5239058234130116,0.9142647758442397,-0.7189577082606975,-1.971465013610324,-2.8460644860099595,-0.3104981996501861,-0.5245175840147241,-5.015126150840271,-2.3087130427256075,-3.344360071082371,-0.4540076976697761,-3.8983554704925836,-2.261377734795928
85,0.6559534560583228,0.8449870381505395,0.4644364024115731,-1.58484632140451,-3.495299179774656,-4.820245501958472,-0.2480037730443878,-1.2544966682292875,-2.844214323607597,2.3910131069496168,-1.4873149790183071,-0.2779306364998514,-1.4104589420163895,1.2177256211259508
86,1.017445097830554,-0.279901757551152,-2.7019023588752304,-2.5337058465426128,-3.990627902561978,-2.447316052678032,-0.9437794035631766,-0.46065682716495976,0.7590945674834906,1.9497063272815907,-0.7294335266084127,-2.479298043111746,-0.3060866617905725,0.057583755901223554
87,1.1313709667621197,-0.9955193087733492,-3.692951081810653,-2.2615891679087037,-1.6783648170124215,1.1167326853067272,-1.8179098939472047,0.7244969615592473,2.195210294070264,-1.3023308569511025,0.05559223474783141,-2.8271460432224664,0.9501799593211193,-2.4418461765446056
88,1.9678498833762497,1.1724700359494917,-0.21527386462739143,0.07713989066377654,2.893019223898055,2.3594383632921128,-0.9184414164407215,0.5122846750536851,1.2555772357679662,-1.6094142083454366,1.716870505376847,0.4464162459818915,2.932054142826892,-1.311184077788322
89,1.715116247858644,2.9999079000634707,3.6710419172989157,2.959053706714431,5.708120085073356,1.5407121917044553,1.9050102751050333,-0.6948847268153334,0.42340276884157274,1.0522100889449764,2.8778087746721206,3.7111756818400563,3.2392002004231615,2.4169413466614227
90,-0.38566043981907117,1.3273438258299566,3.2968901953494063,3.674745382035966,3.510760955833618,0.6511548467935355,3.266846416967677,-0.9903112457711198,0.46907761437949674,2.0004781003066268,1.814431095770435,3.193745585519496,0.7361348925693654,3.999376334241116
91,-2.4851230617967737,-1.7540886561598803,-0.42394164871942563,1.1538320339323542,-1.7624926953235829,-0.005297166155198221,0.3967941628603237,-0.15310585295448167,-0.5758612230912332,-0.26803673358585495,-1.032625953015751,-0.11566261887592942,-1.970598667087836,1.8949957422543908
92,-2.851049202583228,-2.5569374196217707,-2.940509059851334,-2.7190504260305772,-4.820337268991685,-0.9970293163545939,-3.8561498902211175,0.2238454618507548,-2.9998871173148647,-2.420211687357815,-3.280058134774744,-2.4466482416434117,-2.4842415122120762,-1.3410449804525046
93,-1.4289592617389202,-1.0516446476233796,-2.0020844316846684,-4.4141642125165115,-3.0404592908678545,-1.5033723631618838,-3.730158507093247,-0.10621088116057648,-3.23546590004801,-1.7616221533584362,-2.8120663999910414,-1.8991754943652992,-1.7940652687928003,-3.127588162151869
94,1.2511528686748816,0.5249357378517134,0.725415879132385,-1.8420402234180404,1.0242376024721993,-0.41472704504329994,1.454066208901326,0.5355910060262561,1.075254324189374,0.8526743556111684,0.4541921162465219,0.377370026247878,-1.142361748453243,-2.5686816790180544
95,3.9884081337797572,1.4184874880662646,2.591174575044371,3.045693688063342,3.117026125177706,1.2944662442472712,5.59967669682212,2.2793594654889087,6.06694225584304,3.217130549861432,4.116984924195666,2.046207515860341,0.7037573402970585,0.2459368807355621
96,4.172255835817594,1.964914899978436,2.4062024039373657,5.3900042840998985,1.8289211074937308,1.5868185146657576,3.6475055315995637,2.427785219369554,5.526858871175502,3.6085234869080884,4.612609868630824,1.5569434740102874,3.868439828599177,3.504903162173874
97,0.4176746069013698,1.6800045634714138,0.5751442188981379,2.4833566986152205,-0.6764457059183386,0.2643011368883854,-1.9303971760806873,-0.5173778047465725,-0.7841339107304047,1.0157886725803227,0.5610401363931611,-0.5876992570812992,4.559473754805983,3.5860160357816344
98,-4.222061834656022,0.022739565109707545,-1.707034335728355,-2.8484355578729463,-1.6730065684340225,-1.0744295361098233,-4.8663510639226235,-3.8552008368543746,-6.370880474356499,-3.5230020754610325,-4.806909167828347,-2.18963920124828,0.13283727595668804,-0.9490912973066439
99,-5.0283859836594225,-2.2843691418048873,-3.2500257287831547,-5.379890978259706,-0.8354851244876381,-1.4835707718883697,-3.094134634132647,-3.9984141428303968,-6.049159094025368,-6.255438580267543,-6.258179855513993,-1.9142377075477743,-5.447508138585462,-5.804153267451749
100,-1.6443140320530518,-3.825261671031693,-3.26190197107056,-3.3744263002856334,0.11720990482091855,-1.2202233264967564,0.0615347600196746,-1.0674667994433629,-1.4352236702583439,-3.9990346388217657,-2.344464476451858,-0.821611273028001,-5.863489588828494,-4.840360406572712
101,1.7984248103303249,-3.339613777660566,-1.3447332110230479,0.4069891215701361,0.15923635039293782,-0.38178931874287275,1.4402764733295437,1.994277741317677,2.6486701029059416,1.8223051005902744,2.9299765897181245,-0.08945167525434486,-0.9553883251343483,1.8276185597893126
102,2.498226978519076,-0.1538793904544854,1.9997477822344392,2.945896959673665,0.06288089984089615,1.0625250048900698,1.4110374477690517,3.3483475692104383,4.052162900097824,6.205897597002651,5.0145792012357,1.1396940728838987,3.4932277394259272,6.872245276672966
103,1.6849130346165726,4.500890936403974,4.638813208471699,3.7293707189039953,0.5919552800075492,2.2241063812630877,1.6206070542322104,3.124708361913401,3.6517319087038747,5.753129485317611,3.6510635330187053,3.3427113943509545,3.986645981205638,4.723648654484821
104,1.2747738185612858,6.909389915177619,4.1191963670863,3.105463574623996,1.052089082091425,1.9875933883476113,2.090576283645332,1.6440544611950525,2.2631725306147357,1.594638590138248,1.4377086215560102,3.9510033628459302,2.6050330500505,-1.3819572091456298
105,1.0343581343360682,3.9809578581763128,0.741673223720151,0.762169223526687,0.5023714572763222,0.4779243892242876,1.5382849195590866,-0.9015214373664455,-0.18863194302600714,-2.7442869511918118,-0.5960267745453884,0.6198015911743978,1.5590613373623121,-4.244136372439062
106,0.057180244538095476,-2.5309352986296147,-2.200928787275657,-2.6089056527253036,-0.601306298121156,-1.3098244157142793,-0.6074062108478312,-3.3568803598093835,-3.115620925673633,-4.871651230112672,-3.193700533985958,-4.024162855595576,-0.4376177627058756,-2.2106403143630518
107,-1.3339318830567612,-6.917365296513756,-2.6196898949390253,-4.370043641941584,-1.0235663545025449,-2.6081709799593904,-3.15473976254964,-3.863762856567173,-4.717534397625789,-4.358952585942901,-5.2804489233528376,-4.927514645538457,-3.984634718716338,0.18914384311098548
108,-2.2677753935793206,-5.571487713743208,-2.159614433586158,-2.83208661169161,-0.5059535352784288,-2.6741841422452186,-3.9363074136947938,-1.6023374169387765,-3.4183041556113265,-1.546868027836351,-3.7338834578503834,-1.5367387244164594,-5.462604702561135,-0.07734144651671722
109,-2.302213299674628,-0.6743437538168834,-2.555973041788282,0.31349141301069533,0.03459002434293557,-0.7968442616372392,-1.8955168251391619,2.0188343679787057,0.37058842876526704,2.560142430089732,1.7943996286138317,1.7431538885960782,-1.6685022715705444,-0.8462033746115858
110,-1.1742246045439746,2.9980235551446777,-1.9978805528634203,2.2736528557908953,-0.07230317046135967,2.1689321017516363,1.4884784701807519,4.016675882522091,3.9575358107946284,5.317009955587445,6.4165229489873346,1.9995797110662277,4.210709766143151,0.5308619636885586
111,0.8702250482359015,3.358551104705033,1.3987087626449688,2.405555492473988,-0.37841048507167957,3.5124399693075943,3.454245402407754,2.3503606750940946,4.362024598147226,3.714494162951404,4.983459390848757,0.8110712306506654,5.459463371310431,2.5136602832622827
112,2.379588961134065,1.9247092144397853,4.779680995238455,1.571942485927207,-0.031357333739436326,1.6202085316596693,2.826330534769033,-1.500766687852679,1.340070576922516,-1.6223532148186803,-1.3118392204969034,0.44525843383001623,0.5616617302947309,1.7822109180152959
113,2.1059159639963085,0.818002408215252,3.9589288818948876,0.16507679751674825,1.011031887533711,-1.4518606579075775,0.9527393913938349,-3.365542747049702,-1.9456923824240078,-5.242869271424684,-5.68094981824084,0.781586434694161,-4.321897813477631,-1.3131994549400048
114,0.9218365742001792,0.4595980686910048,0.17521666037872474,-1.255888124021668,1.701189390168628,-2.147689289123794,-0.39054023993087095,-1.1199658893960527,-2.304701148789806,-2.6448904884775346,-3.5255286935841377,0.8138287287767552,-3.059481104684173,-2.55712909230063
115,0.3794757481267261,-0.06567486009125663,-1.7722554197348508,-1.3084684185333195,0.9311689889371254,-0.07466358953093402,-1.0497929281668084,2.3085243178790362,-0.3025798123817514,3.107150015256121,2.178356256400626,0.27970603625719015,2.463584347964046,0.19228980109908608
116,0.03431345382489975,-1.3413668345207777,-1.1933797463677456,0.04635682255578089,-1.0281512405947208,1.3796248743332098,-1.7970265001716461,2.561631551432155,0.7101711192693684,4.313069289358584,4.598840168761716,-0.8149734950414724,4.787321597418822,3.1864483673380635
117,-1.3791538149547735,-2.603600473146456,-1.5776336217432472,0.5547962809866559,-2.3843190537419754,-0.1782470043525333,-2.433195476572894,-0.36092520385519017,-0.6568298428462015,-0.807859361254277,1.3703513055535024,-2.075354163794257,0.7924308429102207,1.539282353407486
118,-2.9320967862569236,-2.45208531412243,-3.209556182323189,-0.8864610129087513,-1.6801025736649995,-2.5326833812341163,-1.8050642679621356,-2.4907205707731417,-1.9353681804517704,-4.874531968876685,-2.892506441351803,-2.1280098921868302,-4.221961550286416,-3.282911607761441
119,-2.422956949160652,-0.5490615672711138,-2.0428191638982307,-1.8384269479843267,0.3658913730479244,-1.817130936640358,0.35531152675423766,-1.647116460215581,-0.5413212018997359,-1.6223004028003765,-2.966325014785723,-0.1984413421454721,-3.899253128023181,-4.646736616987044
120,0.18492996854931976,1.8114404907708699,2.603077163852292,0.011201339172246402,1.6795433226404215,1.8200591703205025,2.6262801415587798,0.28712510340070774,2.257951204145255,4.572904215547354,0.3584178986155883,2.0361887511296994,0.6985575983262461,-0.10761807685391378
121,2.6141825969994414,2.9709612970113635,5.162337362411603,2.636241714021502,1.3990489516209537,3.93328018074444,3.2981008337366244,1.1357018214640817,2.9239335478911963,4.514518560455448,2.1447675288907324,2.1592577509394904,3.1819141723626703,4.618725844163682
122,3.1052756673092046,2.3169811331470602,1.82338298673715,2.3380535295882914,0.5268276771422381,1.68366204848781,2.0045915272642407,1.1868453379502768,0.5050350099629384,-2.467372947132721,0.41699811746093457,0.28467171920194123,0.894256123767106,3.5385382600533446
123,1.6354237030978314,0.42782239153026674,-3.1300182147867908,-0.5370124880093916,-0.02653255938479235,-2.1435665525699403,-0.2997203504494914,1.1000614262776574,-2.066630912315584,-6.9749560629784435,-1.623877535605149,-1.172736369857378,-2.0218506334298922,-1.2596831892484883
124,-0.8585263759024528,-1.5622479348239577,-3.2027787664410026,-2.098921826240593,-0.5608952567380787,-2.865401492098934,-2.3587331472822224,0.18146506012953684,-1.8978892748450644,-2.3033778372508142,-0.6941255661637079,-0.7846233827136286,-1.087002906715199,-3.113226987267867
125,-2.8317182765794104,-2.5607619943554716,0.9455615564551517,-0.8773599483619537,-1.2409098139077313,-0.3194913858979481,-3.196510301662832,-1.4932654655861357,0.20258790370748736,6.153710011752806,1.9375557246062318,0.4074644574343164,2.2652655546700733,-0.5625293200596212
126,-2.6161012220604003,-2.0255501924430837,2.795410135167263,0.40432137591393064,-1.2082117439954188,1.2915782267415274,-2.3270298135621426,-1.907633577006717,1.134594529900467,7.61968670068865,2.45551778933155,0.6969254980881802,3.04481017502234,1.4239079211033858
127,-0.16380624742038616,-0.3230054211519597,-0.262427260105729,-0.20433472651256832,-0.05334980355375811,-0.09844581018443645,-0.1455641281595394,-0.13851329143621616,-0.17953515501566042,-0.17665849019310012,-0.16848900302584607,-0.2022243686406349,-0.20791971700142392,-0.06439932745073934
