,AF3,F7,F3,FC5,T7,P7,O1,O2,P8,T8,FC6,F4,F8,AF4
0,-0.009555106859785015,0.03162445341017329,-0.0012869067590537964,0.024610433799549573,-0.019607244999557984,-0.03832468118098717,-0.07708682846693117,-0.0779765222894594,-0.1366182338736466,-0.07715980338147546,-0.055858211841706425,-0.026245783543485075,-0.040813026517453124,0.0026220241960165022
1,-10.562545635393876,-2.2719842318637107,0.9087388554986013,-2.2632151836689784,-1.0196252955841505,-1.4958639157952327,0.4065651443570222,-1.292222856830114,-1.9407293844919393,-3.77304822571086,-6.3570406825591395,0.027871723509508794,-1.4172571492005424,-2.8704569426245863
2,-10.002762066900948,-3.1766371613103868,-0.5154092201841158,-2.765276104242929,-1.426805286413737,-2.439942369275248,0.4551714113303871,-3.944788407018457,-5.399309279780399,-6.370147692971711,-6.791137159201696,-0.1696831751221768,-1.9808574527283946,-2.8476636580897865
3,1.0266281980174439,-1.629293560418108,-2.2325220264112544,-0.8895127671797425,-0.7592961781769604,-2.6258544040390395,-0.040755368958616096,-5.3520870046819535,-7.406861116944392,-5.701098975323467,-1.9574275979259603,-0.22170237321354536,-1.8144794227225933,0.09044910205848265
4,10.871872913730122,1.2676039821902203,-0.9645012874696077,1.6188719559358786,0.48208191970905706,-1.810790034815989,-1.0352108506958921,-2.376290296312637,-3.916855907903112,-1.311019188210245,2.537474234705247,0.13800002615739743,-1.0704011835924423,2.957776615513366
5,9.396637903607704,2.6262337565417857,2.231671823452306,2.177088099585664,1.0461595433138104,0.32726832648393983,-2.0032974147376756,2.8924713568721323,3.1774840047148905,3.421191386779272,2.9465702398156353,0.3041104164620412,0.47110171629555847,2.7471036978577095
6,-1.2715171388044606,1.434238578610539,3.04721379577825,0.7093119760489254,0.6563156632718726,3.2343852099326567,-1.512541157427793,5.214211501217593,7.327484206637881,4.7230577607403115,0.811000705914456,-0.2528499940554399,2.1611459331512215,-0.3424993766821178
7,-9.626573672231949,-0.14080027339851706,0.11867853816658189,-0.3590644054577468,0.34462631162433505,4.715874457057089,1.244967746021487,3.2346463605772544,5.536847796685749,3.0075711242639973,-0.2753743421159077,-0.8101659479860477,2.416885514114503,-2.9908277834428234
8,-7.749647674748272,-0.3189144117464544,-2.914096145552816,-0.037575441680918066,0.5165538848492897,2.6186165873484235,4.135618359031819,0.5472153714226201,1.398193736920879,1.5432885901932132,0.8270072334673997,-0.26712491485686113,0.9825584925844532,-2.3450083489392446
9,0.8737762365927378,-0.04624308085446645,-2.3065325321916337,-0.11888087854658377,0.14761566021602737,-2.0441943884407374,3.496394052467203,-0.30308640154665556,-0.9132658870642225,1.3238230420956167,2.3202624001915697,1.0447391976948,-0.3805300037519811,0.790250869203776
10,6.932621821688876,-0.4179353093391947,0.9017014392220365,-1.4026871980622584,-1.1720153884153417,-5.011871066792437,-0.91584943494811,-0.8592004493702962,-1.7127367849110173,0.16784124274863385,2.0690578490431415,1.5975183894754739,-0.5641335694960161,2.9071090886922266
11,5.682404852551968,-0.6856201512250487,2.4793596898085806,-1.5678470068496233,-1.8898276523759507,-3.278558722930953,-4.523957230832285,-2.6663255029464348,-2.942591027148421,-2.8703163288959725,-0.3378275923186929,0.6979804869025686,-0.6793664839569332,1.8455081404777396
12,-0.205270336760186,-0.5357481865180309,0.6666048521022081,0.7363250282955894,-0.6953437982325686,1.011211104654324,-3.440354564130066,-3.8690987953261033,-3.9112440518604217,-5.205048777041253,-3.449600165735185,-0.8524701181552304,-1.7228968732688044,-0.9545135800894664
13,-5.283988731647167,-1.237763500525043,-1.7364540539224553,2.3491059115817126,1.0849193366484051,2.938122280806765,0.41391128309344927,-2.201807257219233,-2.8549931453669077,-4.23244792286517,-5.032254766503839,-2.050192664314176,-2.5094848439589854,-2.5678242359488777
14,-5.6149252245256145,-2.371006147021293,-1.4785652483290008,0.01618828750626262,1.2503192100094476,1.010598977303047,2.264139408925792,1.24529464965814,-0.1525436153563484,-0.7011583958790676,-3.492512530746085,-2.285481152024106,-1.379781791190271,-1.913070432666232
15,-0.540562831722715,-0.7526241185362227,0.7677817250570277,-3.327764345865648,0.15727344457578704,-1.1777526006631263,1.160606534564439,3.7233212449317112,2.6993282359456736,3.0996760307054663,0.8790059834632389,-0.8530792503463507,1.3762948642139665,-0.07426163918181265
16,6.1003986900414855,4.2019360945714155,1.8073570844437141,-1.8214275581375536,0.07031591916192863,-0.3652562169485127,0.30404154951334017,4.266026720762418,4.953566691751072,5.906250947188066,5.427768555006349,2.1666802320120717,3.7912832802322898,1.7015228300987053
17,7.71339064953994,7.077527228392437,0.5507052835637734,3.8567097438771207,1.2503622809706814,1.7469833321930461,1.1461171950202316,3.087322608491153,5.2886094548110805,6.193576655806741,6.44671145176376,4.396826670802133,3.8776583102761784,2.7466686867935772
18,1.5261689240447096,2.89140646487556,-0.9848922989452211,6.078998545914539,1.2760669201815715,1.5262495641998979,1.2159669282386105,-0.256218646047635,1.6872801213140842,1.7598128722459419,2.4909013025395046,2.905285731182321,0.9919508882154262,2.2191742612204237
19,-6.89496150720879,-4.85181123001554,-1.0035010383417784,1.098749350715776,-0.9990000958372519,-0.8771664122686335,-1.0218888071534555,-4.983078076924632,-4.606017781687963,-5.793957601955923,-3.2520823367155978,-1.68433397610708,-2.9820720594822747,-0.3478722033942914
20,-8.871805417363365,-7.682948464022411,-0.09644159890127074,-5.25594923076847,-3.1501129456308363,-2.116463092564744,-2.934775168194199,-7.103076257487866,-7.987454585065724,-9.303592863831165,-5.530992846256929,-4.91889814117897,-4.356001127683905,-3.3338676331413466
21,-2.6268039507046708,-3.363420711222316,0.3089827849300603,-5.911048090713825,-2.4142943745435477,-1.025820355253544,-1.8570635623817728,-3.2862556085180583,-4.718185394345133,-3.928433242215792,-2.877022122049929,-3.6494579851926305,-1.6886616520107725,-3.7624341905593934
22,4.735750740567,1.730904870300935,0.017286684504547564,-1.7903113530088528,0.4150567557940049,0.15281473295714118,0.5035782535184319,3.630940567135961,1.842056217542216,4.890596110336362,0.7474403417114002,0.1651408599044371,1.5407596897785876,-0.8986195753165744
23,6.123405571388394,2.255292433273816,-0.15971153507262295,1.4270021252771208,2.3038719021180243,0.00464502182920341,1.0997701956763832,6.841780088432117,5.383073276899893,7.121263578823677,1.3669212566653393,2.3578010991645857,1.142961406222151,2.3239296126389326
24,2.5690380446432357,0.6383186511551445,0.20798357442456095,2.0471257424806066,2.136468345221888,0.003002812504122078,0.719207741268229,3.974674529767216,4.377644497639947,1.5247238320824386,0.11091244577631248,2.0439533493071864,-1.3831047431847476,2.9313098732948877
25,0.11778549715599324,1.687027908335885,0.6548428984578062,2.7800892022194827,1.2768141972355436,1.295503461197062,1.964220791258852,-0.25814393656785994,2.3465547608950095,-2.8865669709357165,0.6792535103302321,1.8492608319917918,-0.5402138974276843,1.5956202328947773
26,0.4752020621427996,4.607127331159467,0.46207856487156035,4.233184676735169,0.5601998802944621,2.241203331237454,3.417007046214891,-1.320848196789437,1.3980371580320126,-0.32175512325114175,3.1177426573468234,2.71928334212922,4.340096335860837,0.6804185778595138
27,-0.8137474321019128,4.218684654501814,-0.37928614387153714,3.2045629538685487,-0.6175610430955342,0.9533766493135879,0.9827365380661193,-0.9649735881703065,-0.4567337115325528,3.4216516775504107,3.342305329429347,1.638888542220594,6.39420561718748,0.011621122888575044
28,-5.578946593383274,-1.4340290989308986,-0.9350982520470486,-1.760617087304108,-2.114942731284029,-1.5379969655360504,-4.558225578803783,-2.8476267806540085,-4.530041285746054,0.466467710543406,-0.7959763592276486,-3.224830547204984,0.38363198172423,-2.15487729647055
29,-7.380507126249845,-7.74805051066432,-0.40808590363547864,-6.712698162873107,-2.505602464494343,-2.6319459019309557,-6.657061537179449,-5.21270210595418,-7.455325620800655,-6.437162889319016,-5.642337990722855,-7.530921430821207,-8.543178557369487,-4.457238294603602
30,-0.28824970596952953,-8.214046630227715,0.6058328256787224,-6.3864638087366945,-1.21950661380004,-1.6005282322231795,-1.9356326643486828,-3.0955393956524473,-4.881212563672503,-7.461929120416065,-5.655425568835674,-5.1570222468828195,-9.851372341471931,-2.917453049601973
31,9.412733639601004,-1.4777516109304383,0.7079114498405801,-0.6494873163372568,0.743499074155042,0.11508879971855226,4.387996165933404,3.1502504256708397,2.186216563435206,0.09166109711002336,-0.18630971079672373,2.8335333617577008,-0.9617603048064006,2.6123345339343804
32,9.091896355252889,6.622611457900194,-0.273281361074919,5.01704663387451,2.2679845543154045,1.286600856682996,5.425962200201695,6.940919207581593,7.668698456497105,7.942444382266627,5.421310200421802,8.252164409891643,8.719175125098056,6.381785825509202
33,-1.7417277403142528,8.54486547582313,-0.844387477675937,5.53420822508886,2.558575484110657,1.721981460249809,1.6169276660502012,4.221252989727294,7.177386284747784,7.89954652527556,5.823171802314825,5.995202497668145,9.03193987554753,3.8797363768485886
34,-8.802715557425218,2.955385350933308,-0.0006861839236998787,1.5548591904442741,0.968275923211122,1.2421379691957155,-1.3276703868808748,-1.173872207336477,2.378133220210367,1.5096757479561045,1.5292293252623053,-0.1084679361990115,1.3047281704732354,-1.8128668012623823
35,-3.260603323262594,-3.743519454260062,1.1491364851272585,-1.9195382491985895,-1.4991622571931822,-0.1271213074434299,-1.1092353444207053,-3.1685094431814753,-2.0167276629145667,-3.652710253570419,-2.4168373353610373,-3.694911471479473,-4.41584850682428,-4.28071970424761
36,5.261821402917055,-4.802159116499996,0.8515229896604931,-1.6618657746352001,-1.9936075545663505,-1.129787724261822,-0.5788810630602503,-1.3156765570531468,-3.787091063119014,-3.870811767099065,-2.9366393896979424,-3.8093200421539186,-3.1732534552215084,-2.3820039242043665
37,3.6354585683911385,-0.8916986588898803,-0.7797684226823496,0.384972531601729,0.20312082332918846,-0.5200267590813763,-1.5560430575622528,0.041909018616642923,-4.120750418698053,-2.0810289355248663,-1.8824307051094895,-3.1614689672694443,-0.5189003822102978,-0.4193116769705883
38,-5.033156673616818,1.589838270986558,-1.7609278643950423,0.3670495377723739,1.447768578069052,0.6534061370238221,-1.921676524014178,-1.272155567998339,-3.9685053809708273,-1.8720652762072822,-1.8723306449485744,-2.1857634292473582,-2.121877218041587,-0.6509621451266479
39,-7.077490099143785,-0.5887580594937254,-0.724180319633504,-2.103990033506356,-1.0500334442394605,0.1615316787137836,-0.03727407525172595,-2.6968085515600246,-2.20454173195702,-2.2882554475372965,-1.8753182921195513,0.47965794388560373,-4.210815157235743,-0.5099057652903346
40,0.9713725085754509,-3.4125410673566376,1.3104498973605236,-3.5510904581733578,-3.8731097225107964,-1.764458920711448,1.9025106208748654,-1.3331866640786474,1.5536168845451217,-0.3157642001802967,0.46801908362834604,3.541716266589906,-0.4858075915815996,1.8419957041975414
41,8.461248826798766,-1.6583296908024405,2.027565703321957,-1.384233896018132,-1.7856736280234924,-2.2098876736646322,1.3112855817359963,2.018771096682895,4.68942723832139,3.547524932704845,3.8835577941178907,3.8270182169207145,5.895132011771706,3.7305128889660435
42,6.630182351056025,3.66745342863554,0.536084983243502,2.7765172738281,3.8903318079018785,0.2378250915401416,-0.5039377575996862,4.229344138245982,4.535060785550985,5.34431892712835,4.477570282115302,1.2446328331093601,6.1096562349580115,2.222687052280878
43,-1.1176422319247494,6.583742480769552,-1.4913859291455227,5.1130441014827275,6.330845413119568,3.1189584635073095,-0.38632157996308214,3.38741148763528,2.042867249546791,3.1253991580525007,1.4477113751996085,-0.8009008573644556,-0.08005619107074535,-1.0343635442732522
44,-6.350710836928756,3.7222766763090895,-1.809006347831937,3.688934016365616,2.4706831900759005,3.156601005005404,1.5094026049226603,0.17604206313559714,-0.0980137867572142,-0.6015917325310093,-1.6820003558223842,-0.43043230618665035,-3.544267889929015,-2.2311510727831396
45,-5.3612283261695115,-2.0042163789131897,-0.30686433341350505,-0.09843823334176324,-3.3401215127542296,0.3131845849798273,1.7246953526810902,-2.900552287896304,-1.5045100458846423,-2.6592053887770453,-2.137609684359031,0.3173372074084322,-0.29900204247182155,-0.7702833914107904
46,0.12715675552566902,-5.456245708927378,1.133616453100763,-3.304815194287135,-5.505535312115634,-2.485266514921844,-1.1038711614750718,-3.3423867472522812,-3.151338851534401,-2.818264478977529,-1.2235636485124186,-0.8782937603577435,2.624404749773245,0.5181128926579295
47,5.435717773944153,-4.887896815154277,1.2095562153976418,-4.11808206935756,-3.2761438873337845,-2.880953123771648,-3.730204032283015,-1.101475173959382,-3.9170382083970385,-2.4484010487956835,-1.4315865222963562,-3.0313428879196227,-0.8749404946782242,-0.43026998291432567
48,4.540775982564653,-2.407465654279677,0.3840366883327975,-2.943601988623419,0.2762731809285084,-1.1427142678477997,-2.5996328784379568,0.8897311595927744,-1.9958849200589777,-1.869171836253638,-2.500587920733465,-3.437410180458718,-6.293917924893707,-2.5561348073784482
49,-3.852450858515531,-0.04632070356299762,-0.4292862246219359,-1.048298152743041,2.482217191642877,0.9685035518578501,1.3767669979699357,0.2825382570314262,1.1561921897729557,-0.5806451316273034,-1.9140511391853943,-1.2295579624824158,-5.726644660855191,-3.024191798481593
50,-10.333626818282502,2.4537005252603197,-0.9017773332593821,1.122852101872603,2.83740340605369,2.137062539692907,4.122302176212807,-1.0919287439220948,2.3615222985417352,1.3560224321239578,1.4751954768178053,2.1349886690576954,0.9442964484578569,-0.030813260235877785
51,-3.636732040666524,5.190666051691966,-0.8106772811786385,3.322527220652458,2.038639432920029,1.9107490803701974,3.1679583935248807,0.258837445128106,1.6615328936053368,3.171874272425125,5.135133359872935,4.621147647737794,6.852901462569123,4.693718259781188
52,11.477442294207167,5.617289201594087,0.02752471044095318,4.110384040661792,0.6700762717493292,0.2790163048986549,-0.3715696831100696,3.498330787714376,1.6452406119997698,3.6534949695188685,4.741879712793007,4.497830769091718,6.7436619673469576,6.167155136392968
53,15.778848137177075,1.4777219457418536,0.9845549442010084,2.2083484635736816,-1.011829193191755,-1.951880299047092,-3.532180723284414,3.6053304039461276,2.303468870271062,1.7276540024763876,-0.499708629328046,1.0808882516334917,1.5388126746806996,1.494535029685144
54,1.2834927033188117,-4.421749590809625,1.0124610559057465,-1.0163470324973218,-2.3660423634904775,-2.851041764284057,-3.933249815789032,-1.0934454127669482,0.9958728588251599,-1.7699754282335178,-5.218236450406088,-3.546641820183607,-3.489009191470685,-4.876993567512563
55,-15.321749457276809,-6.237074184277415,0.09999113864555968,-2.742867501285601,-2.2560089030068413,-1.0439695183180167,-1.290234041385424,-5.208031797937758,-2.2945304836439724,-3.673512657233419,-3.6190328256298243,-5.081030770807839,-3.7557238377197883,-5.316197936523924
56,-14.367502001738234,-2.620989931726225,-0.692895985308233,-2.311296310155246,-0.3812361641204779,2.116694224231428,2.4425986353729594,-3.185313739196839,-4.015536726107233,-1.9253335620770549,2.2952004283849567,-1.6739948231281627,-0.2004792312462611,0.47745657300518596
57,1.0060908700010396,1.6006626862581697,-0.7444660151273416,-1.3282175266146328,1.7307911854748657,3.5154921437072035,4.597932933079181,2.6629606733620848,-2.2198818162241576,1.269155886103975,4.620795642489862,2.9413283609686562,1.6235676095744664,4.308625399374621
58,11.89294617834516,2.420854732601273,-0.42515761357843085,-0.5717803277833364,2.0612975186554445,1.8031674699940998,3.639473753538211,4.9785409722300855,0.8224818334759687,2.0096626310470382,0.4206844342801032,3.478732375660959,-0.9285077017635335,1.1723278314407084
59,8.982872471133941,1.1534433696771313,-0.14477504800875227,0.39661342119211773,0.401329768436416,-1.2555251831765217,-0.23016928689680938,1.076209790300561,2.1172105098003673,-0.1841488366761177,-4.416228450897527,-0.34726302692972033,-3.6371589781949405,-3.7320748997560607
60,-0.7802858491635356,0.4716296154492754,0.17220535975862267,1.064113572957117,-1.4213385931951066,-3.156596464536329,-4.929267196494428,-4.092719657166867,1.3007250480585277,-2.172484021865538,-4.026370958189994,-3.6981084662649635,-1.927381869718216,-3.4856997944737973
61,-7.410220950587447,0.3880112185681065,0.5670280274949663,0.6727330834656932,-1.6245585582360453,-2.988352449588434,-6.623211373388478,-4.831127753851316,-0.19342706677445576,-1.6841723694663595,-0.0883081908826508,-2.8007826189426135,2.146431036803038,0.701848772723517
62,-6.783792174607337,0.14804147412984214,0.7885564556084338,0.4920997732102417,-0.15688045921736662,-1.1401629324311076,-2.493553451605593,-1.1048571560216789,-1.0446148447404564,0.35218941868968556,2.5009315957505747,1.0397057090824857,3.639274200204078,3.172057179196698
63,0.004955360698005708,0.14339676142459848,0.6611028623785284,1.8087202825778477,1.668786896506515,1.6285684511506027,4.860131465575273,3.021877705845923,-0.5323666096251102,1.9271993815467787,2.8302853148055838,3.8603840610361955,2.21654905407963,2.6192248933419044
64,7.155907241712868,0.11017535750091943,0.1802862155440476,2.4739476394020183,2.4245239811433583,3.9205288656489024,8.212988281906512,4.601950070383234,1.1047919788051228,2.2596214395547944,2.7446753134207285,3.445019601258976,0.9595608212693415,1.5083164934098838
65,6.868259913924775,-1.1180423762256102,-0.6480394135460702,-0.3196985022517682,1.256505130138598,3.824625789009119,3.705934430261424,3.5613694921475734,2.3270866215783803,1.5785293320448925,1.8234822004671356,0.569343096689083,0.1986864052023118,0.17098471329056086
66,-1.5551900643600909,-2.675512860462959,-1.5012406848086883,-4.385817698067261,-1.622234427953937,0.7442797140581732,-3.7585306488194017,0.9228466844878492,1.5739110558418004,0.2347518409694753,-1.4072617634821207,-2.54516433030142,-1.9969698624415975,-2.503718909798489
67,-8.46177743988285,-1.7024961087632406,-1.5127405231574076,-4.416813043910194,-4.289006644159004,-3.2507171486615434,-6.2878578967092364,-2.3474871069924523,-0.8464956730065725,-1.2484751567864119,-4.733624834842202,-3.7867545041572184,-4.383618897888085,-4.365419998408301
68,-5.429625316713871,2.2016327987109836,-0.15148011142245535,0.2135653187206875,-3.86310904521144,-4.94629809919987,-2.654497606265756,-4.777980244416557,-2.9404659864509246,-2.103283220517518,-3.7828598169993928,-2.1293692631821632,-3.017731630156346,-1.862895092258226
69,3.597603717030409,5.095827306911022,1.7007180965186897,4.109767630289589,0.5074709373503663,-2.9863152552263568,1.5470941400752565,-4.494658279285425,-3.0534933010674727,-1.8703398249124266,1.263487545159414,1.3928321997279283,2.2291676668234643,3.483278303047665
70,8.213229923682324,3.1048807841788237,2.3360965451307933,3.3611994759800643,5.492363902249054,0.9547093483205332,2.2800952382357207,-1.0865690988582948,-1.1905146143180236,-0.7506663882059224,4.72609802147664,3.8122348125196184,5.8756272262985245,5.506938939468879
71,4.692519688666932,-2.4562190575758986,1.0766399300327223,0.23998319742047378,6.131588930143438,3.77118246765748,1.0528451144775322,3.0799200511221834,1.3105918608344815,0.64879254135467,2.7965780133061595,2.7158275127113356,3.461279925613085,1.5467778142690765
72,-2.3518780715943874,-6.039021538721611,-0.9696891979142133,-1.3382248997791324,1.3091045210277656,3.505822067034362,0.40067900946143137,4.596653783739177,2.7789088858207545,1.5779724061488514,-1.583429132576279,-0.997453041246489,-2.5498542287741834,-3.7989496727843264
73,-7.577158069635268,-4.0020199961006995,-2.1060762452786355,-1.3023334925880898,-4.514841470802875,0.8554731247254366,-0.001349574497338385,2.407664968908228,2.1916253527922733,1.3119586264175926,-3.4600428413514184,-3.830665037787138,-5.777707285335789,-4.978160227921067
74,-8.001997675964603,1.4001923586843281,-1.5896348061768466,-1.5576732889682625,-5.964682264779252,-1.5203375911011845,-1.012405998177437,-1.1373993483389642,0.015538588022256813,-0.18270426078527408,-2.3408378400543146,-3.42729095653332,-3.5547387666464094,-2.149411844811095
75,-1.9270242461299214,4.872901787558128,-0.029143566910515232,-1.516384405095981,-2.3389865974771586,-1.644162962413103,-1.3248479585634214,-2.7822239997640668,-1.7545115933875621,-1.5406937602202462,-0.7032084218660102,-0.5645058269422895,0.9304620697769945,1.0151478945671646
76,7.981266107916458,3.8758546632661472,1.2619579920200792,0.5150776140321821,2.2152737909214752,-0.3427399269850581,0.3693857551432718,-1.3976401872197424,-1.2039750987861473,-0.8941016729899429,1.141363031605565,2.5667879053100044,3.6660308318976735,3.028542669505212
77,12.459852219664208,0.24110544409505827,1.3190941002222634,2.8553506890253293,3.4436742331015773,0.03180699796586673,2.5022572797162272,1.3787312708930484,1.2034815715100484,1.7133749064493722,4.0085600013837155,4.358056809064478,3.986681357779352,4.347997234522418
78,4.5494779118818425,-2.958431426203654,0.35573501265471474,1.902697633147448,1.1484229581755403,-0.9708485951796911,2.3540263233225867,2.7982677281253308,2.5659634762245447,3.494533829187723,5.334972160917988,3.7084946976288866,2.874776302775287,3.7045792931441435
79,-8.899010929451507,-3.8920501830466394,-0.4816803835899577,-1.736580571456067,-1.2174499343518823,-1.2791743580392407,-0.2741656043295016,1.3127943310540697,0.7592304704219741,1.7402453509529954,1.4272848335263906,0.19911353738982943,0.18222508510646834,-0.5442946774098469
80,-12.559005456732269,-1.808267655596812,-0.4107438422254632,-3.0252080819866136,-0.7277357281496941,0.2883373374075796,-3.0000201041422554,-2.0374847218231626,-2.742886101367956,-2.6227973429153995,-5.52098256935939,-4.258836888409321,-3.8715686720190687,-5.801990721709016
81,-2.0768173935843373,2.5465118651150487,0.15708374137807346,0.18347178036602133,1.6665505452301714,1.8986304371299503,-3.831360381222319,-4.3720290541166715,-4.405407756861434,-5.437735869427665,-8.035124931230307,-5.708697297009512,-6.174220700444721,-6.457011316598312
82,9.145121236508396,5.634990119929079,0.2642502213832093,3.578951544854807,2.4657619057990963,1.4430080055565957,-2.5358582227813216,-3.4926972009136805,-2.6153021723541507,-3.6671239358310705,-2.74637033578349,-2.1928608528221085,-3.19466069409013,-0.971399900808574
83,7.408756804498928,3.4148772121694146,-0.4038211360409068,2.4998268094374754,0.0074020656592414455,-0.2426628825861464,0.3369767295078602,0.1798337764909121,1.0875010377082197,1.288663020900402,4.865344377858382,3.129014521490366,3.527158757465546,5.2813242085705605
84,-3.231246878917742,-3.1302755251434484,-1.1203305185079548,-1.5549585173469,-3.460248041843152,-0.8507294121515572,3.7967846694676974,4.040860237041333,4.22478835289838,4.993218814127652,7.1781118815258145,4.88250375562527,7.217639600012622,6.001493296751702
85,-7.620414384443941,-7.359849270618009,-0.7929236083915211,-3.5331065400178856,-4.29669904528607,-0.12948700050279616,5.741494702275355,5.3347435904813025,5.135934526601466,4.385670239267249,2.8949117703434633,1.658105721548307,3.379293220631327,1.0948190711646428
86,-0.6800960674365972,-4.530076794254019,0.756430575581059,-1.9136893689266576,-1.392028875754209,0.23455782169374917,3.967886330699961,3.0694141922892815,2.948089854232388,0.535896449091001,-3.024934258276612,-2.361953771633561,-3.9687624497507086,-3.7868551282562772
87,6.841556981078617,2.0780541418403042,2.0975922458811165,0.20358984901924831,2.72854111375214,-0.350625130336172,-1.0711767752979966,-1.175516626012584,-1.7539987507362087,-2.811966060926185,-5.409799247567401,-2.6510107100931415,-6.465541555441875,-4.002065317285557
88,4.391949302651492,5.523270173538824,1.4568619550526838,0.4825039628899736,4.476134254135793,-0.674569591555521,-5.618306890526893,-4.276000236217816,-5.79004618575009,-3.1111913718046074,-3.0360743059188233,0.26804047445720036,-1.6781899507735651,-0.6198511006413909
89,-4.387370058743133,3.816686244691012,-0.9137711707093257,0.43675559299912814,2.697960531345514,-0.05553249073859645,-5.988354195433053,-4.1862040767602355,-5.438954882345931,-1.2007666190485284,1.3942962862246224,2.150320862888694,4.029051684650633,1.8586584866967166
90,-7.79502385670174,0.7040132542405378,-2.4992260861788917,2.006548405809877,-0.47363481444306393,0.6026842373197271,-2.2519667462843715,-1.6092000339181898,-0.7930068376523474,0.41352037454701396,3.861745571736436,0.8376994827533866,4.08462881820654,1.263041538660446
91,-1.5797325213413467,-0.7219893282314933,-1.450769716954169,3.5927905585770366,-2.2385008528175425,0.5165982767799034,2.2526223067918822,1.2885717674619253,3.8889935814169254,0.902605593274478,2.716891862242582,-1.3911500313013399,0.0009874360894699952,-0.1354434907471228
92,6.833165993765283,-1.132549836908966,0.9961782201433044,2.05820191340065,-2.0838010297452794,0.08694312948358306,4.473859233489249,3.0356432721021154,5.02517134036832,1.5451147220622483,0.2756246822275155,-1.4766880323678366,-1.8429876031100958,0.5684101636459
93,8.135677916744479,-1.8878274561875534,2.059205922422951,-2.235507977686189,-1.5113535012726669,-0.3011548781746618,3.685274467349803,3.0138576710253853,2.8941574886220263,2.5687734188615305,-0.5173460505669664,0.37849884674837314,0.2570032333558787,2.4324451927108193
94,1.1767741799800593,-2.484904816241373,0.8478144329253524,-5.185641021275678,-1.22688783623266,-0.8604162095383372,0.8270015296827768,0.9043580854972691,-0.4290056521116443,1.626810243424418,-0.39126034778702945,1.4526138162312634,1.3919122108903703,1.7123109953230304
95,-6.84309877372022,-1.912649475111629,-0.8823273872452314,-3.995824608487418,-0.09517461348227108,-1.1039837857589665,-2.318540617664051,-2.2847668765935323,-3.499237055795908,-2.4549024457317143,-2.03275565461884,0.2653354486916888,-1.7214381482831478,-2.5437775296879557
96,-8.105404663245734,-0.2292666535160602,-1.2412499062566196,-0.07700994463494017,2.366902299197757,0.11833877047694852,-3.459025618389655,-3.6949628806056314,-4.861620905723478,-5.947177075091239,-4.46809758728022,-1.6411962541982068,-4.898485887507847,-5.920814628762245
97,-1.957291378025514,1.847563041607114,-0.3167767351272839,3.4663864645714373,3.922936745482591,2.1688375951474805,-1.425709211851534,-1.4545076772997032,-2.944065973884165,-3.9005484113746123,-3.2711330075584946,-1.6828571078683008,-2.419896919878809,-3.5888589222246066
98,4.712192149326162,3.347880919567028,0.5348403951528651,4.704703532796795,2.0232761057392636,2.259914880489028,1.8471622493662248,2.2209247012033972,1.4856700692362637,2.4808269078823155,2.36155777479807,0.562805288626627,3.736577988850574,2.931006758762452
99,5.538216493024128,3.0462334713991415,0.6049510938384101,2.8865019743532834,-2.168235694759171,-0.5942734514419845,2.7591424785830467,3.1703144594369315,4.769930995156265,6.283224228594974,6.832411095148831,2.6554898685268236,5.9053890153487405,6.734998622276713
100,1.803888240357713,0.6374657367273506,0.2857054362627079,-1.2940826888345722,-4.409359764711915,-3.050146123624078,0.4774120941601748,0.8409420108401034,4.20454323627769,3.970824029501532,5.15807945308233,2.1545828114444014,1.7820162814138611,3.921597086336414
101,-0.928463133040673,-2.2581975850154965,0.013119822692690358,-4.58864437309244,-2.4809094242921774,-1.5290635651007178,-1.743003245026689,-0.9637568591860134,1.1830321855168613,-0.18425780099708927,-0.3852783138126899,-0.3251258039472225,-2.4314626985560364,-1.7677503104358003
102,-1.1281423665311234,-3.5797282353479836,-0.30711585706419414,-3.5581270677401546,1.2323493730239448,2.186266247665834,-1.0814071488062917,0.03079842387027942,-1.059978794079305,-1.2111382069632037,-3.8930020784534567,-2.024987728549902,-1.791939723988621,-4.2446625470250945
103,-1.4573402723628675,-2.751176469652974,-0.6689117155809725,0.7632524737652508,2.974811749826854,2.7504885282706963,0.7503094422385541,1.0093053601384316,-1.6927598873910408,-0.6797918085927429,-3.576993580531058,-1.737708336482965,0.42888863026731655,-2.375210798392491
104,-2.158711889916363,-0.29840483405501567,-0.5652586591358352,3.449847063809043,1.8260942752100395,-1.1140790724703389,0.2733239753780611,-1.0971714891944833,-2.317003306612058,-2.533497271736387,-2.077923836189979,-0.8350800463838397,-0.5891710406576198,0.36155182630353055
105,-0.6923924948882676,2.7437921778457244,0.2349295053107157,1.9558611086832953,-0.23601624396601503,-4.233923397222384,-2.0661890763659314,-3.9900491968140956,-3.324287820791004,-5.075976351817192,-0.9499931987969378,-0.4142632396285759,-2.923029333232926,1.3208395511611728
106,2.0381998408584794,4.008149372300016,0.9940324619265622,-1.00962050991842,-1.2275282157314182,-2.030076202420065,-2.2174839917145066,-3.1807553597896283,-2.7809112328980974,-3.2340855335048566,0.6300245325451344,0.28766178341074594,-1.8875747598549093,0.7570279917971104
107,1.8015172817680258,1.2929874322913317,0.7904868894376751,-1.8253660666491829,-0.9363152557115605,2.917807766882633,1.251790242519211,0.9067513726356548,0.2130302998106383,2.436430239580618,2.3051542335022224,1.651528008774017,1.5641072939708076,-0.301213946434554
108,-1.455787335914107,-3.1865666508018613,-0.19052128566534374,-0.370470109468204,-0.26582640160035514,4.509547997230862,4.50295938287577,3.6656744822369722,3.3044884842044993,5.589481159292431,2.2009866028555063,2.188946182298261,2.8048903470287745,-1.0975652396625415
109,-2.5307637358125334,-3.6605305404391726,-0.8490889956472387,1.1258224784433557,0.17332955159669852,1.5328983616547693,3.522307681596199,3.3583919396085147,3.83592530596258,3.511443575176615,0.5588024724755466,0.9367050562883077,1.4287420077791873,-0.5193314249752166
110,0.7491305278023878,1.0686337792293792,-0.6143349433391492,1.2941473077184054,0.4212289567530501,-1.6222942539170169,-0.5946125899137318,2.3448728324378307,2.374610569447503,0.4440514516752707,-0.14966121932945245,-0.6395816641254659,0.742654170440999,1.6843665811166286
111,3.8105834735732524,4.363578225024322,0.01577844263529124,0.30113962096039854,0.4941489993348806,-2.044889992643723,-3.5569402506451184,1.414408453999782,1.1439308853084509,-0.12687838957335268,0.5599054185988304,-0.9600353191833364,0.99974106685012,3.166283274792192
112,2.244583282977623,0.9861108122034273,0.3975891332222112,-1.082253431101214,0.13238523285616088,-1.4491987375008455,-3.375426422418331,-1.2999925021205163,0.30787615890708775,-0.3788557739704345,0.355703863769523,-0.8207318459427269,-0.3897413822687414,1.276445661509791
113,-2.015041206188457,-4.315268202590988,0.4170955530217344,-1.9018656335730784,-0.4919422563520427,-1.4814230998191882,-1.5863418326520273,-4.809442776743656,-1.5059875046531739,-2.5527659495814503,-1.6016538583728548,-1.5952072602484897,-2.7868735231880857,-2.7359453271492815
114,-3.774538900351,-3.4444796610714334,0.16008645547145867,-1.4022948785407616,-0.57447915070485,-0.6060087825035644,0.027382779723903475,-4.716372877640548,-3.7363656388026483,-3.9560078452207748,-2.7985003692380306,-2.3143370660079463,-2.726654656727347,-4.482254861260018
115,-1.1266142465247517,2.5968342279218564,-0.263755240369815,0.27554753430438994,0.1564066903924428,2.022462446791795,1.369657108684415,-0.3096203425692365,-3.9394082931158763,-1.6071098724299153,-1.2755858698723228,-0.7971254801157385,-0.16140393484778878,-1.8728462983080378
116,2.6015357786464417,5.004647418481636,-0.4570106300859643,2.070637185408486,0.737568090933763,3.4259651674661846,2.5970893522840326,3.2262657150418703,-1.6042793008519858,2.0223174241332607,1.1750778217370532,2.668541274940281,1.2978961224359988,2.309204686904794
117,2.5140657431786293,0.23503384445868733,-0.08868650967938407,2.710702431593962,0.28092201173505893,0.8725552445150208,2.823340331686726,2.294603277980403,0.7235315633461672,2.346231632818116,1.626686537292892,4.733685136247138,0.48869106723964156,3.77468756313146
118,-2.010327903491393,-5.036318064785551,0.47028344050919524,1.4574054864824169,-0.6134088473664647,-3.204919957409526,1.1870568522891927,-0.27636583702234074,1.218068815404473,-0.37703241059506765,0.31106636304703106,2.7959754478841026,0.14965607837054984,1.3644009662263104
119,-5.326302315340466,-3.5807139477147745,0.5907738985331517,-1.1355444314011451,-0.7334798242281488,-3.773011699671737,-1.607342434637043,-0.5434560055377073,1.441487086220231,-1.549853582446601,0.06733589169181634,-1.6194306480272405,1.7275046001526284,-1.9719625747400118
120,-1.8022568627944529,2.708378698312261,0.23129754884424392,-3.080121976249381,-0.012025201715688213,0.12558039129325682,-3.4510177616071562,0.960930074536916,3.3171565143490835,0.9443511744163242,1.6505905703623387,-4.395249841896752,2.7305163887924597,-2.4335680078834767
121,5.930618414860547,5.803498138643159,-0.33981323299352867,-2.599890899817097,0.6395917092107136,4.093390831148002,-2.5876913307937652,1.7798553184388572,5.103040354601587,3.908513542458188,2.008820738082546,-3.40550377889928,0.5776587565490657,0.34966182312892036
122,8.943906366894518,2.0384339690236866,-1.0023398313424479,-0.2047820292596239,0.7431263709526675,3.921549315385433,0.4652757397729634,1.5325926484441075,3.2709448944720028,3.3719727049046058,-1.0258694214475375,-0.37457804792280813,-3.2342749235156627,2.8331341563229775
123,3.1346721535371476,-3.585103550553068,-1.1921076326105111,1.796577854573449,0.4277524971086612,0.23648502069204724,2.8134049564219334,0.5140220209240967,-2.0429228593771835,-0.5085062709491505,-4.215323639326397,1.8015797920198988,-4.415588690835271,1.9312994586811334
124,-5.779157042203536,-4.264271610007356,-0.03870655894213886,1.9558264251038173,-0.24371789049819262,-3.136239790550978,2.018636260294449,-1.9173951118796866,-6.46063535177932,-4.231451384770556,-2.6648494156427684,2.1415167840259137,-1.0273648627331498,-1.2966636702348557
125,-9.759705988610335,-0.2565945949370084,1.8180923969626563,0.9355166483077219,-1.0050203117494865,-3.773958775202139,-0.7459741549996015,-4.703355402787368,-6.675555713268186,-5.082055828228038,2.3931800622486072,1.4995563422328235,3.6252457490576906,-3.4127434354001305
126,-6.752139148439312,2.1608222912249957,2.097367213178839,0.12448465146914164,-1.0500384404054466,-2.2259104048650467,-1.8320094969336411,-4.348538438408004,-3.6407558326347806,-3.0920640873431267,4.2216499506462295,0.7541412208883327,4.313973374720625,-2.6515547988125014
127,0.12876690142208677,0.09424263398137189,0.019675373430531252,-0.042275963893334,-0.08090900485893167,0.05777968726206746,0.03899817330215864,0.1527199330973614,0.22938964928518107,0.25723144616470023,0.22707228316943512,0.09035896460838143,0.15051135334708673,0.09028251802678058
