,AF3,F7,F3,FC5,T7,P7,O1,O2,P8,T8,FC6,F4,F8,AF4
0,-0.09371364517522582,-0.08699916190557348,-0.004890563080554785,-0.10009212277728852,-0.05830938639597433,-0.03093385280798576,-0.006982594053081097,-0.04982996503896735,-0.020647304776293868,-0.038543498673235574,-0.04155124564867094,-0.03513533217477008,-0.04362237252147503,-0.05786211851322963
1,-3.8091768680826497,-0.26507888193574386,2.3981067446073796,-0.7528062829525014,7.600479632815525,6.265851261240003,2.144652623207782,-0.6700278138007671,1.1066326197920608,-6.174949163290347,-6.927430565634541,-6.061946173493592,-0.21064158294532986,-2.639652936023304
2,-5.033629841006423,-2.5852658142022937,1.9646307773663818,-3.0458963523421905,8.49562312767555,6.658401252616246,0.20623272067772566,-1.0220080533116866,-0.044388390646707035,-7.407475051626839,-9.02210186904775,-6.371889745373069,-1.8771627257137202,-2.882064501858047
3,-3.9497159366560384,-5.892660223761894,-0.5271846861620878,-5.0980477492188685,1.9619296304299316,1.0143770997636659,-3.125952665259253,-1.1300631435937067,-2.1951168884392276,-4.278269878075772,-5.742339414616869,-2.0107652843994708,-3.6253400969463527,-1.5457517991877947
4,-2.6732288816272436,-6.807544287351184,-2.0794287721441482,-4.146481871481005,-5.985189606770148,-4.927106150319692,-2.5098149912128997,-0.37099495853860404,-2.279618599710283,-0.3979391455303744,-0.5875173577082128,1.2426656891642376,-3.263426984074321,-1.2338461795435318
5,-1.2514406706567867,-2.748110543420172,-1.391518042381114,-0.15000622149565304,-8.18986911250277,-5.590654392057245,1.7149803509952903,1.9719386939862331,0.3092228089685154,2.9412665160420146,3.28709298073224,1.0815859003932802,-0.6502327585596916,-1.7396375086307416
6,3.174193863615741,5.956165583084927,0.231090690830828,4.989117127213361,-3.04369380267779,-1.3842759810878185,3.9545467293746777,4.141703183864404,2.9568925728715607,6.096276455260545,5.822456032370965,1.2061732866786739,2.968575832122652,0.5703872674032394
7,9.920624942044894,13.966267845982264,1.1748990478113304,8.472901569691777,4.032475181302824,2.506288683878178,1.3504833137243781,2.5638236949637476,3.0598926707547953,6.854778863719437,7.111196915743124,4.019455374494726,5.650876169969835,5.996758641053232
8,10.830933766909927,12.205960796233068,1.0792828799280914,6.396292150704201,6.16878112785267,2.727082486866281,-2.653110008837534,-2.8321774559741146,0.7488474526261683,2.25159609143438,4.659642446302992,5.251171436829588,4.440970872667623,7.6361023979623885
9,0.1024426392857441,-2.206971163632533,0.37078224561989653,-2.167934123284762,2.262246104999063,1.0509566765603326,-3.2909774065351916,-6.5448470272636605,-1.701473162263164,-5.002023652781351,-2.358779196007681,0.5155992080410812,-1.3065429541063462,0.33176951532342347
10,-13.458534974879182,-17.107045479018442,-0.35428241496309715,-10.09558255321739,-2.265415500957949,0.5057435670073412,-0.2192029064240879,-3.8879062582240436,-2.405743661415399,-7.477147314951488,-8.289554211286214,-6.057350196620874,-6.053636069678352,-8.868480423960447
11,-14.054437249900007,-15.729843296030479,-0.5248303021596327,-8.194444942793442,-2.4203279576347723,0.7484378828194121,2.8694169300651255,2.3236979941159777,-1.5163888310679605,-2.7719645973577305,-6.378504245883305,-6.319991869712759,-3.393497430646566,-7.939971723005994
12,-0.473930221043933,0.9922206271098724,-0.18380010433499813,1.7569640693095403,0.3240447606934027,-0.5293004471184716,2.7820941925142653,5.058320304849191,-0.5308809443457697,2.5902450292807786,1.2498140299104405,-0.10403034710776499,3.780585816890399,2.380693053616675
13,10.57574301437095,13.097039541819342,-0.13672666542485984,7.54968690656002,0.972759500135277,-2.958320210949939,-0.10143454550675249,2.186681796240182,-0.2590726188941725,2.3454469734653403,5.098734840745363,4.244489168075263,5.203543924264529,8.041908577234153
14,7.114530310620907,7.971021130666799,-0.6626458137789513,3.148852557899379,-1.3486806916717986,-3.0962372939643865,-2.6207643957406432,-1.4121788600955538,0.05946244963222371,-0.9749676312574349,1.0653093997937524,2.045074644152083,-2.310920365402291,1.6341725853406375
15,-2.5088055002670835,-3.2068878718307148,-0.7286752983323272,-3.293814703500861,-2.4262003172468387,0.694187134837337,-2.172740396008625,-1.084759748255486,1.3775513435770748,-1.1123379151525934,-4.011280955292931,-1.774851921450794,-9.041213691212652,-6.923433637705778
16,-3.843836109643698,-3.8731626395487,0.4042241660116991,-2.540461813688354,0.016448815640666775,4.798415869918234,0.49466865642333574,1.7340698050242387,3.0458762910978185,2.165150026639216,-2.294265107013896,-1.3287220464412108,-5.097705819021794,-5.185588423356279
17,2.7289928093471794,3.779765472837158,1.5950732221446489,2.5574602386116263,2.593511732972011,3.853375544880815,2.0785346249230074,2.385964035350364,3.12280191116359,3.8525193389376673,4.26350081729326,1.7481283873241502,6.042371665625197,4.344111448494678
18,5.343090551248201,5.287136130753637,1.2699996048849647,3.5607338922292295,1.8006688109257358,-2.1151861350875625,0.7213258191133173,-0.5958963473723285,0.6626947821549647,1.9583051095102297,7.223957911645475,2.4887228084993476,11.930163646472103,9.094639449020526
19,-0.2810411857862716,-2.5803503122068125,-0.2159334845699636,-0.2249727037530267,-0.4842852818939191,-6.361398668470584,-1.6044595780868143,-4.054608447712502,-2.8056701214182445,-0.6762803057327597,3.00747709946431,0.5717815853332645,6.5478171730523735,3.964408049456077
20,-6.167806624202187,-8.688712275925157,-1.1876198138780956,-2.8828967284160725,-0.6171868678504223,-3.3403680061061984,-1.696073222959016,-4.45253028705689,-4.654779119956619,-2.1382383975579446,-3.7101591375812935,-0.8467403920839368,-3.809279332811801,-4.04217665160781
21,-5.58701806058822,-5.714337793899181,-1.053461516419468,-2.3677691650402988,0.592188247583679,3.6801344308321595,0.6462748054401521,-1.7418586070788118,-3.834698530992877,-3.7021662673633062,-7.078693989388959,-1.230133872405238,-9.568539743438055,-7.117261421872061
22,-1.3480557928193704,1.082554843235445,-0.538104378782692,-1.6465701332982747,-0.21109393584145356,6.345927172393951,2.4352716854768963,1.480844312723522,-1.3915428441513906,-5.309005701810193,-5.954498616087779,-2.3392359295482974,-7.889815051958252,-5.133325284481229
23,1.4656274277883827,4.495566180581812,-0.01394700445138515,-1.2805966429814213,-2.4542521453939705,1.9842677151497425,1.4725518202773988,3.522269754747665,1.5522386653411595,-3.4392848941116783,-2.0805772623616616,-3.30753385908462,-2.2529660032804344,-1.6743045484874446
24,3.03464726502122,4.691376164699546,0.7033077171773272,1.2532360440321983,-2.0365824898067215,-3.4127522288894383,-0.8643540775210043,4.703657569476737,4.692724281210719,3.420244049318934,3.1013050628892724,-1.1563438730449618,3.4850331971319495,2.089390059674518
25,5.124125534956797,4.546480522383771,1.1493740637941836,4.980662575646884,1.7738585071309345,-3.714199306616818,-1.6061406073099427,4.860788616819238,6.6687231801101765,9.927074082929906,7.482569059338146,3.6731863248031194,7.161482545912633,5.9746105919372905
26,5.580240905768437,3.023062596782867,0.531138139547383,5.075065526419759,4.289548803384819,-0.1941224447255842,-0.2532197057117112,1.9868272036252221,4.523774441273693,8.65362605054455,7.557443354245833,6.449049253580321,7.014170264084189,7.2757390975468095
27,1.3998894090820075,-1.931623192405182,-0.6661792355108956,0.19485983429221826,1.7975417533869427,1.6451479954291173,0.5918309785358254,-4.473103927650847,-2.3437350650223054,-0.5202516037665472,2.042530178305025,3.870202391656811,2.455352244504672,3.2988077450265494
28,-5.353154235592519,-7.465903427883033,-0.9451197338518852,-4.987314177306375,-3.042190375605006,-0.03124350223560335,-0.8908861071533625,-10.038290713973751,-8.826199176211516,-9.172780282182167,-5.144709429128574,-1.9357601326606462,-3.8364036553115444,-3.7838878914446497
29,-8.634642821756298,-7.548495378237548,0.025086239926603776,-5.770300104444046,-4.479632494263964,-1.8158693152831773,-2.6029643815672308,-8.230254645692895,-8.247883543301917,-9.505044940793184,-8.098542936653224,-5.968537477318992,-7.12902498229404,-8.055550677600316
30,-5.131715278832075,-0.7915814696682858,0.8204641987467182,-2.312961027518103,-0.9102712111877003,-0.54665185153023,-1.0091904543771506,1.4304612582262854,-0.49337406473472417,-2.4219158354876487,-4.8855939369704275,-5.290236418552242,-4.997583359265424,-6.067338507177231
31,1.9059885651693926,6.268994347823355,0.3055573200114278,1.9279375973987358,3.4059544556198973,2.426901656414549,3.450158388949776,10.672528698581912,6.89074924362602,4.678189485754675,0.8814776752632757,-1.163154356268724,0.1311968403926202,-0.22408392318669523
32,5.99439943414831,6.113949857235977,-0.805390133870934,3.7691469464396334,3.692857372517167,3.3188956181830718,5.612145465389337,10.376951181420669,7.017666940738422,6.144847809735503,4.106580974675219,2.500984611092493,3.4250742974073756,4.180548660904196
33,4.281155230316286,-0.22168645912119728,-1.014839680984889,2.3351041610165177,0.02809883602735891,0.8072212436645761,1.811386662266755,0.9041735127751311,0.9841507103867331,2.54505164973256,3.1375538001502643,2.9160368413650346,2.722398751281166,4.295979762810732
34,0.31563838551247364,-4.01426186040803,0.017442108748673867,-0.21688993582372318,-3.2690640235851256,-2.4917186617198506,-4.471401182057528,-7.886921767659051,-4.307417175598838,-1.5470683472408,0.7298597475801198,1.3402421497067485,0.5712245314052349,1.8156048928327762
35,-0.8154844327772814,-0.4657468791238419,1.1582122442345286,-0.5767944038367773,-2.733876343658033,-3.248863324130683,-6.010636414850363,-7.651317979403917,-3.8814076239214046,-2.3217158204566735,0.3517579541359343,1.2411235154455353,0.54946159704113,0.21328709412039504
36,0.9701105899405807,4.528476351668223,1.1469384936698037,1.3376743620241633,0.6572195739772833,-1.117890454214073,-1.1611095856246703,-0.491427744423632,0.8888353793322984,0.12521162610823455,1.866974374740176,2.8925131921664233,2.3339242321467837,0.5150951464197709
37,1.303746842211751,2.7805539201527325,-0.048472093741195946,1.5669108864571744,3.01883956544897,1.263043934635864,3.549119857976324,4.680153990111994,4.367444821163635,2.218233498707668,1.799650124075459,2.204368039170559,2.1976248592744683,0.5587030645277987
38,-1.8331732540898464,-4.116994536308639,-1.171163238254646,-1.9233432934876342,2.088485802229956,1.5580873839025242,2.2567543628581324,2.9984786572868933,2.460852206544674,0.8674647404657843,-1.7173956660670677,-2.897231522496831,-1.5265785565421608,-1.453673832181618
39,-4.947782280473471,-6.805657540124029,-0.9949953380403439,-4.938069485387489,-0.5584647142584218,0.27085113319967136,-1.9330442398098868,-1.75591405046145,-2.964936285905527,-2.6589988017291533,-5.636888035476434,-7.525214697634299,-5.541343534059318,-3.90439103116225
40,-3.965429770546424,-1.6255682441912065,0.2540847586500863,-2.693618469922555,-2.0047583492267673,-0.3689124855865985,-1.6186461016763094,-3.0396078345704884,-5.759153127500726,-3.996162446481202,-5.2018617219551,-5.280772493407631,-5.286927944446645,-3.5405233104793745
41,0.2783352148999944,4.3215922379092735,1.0938425415464719,2.3718771514217436,-1.542799245628623,0.4931687793347564,3.6052218837450893,0.6139038067129436,-2.4740387948785294,-1.2028274764300242,0.12725943107206747,2.503443351887471,-0.37360507459882075,0.12749903625861334
42,3.6372476028279057,3.7714709751968,0.5769373369405866,3.7567960474099507,-0.6085101371834861,1.3414407573295948,5.996061512711352,4.59141418460159,3.3428404560431084,2.686360913309074,5.579824125570638,7.456167359075984,4.830155471600866,3.6836400143080295
43,3.8594834429049163,-0.7346135271465044,-0.5695849733214954,0.7084712314108356,-0.12555356280387123,0.522803858414884,0.6647015282936872,3.654581511254188,5.363671234609744,3.5692806478376538,5.996190691085439,4.494357351600555,5.594127628328472,3.5048283277949714
44,1.8723243783396823,-1.968315578037292,-0.9730093352409869,-1.219598232535961,0.36947219542683396,-1.4601537737761063,-7.121144415503415,-2.3328651586134423,1.944953443175659,1.1614523143219389,1.053578668863042,-2.29879215867285,1.4188964722704247,-0.11655045754578303
45,-0.48826518583647904,0.9719023690137288,-0.3222506601574319,0.5653791646338793,1.2962284922324996,-2.48604393448259,-8.429269136848742,-7.532106155906735,-2.5300792247422543,-1.3420534774555872,-4.260927589577581,-5.219532141719169,-3.280938229454358,-3.0062377728664322
46,-1.5868086664574736,2.700960074925317,0.5145819096359046,2.2309464669040024,2.152795271860573,-1.2658771536141042,-1.6396463097857588,-5.548553765398363,-3.245822906818974,-1.4405359039187808,-4.368299050940449,-1.6537729763063163,-3.3869881483621183,-1.3983374632644088
47,-0.390912953059729,0.7691748514600567,0.7547113581538212,0.6718056030274977,1.9899145048324034,1.1786068099785427,6.108738253482683,2.8829711901583717,-0.185050925054082,0.20284274006532568,0.8480910736339314,3.966861688279879,1.1314008663537,3.496091176541146
48,1.6885182551063875,-1.3891172197023909,0.4277454686862047,-1.7596066256633127,0.19755461534438673,2.497682983758639,7.462999900963591,8.966852044800687,2.4430057217446546,1.1852019346699656,5.173578545538077,5.382854480448817,4.5033175102914065,5.754505141415819
49,0.9702994002663317,-1.1740782486672128,-0.04836245949387821,-2.1236385709984575,-2.5783303491650207,1.4758388043578314,2.4911524363806503,5.60970397050095,1.3060359411147127,0.30390113173411715,2.9528112826966035,0.846707104294222,1.8339159745791742,1.0938945308698598
50,-3.582857194656866,-0.9462915626681657,-0.3857464519053239,-1.587884614748038,-4.20486617067954,-0.601612933998867,-2.6090009350946644,-3.0222991055229533,-2.0425965070844376,-1.3581608079769867,-3.78334689984189,-5.348814739913649,-4.530093551023265,-7.104507358939392
51,-7.065796610377923,-2.9924484074444226,-0.4406958357555021,-2.073606137485484,-2.917894461009956,-1.4643175663576369,-3.1688574589321954,-6.379889904500204,-3.04161174517682,-2.109225184514284,-7.502364677133652,-7.481719091884229,-7.546030152018799,-10.334933051262276
52,-3.800240121015905,-4.355446012062433,-0.22616304651095462,-1.8937344601767339,0.5253590340809222,-0.6407250491571381,-0.8631357191711901,-1.7483449753427982,-0.09569356648405153,-1.541552296279033,-4.037007740182228,-3.9033711535387976,-3.6717522691112916,-4.345699993210624
53,4.654075895792344,-0.6027585938490085,-0.047599759357081946,1.4997044775152937,3.6373592263133587,0.20154138780459,-0.18505660740448648,2.6885230886814373,3.1789253421084998,-0.06791466735377459,3.348391259379112,2.559503098893922,3.7679726926331787,5.933785917620752
54,10.19705303980742,6.686541313042999,-0.16658157655275893,6.237176784661759,4.699036456979449,-0.07156502948487509,-1.7451455648007548,0.7176082309906497,2.8802238696591065,2.2137242550147427,8.290166184732438,7.852182855368509,8.749160995252133,11.707804113163782
55,7.427019622378219,10.016076417252124,-0.2393512985372291,6.982006847941423,3.3176608398592142,-0.40645569366978446,-1.9177377004487306,-3.09829358389967,-0.16571777266944568,4.361605506131484,6.997764475479546,8.549412546266668,7.6815389746370695,8.714935276553852
56,-0.7270992350151863,4.53907800893097,0.3068685093914495,1.3623250086072296,-0.28807694185689825,0.42000490277365,0.9334849414139337,-1.9020676349703378,-2.423107026129657,3.5405449700971157,0.2922777681478414,3.012375106559695,1.091567417023136,-0.24773041414953165
57,-7.268386483318591,-5.503614618795169,1.1597675851063733,-6.353993638519971,-4.514094343054037,1.3930149630206368,3.4857726734133783,2.5091126797878647,-2.536355580348008,-1.5584149802095058,-6.830297772454209,-5.70385422526845,-6.721850369504621,-8.562505472583203
58,-8.098095184514246,-10.713822011683181,1.1484504902690464,-9.015619817473892,-5.95741910434462,0.6544390735064329,2.4297411113908516,3.7209270655058666,-1.3890428357086873,-6.630284895433995,-8.163034856335397,-9.957950738258907,-9.62878880569936,-10.226025419256567
59,-3.790934213864238,-6.655255430363697,-0.16596861429975696,-4.072739460642461,-2.5988666875633317,-1.3132658466007763,-0.5253269675728357,1.2499136036513283,0.7398478348599,-5.399670897252869,-2.2636400008416993,-5.15270975576754,-4.650025736784847,-3.9166239102899123
60,2.2866318307962583,1.5228697042705235,-1.5969329893079542,3.3457222154054747,2.747392624182335,-1.9818242203199388,-1.3571311824778325,-0.19486272112472267,3.515164727942218,1.6459852593349273,4.673027653304852,3.444093188352165,3.772433473477601,4.878532780942014
61,5.68582873661994,5.467062502483871,-1.648438364574768,5.979566250654625,4.867025156553223,-0.3609137191976851,0.3026309202821848,0.4812993222264964,4.350030920803707,6.534973365752942,5.270248440490911,6.226499269215064,7.31564117493813,7.8154795798381995
62,3.5714420559523306,3.247106266584503,-0.3086261850219346,2.714284419079732,2.4025781565892763,1.615308385834762,0.9482529580314578,-0.23177273248579902,0.8682245469350377,3.888898853604524,0.1120194636968261,1.5205742923404941,3.1883670978495973,2.458925693838661
63,-1.6580721240849223,0.27617261711786484,1.0315439949044884,-0.8889611095018577,-0.8040728763491858,1.8090641067216848,-1.3614417722002916,-3.2624844436380593,-4.556798845932713,-2.25278093796581,-3.288319600415283,-2.820229708981879,-2.5679845615645944,-4.32781473329512
64,-3.5369534144945476,1.0089760493289563,1.230284300378196,-0.5526233508063711,-1.2228374979954644,0.4103710610612334,-3.9266010297827405,-4.829895822013754,-6.322605924695144,-4.475648667745365,-0.8232975389329028,-1.007412965739669,-3.034297819758202,-4.345199943654512
65,0.8540644064850721,3.1817357528988146,0.5117720949676426,1.512480539681365,0.11612258592694391,-0.9152943946828379,-2.830817563690995,-2.2731814147411864,-2.429733649517859,-1.4601605659526447,3.1984797765452284,3.1174828312477083,1.0174745201233855,1.8729054060888084
66,6.036608353498692,1.969664695080182,-0.06781180808936217,1.0288058803471862,0.20463197956804016,-1.127491267808045,1.7858908143091599,2.284215732348926,3.0220399248729253,2.0671089103076983,2.9074750098102022,2.9675463748955218,3.2798128435568175,6.052008523236681
67,4.253075042129669,-2.868057346774129,-0.005570747534269126,-1.9118952889270378,-1.3255536631768476,-0.4171987813536845,5.400233572447085,5.104295568060222,5.149116229143961,2.4975095694080776,-1.1346760995356364,-1.1408905424663671,0.6701285630309411,2.8436334622042287
68,-4.151824181508845,-6.716880405452461,0.0735628947800867,-3.7726850181249425,-2.2264748302963158,0.2766231915194413,4.221332778842009,4.6892340335316,3.5044309216228213,0.6174930025062677,-3.789159521004502,-3.682813532994326,-3.4825047385862877,-3.8722948504193537
69,-10.14782278133492,-5.741450873398372,-0.5576031102896227,-2.8505044563250337,-1.155731696444251,-0.00045595066290905414,-0.46154227953581817,1.793311855543736,0.662463927132567,-1.2875154268746574,-2.7493375822057797,-2.343651580736667,-4.4759054945920385,-6.547174832627122
70,-6.7626308098690355,-0.5939182831311756,-1.3722141904601781,-0.4772977950405234,0.8475344104956426,-0.9843332258766151,-3.9168568415727636,-1.8616847807198482,-1.7211495097594105,-2.0246038903742307,-0.3915123532685094,0.05978660146626175,-1.4841555065280316,-3.160302387014401
71,2.693039811106184,4.894509372202291,-1.007841718901378,1.8772673592148605,2.1682138595725484,-0.8228558070152094,-3.365957959481941,-4.035160727895495,-3.1573343988493274,-1.1007951303339596,0.9935912682510158,0.9314487408453491,2.64073621212503,1.7422702260632148
72,9.109952068136828,7.068351744043864,0.7057378834647471,3.6645628396650265,2.262302851378317,1.4934403104194698,-0.4813261703099125,-3.2125919276557404,-2.7649832352143227,1.2486322273787505,2.001446633664701,0.8587224609332326,4.684434296898369,3.872309316641689
73,7.898760378875905,4.767997374220392,2.0110462791120596,3.898085415104571,1.2893135984280584,3.5641821016423334,1.4724136828735324,-0.5214191046152793,-0.41086043178416337,2.9891919834240146,3.2660921348785767,1.05471966214286,3.4380298121892015,3.485261955802464
74,2.1013647245005154,-0.2516502522084578,1.317269744548575,1.6469849327263462,-0.48159362127804844,1.9209072135312784,1.4375530208931502,1.0236492528390344,1.7184807379161429,1.765008363625823,3.0194158201332963,1.1950391297914413,0.11180603500386765,2.3869627142070673
75,-3.16869560999371,-4.5832218999534975,-0.5912517314675454,-1.7834795956972342,-2.2043781623537617,-2.613075581235187,0.5961260612688248,0.1964191560866781,1.4110907387714535,-1.6890629972656566,-0.27059315288473,0.6765417080247152,-2.8204451011921523,0.43664456225803383
76,-5.758635779912767,-5.415462828394284,-1.5250672171758726,-3.5584910044094387,-2.4789187686447374,-4.858133588130321,-0.14752314567108846,-0.804709791124592,-0.3739958479739594,-3.7975448093798057,-4.5419252381418325,-0.2268284724512504,-3.693679614752737,-2.6468255379646233
77,-5.818437836612639,-2.6324270022746066,-0.7438505287819297,-2.8430290893873975,-0.8946353471670059,-2.0283205369278705,-0.9258561442310318,0.4020567270658795,-0.9491210820317962,-2.584120147550182,-5.749662893801532,-1.1843116019263853,-2.743365081155742,-4.7425729368882505
78,-3.414638265304756,0.9280347893563272,0.3785124312500917,-1.52825331047984,1.0532095662374272,2.291533450636452,-1.3905129416411592,2.7537099386551405,0.21546701127879692,0.322407045794375,-2.398334266455468,-1.9808727954130705,-0.942308713596182,-3.5694164695003363
79,1.1321615846474191,2.170568736601691,0.5341717816307685,-0.7801651212503841,1.6015589463521007,3.1968869720678113,-0.37533274305098585,3.192025355505934,1.4077816864035566,2.6731419322566627,2.9020252194405565,-1.5933978492666718,1.3970530811889519,0.03138814566346795
80,5.607785809320294,1.1468137240116494,0.05249774334446465,0.652464195220354,0.8279560677322015,0.9750248157270452,2.072718301598304,1.0526024772252318,1.6940303931933651,3.826691727739837,6.024983874839049,0.7132866909912314,3.7885213088155965,3.2805022542754294
81,6.650336242093793,0.654419194386823,-0.1360435516458441,3.313167805111065,0.13554202329985982,-0.5064564924489078,3.595028461121952,-1.215443251497841,1.4439956497987338,3.205298053321086,4.690631410123552,3.029736912697136,4.32519531126416,4.509008287630903
82,2.982444369417102,1.9517115241201308,-0.006392041515060478,4.680283881546731,0.09521782749229313,-0.03686921098910091,1.8182837153946154,-1.8386965871455594,0.392168298056626,-0.04375543881936223,0.05953355433557149,2.2751741867328112,1.4652716273567226,3.388332277850207
83,-2.658975666300507,2.6674098795933774,-0.06470562239961455,2.2904498267918925,0.026559812363156316,0.08844030854340142,-2.4883658312167216,-1.9780265820426615,-2.0619199072251213,-4.222126801909688,-4.102507382225437,-1.1399564250738798,-2.9382013807659995,0.09292113300570122
84,-5.727006750820166,0.3662189836336875,-0.16452569201027983,-2.2117823670366885,-0.4454919578467975,-1.221533920104292,-5.567272875786701,-3.0635109313608053,-4.55723838199274,-5.2830559304010185,-4.553499126589734,-3.079806828407971,-4.735909028154653,-3.7323603803336964
85,-4.127174806487746,-3.401904607489348,0.22713040768293283,-4.568389477821938,-0.7415054938465916,-2.038041357624879,-4.355660063611749,-3.5890489161117975,-4.243906547179893,-2.0015772547087467,-1.6644476140900863,-1.3889018833417581,-2.4092592640784947,-4.9311534895717175
86,0.13778096063157794,-4.701170738479833,0.7900052325808841,-2.979867500753566,-0.48968555128130314,-0.8233272547596828,0.3442500781413771,-0.7753930474036449,-0.2764575509808175,1.9780875669279399,1.226507812792332,1.2440466481068326,1.0960526837481548,-2.098207882415279
87,3.3459806520849935,-2.0898635934729066,0.4901344656458718,0.2319594589686997,-0.15068300573898963,1.2736761209757697,4.751375612928449,4.750046678368101,4.6225308098468645,3.2317864767625233,1.8852322108740072,1.8136112106993176,2.451235563769168,2.1184813196484287
88,3.31546619911966,1.945292581924138,-0.7542573658464785,1.938602511935158,0.025083667967547442,2.4180983054740675,5.870168064993444,8.110257687246504,6.632031893980597,2.6111395309935594,1.3369723745990096,1.0893575420028465,1.7422051728413568,3.8133618281171064
89,0.5041648106877846,3.9412009885197445,-1.5005507315744284,1.439481973958148,0.47309624748015383,2.08741560075441,3.596103961689464,5.260882003482586,4.109514384173799,2.0021259187770757,1.220869444271889,0.7220295400221758,0.7013938119888392,2.064477513224382
90,-2.7805818169037058,2.4435673557690665,-0.5904666204547869,0.036068316342920397,1.0108495442642078,0.35657963704402995,-0.5801901466697085,-2.053333219369403,-1.3388453795784772,0.45917142092190155,0.822826517550965,-0.4060249990396895,-0.5197926907930048,-0.9502906439324212
91,-3.7041763915703654,-1.0875202653661342,1.0822096859056827,-0.9330247598937229,0.5071124311682073,-2.3706070025460892,-4.937330344459407,-7.642526273906844,-5.852678636588686,-2.896289805377512,-1.1338950024715637,-3.1906429736388904,-2.163349765114959,-2.7470884905011204
92,-0.8036163407495585,-3.0514566134725825,1.5599719080648518,-0.6692513894240647,-0.9404962586232068,-3.9958879884988736,-6.900496700447268,-6.954707109548155,-5.766342686653424,-4.795247320594337,-2.925556865585342,-4.281073805511485,-2.273177262036699,-2.004203395096668
93,4.029563019979385,-0.8270386140399957,0.34759014849352904,1.051808009417641,-1.187994854312521,-1.9090530363094318,-3.8618297927523897,-1.2487426680441223,-0.9629435325815382,-1.4910080096737004,-1.3106743870335278,-0.06713095844067199,0.9656764233435705,1.0934007244386779
94,6.228651796049887,3.385594474222296,-1.0327568205837305,3.006780335985428,0.7225426991281675,2.786297923707835,2.9162004884242867,4.051979129274986,4.036484921784026,4.335235131893136,3.0168746727598115,6.27549188142878,4.8444069551148425,4.108352335241325
95,2.84391207297321,3.876411694454332,-1.0992354547329082,2.684062111283753,2.157895420873242,4.9524720382073175,7.327582320062748,4.714761441399647,4.247371987931261,5.402563208206111,4.666113639362879,7.069890039090157,4.061449845562032,3.4725451675177372
96,-3.915828923846255,-1.3334983383647794,-0.10398641270187998,-0.9895713005608094,0.2961233086600683,1.7259875185969817,4.693033764508518,1.3397155291150642,-0.12005300440916186,-0.4852924424392976,0.20276638395598312,0.27407182756067466,-2.1380620540180164,-1.4951349859620502
97,-8.3811685089899,-6.717818070264164,0.7003957215717154,-5.348890672051706,-3.121685989810519,-3.0882669495112665,-1.9528374044112788,-2.0390953958043267,-3.8921802996963732,-6.744326410088282,-6.347391459308139,-7.13791530788711,-7.8089758640155145,-6.535240946455969
98,-6.514029323727179,-5.505023113463274,0.7090616614685411,-5.912272613073446,-3.4095860879119524,-3.7710300002533828,-5.062874108966544,-2.2510924389787936,-2.969435262857962,-5.86412772031241,-7.185139534800077,-7.583087320089095,-6.643727281916443,-6.232476595294413
99,0.717079576539792,1.7158034555909185,0.23756734260044726,-1.1967865259123018,0.6254700271928142,-0.21950505474970983,-1.856126146731886,0.44656160261880373,1.5727123857643772,1.7475498563961427,0.10111456038802157,-1.3535271990605604,1.143289234286471,0.15109373647723823
100,7.870754768273555,7.493833182861984,-0.31177121527498153,5.00083973347593,4.546524440558185,2.4896227800550315,2.6439798114748325,3.151441917408824,5.295854453734511,8.441280642362132,8.765137870076506,4.985908376282751,8.877420071137452,7.342928444744846
101,8.991199068591456,6.195522620224672,-0.7052912235228695,7.023478191797754,3.8213866946322037,1.395967410245853,2.5840995506413593,2.89203383722252,4.631040812558168,7.460393110776271,9.574562891957287,6.18784320852906,9.48373645956196,8.733504018155605
102,2.9568710723209053,-0.10152631821313678,-0.5623183409461465,3.2537950356847274,-0.4070041037333959,-0.9179797451320947,-1.330504562667896,-0.693637516863767,-0.3302653335908454,-0.3752684280943592,1.0929202924841857,2.552009826652599,1.895876247103808,2.691098373047503
103,-4.765307513020661,-4.836392345367268,0.24551705778666272,-2.21990024535512,-3.2151975596413234,-0.9625307326049951,-3.51767900247221,-4.4907065042510945,-5.63058967637249,-7.576979106921105,-8.234544940870304,-1.9025949576678467,-7.488735603988961,-5.539048653309226
104,-7.3685532578074024,-4.496327899850475,0.9036038669888886,-4.369448901587454,-2.5293540354794493,0.6013540704261232,-1.2734916398585394,-4.645876308045185,-6.483923181217936,-7.664343531053013,-9.28787792127991,-3.6709370499728733,-10.30428445243838,-8.704204153515349
105,-3.758728075924083,-1.441811335901241,0.4243312177538089,-2.621881214773922,-0.9030220009170984,0.7576391141642772,2.1419971675290377,-0.8239243053398716,-2.0206523547832766,-1.6975582634323991,-2.203214385732179,-2.3225138362704345,-4.299128050628612,-4.610073344805264
106,1.1074760561568326,0.40484102002536576,-0.7090174020875263,-0.4031206576206924,-0.5568443630257393,-0.8325010525095925,2.6316348742382893,3.2246368417397937,3.3963622910865587,3.82955631782764,4.741600457533449,-0.007781344286425164,4.353098392223118,2.095189393631508
107,2.495514810736262,0.4946274362358687,-0.8481589593497048,-0.2097933625903619,-0.14840432136215795,-1.5576610549718117,0.5555781658866477,3.8466062456398125,4.770803476629709,4.636579658865286,5.210243468036834,0.9300458663362607,7.55101181100212,5.237343527125996
108,0.7936342801839419,0.9621785490666726,0.3914759185618398,-0.820644341940512,1.8213973368149243,-0.1463161500950699,-0.9266294169784592,1.3015450744155754,1.8959804413112251,2.024807317212423,1.191275563233312,0.1736500208515573,3.654141799893679,3.4181903130901765
109,0.02924801413443446,2.616887951566457,1.2488948932852144,0.4227639776748465,3.4871687215210128,1.6116512421606173,-0.5909459147363376,-1.068074750746637,-0.9871236124674742,-0.46645016582884913,-1.0484584376366213,-0.2995202567927005,-1.5539576218918363,0.4583736807097468
110,2.345404528452706,3.7189168659922016,0.2935528100127463,3.5616644593345,2.3622174167781793,1.7900375792087422,0.20624563996190293,-0.8152968407176766,-0.6654685565607179,-0.8950247704409027,0.7879391532751403,1.3160393044900323,-2.2169263872759224,0.05057258955705471
111,4.624393244449969,2.279738517741802,-1.2677062823403906,5.113643267302317,-0.5112523431289199,0.6082528132979381,0.2767065937403856,0.9702153933825434,1.3149011787188767,0.286729076075307,2.6639800503596143,3.523271263545228,0.6638666889199896,1.2032296645471106
112,1.9596008648668901,-1.74449117835241,-1.1641966250195188,1.8949875790265327,-2.294615778959338,-0.7834662422896909,-0.2885111794234707,1.1342331299853092,1.1394132335884524,0.90677440745105,0.04889985787098884,2.3644542541478617,1.1485805941661755,0.034668883840010635
113,-4.979648177233309,-6.008185762382791,0.5769293711598821,-4.298747424469405,-2.6610691821543577,-1.7692756123918192,-1.007066240754427,-1.4019734647153734,-1.8863443313336243,-0.9250585689798957,-5.4527311789242745,-2.989976549386449,-3.053560448874469,-4.2095150705848
114,-8.792361826899569,-6.802995564410611,1.524165146399966,-7.404109855053953,-2.9382803008959657,-1.8892373685007138,-1.2678186128156286,-3.7675654559719836,-4.131090404639811,-3.7063540588922597,-7.239508211956292,-7.156687423864589,-6.49874706310282,-6.823513924561913
115,-4.183661642035765,-1.992357184135816,0.3370695890638805,-3.7927969776405943,-2.200033574999492,-0.7190381532492462,-0.37745496046252597,-2.5274812606398185,-2.376501342378605,-3.1575087556625805,-1.8081916254887787,-4.267055576578893,-2.837921289742379,-3.035139905636768
116,4.416731562205528,5.607788411900757,-1.2679330606087735,2.98014072926751,1.497789098274702,1.1797496081423862,1.2997875639504681,1.5622537278245012,1.7440480543787775,1.6102933482125923,6.2218264714858,3.6935012466705026,5.687243485202982,5.028962434572165
117,7.99863920631163,9.242118233638493,-1.051938660052026,6.099911201343506,6.016821014377335,2.34826949765691,2.0661456302501886,3.991385216371942,3.6268849715698743,5.078079008701856,8.907958479526549,8.128392839934897,9.634994260145584,9.461962077996938
118,4.278537259182735,4.99684636452081,0.5358563778035832,3.4091847844574033,5.864184414495427,1.8811617606919953,1.0095933272114568,2.0838158783746,1.4665504052898617,2.406394419980973,3.9731110283726037,4.393297497758724,4.178862786229896,5.6135975605725275
119,-0.7978999690418024,-3.08745112348161,1.24332046891031,-0.9375276174940563,-0.2720435666771185,0.1477699231867486,-0.5398046776814525,-1.5286028231744417,-1.5952284327684296,-2.789186247968001,-3.057286870488114,-2.551315641592963,-4.503968732725139,-2.3672984859681234
120,-2.486711846754498,-7.235148035401626,0.3451577985452384,-2.5276624637075376,-6.343472676287934,-1.6995452236967719,-0.9732018249514208,-2.2812355596690543,-1.5598872681166804,-3.1334873053406906,-5.857784952333049,-5.203217615567686,-7.358271749446175,-6.873796805359856
121,-2.674270411429755,-4.8780382992370885,-0.6915985991360464,-1.5840780846212588,-5.965681193737998,-2.3368913180846143,-0.7324107174261237,0.47344172191018935,1.4236054039322594,1.4255740402431056,-4.122938039759984,-2.8731500953828695,-3.5481673783074728,-5.540583878472532
122,-4.033490546944135,-0.3738740016467652,-0.6424985414557322,-0.7682692318133894,-0.2710057164958281,-1.1168502143054377,-1.0284645325041801,2.8452360949237714,3.375790501048554,3.6970535266432103,-1.7295854552740373,-0.37651982638578435,0.6505918112733763,-1.8646108968533213
123,-3.978278032713122,1.9745451289875875,0.026058651841619172,-0.6446836412875034,4.0830613205137665,0.908447657975991,-1.2428985038323772,1.6170320137273015,1.4825772168579205,0.4854788042953606,-0.21347506545386974,0.1664044126634081,1.6132009416044584,1.003479531906261
124,0.946975370576171,2.5190866804912964,0.3348760369954396,0.2187584220040079,3.301001874431575,1.7131616826991687,0.14864339870459475,-1.8963947391464815,-2.6405794527365227,-3.1837397135984276,2.1404104485381006,1.0989365996332994,1.587339960584068,3.086901638727505
125,7.41346318238182,2.8983490698747842,0.15281553205704707,1.7862425058616558,-0.03769722420649072,0.8132139604624,2.3864568436031006,-4.012902772638676,-5.078150721107095,-2.792092028800746,5.061217056458963,3.207672082991012,2.5757650126554563,4.511084529887926
126,7.72649601706597,2.4026377590762764,-0.04291948480169575,2.0131722234067806,-1.4174240825315518,-0.1303123764653191,2.6439455050957856,-2.9500553093097066,-3.7351912927742825,-0.5340372359930021,4.893900187463576,3.382751623780179,2.676096410335855,3.7258798475068473
127,0.23026242405956288,0.1921243991762087,-0.024605268186519154,0.10926163251923175,0.13186824250616141,-0.0025770762660106937,0.06440688913415732,0.24800264867477187,0.32286679097656074,0.33274583600380003,0.3453546171977727,0.08542585436054076,0.3670203153063071,0.3070202810313032
