,AF3,F7,F3,FC5,T7,P7,O1,O2,P8,T8,FC6,F4,F8,AF4
0,0.24832162536988386,1.3191959263186641,0.07114313096867717,1.0514914356902039,2.0621238862349327,-1.1406956022617245,38.51567688861748,0.930935039305919,1.734037780281667,3.5277553998729703,2.0657124371628477,5.615496943974123,3.547898909793988,1.2664434340559536
1,2.828120577765244,3.9775146026978474,0.5195777783784871,1.9372742839096586,2.5625340224052353,-1.4346832089155221,42.841940566395806,4.187025047953426,5.509116424502944,7.426868933829086,5.419776870524826,6.775835081230461,6.776343207058937,4.5318439328024525
2,5.33152892561542,6.516367343002518,0.9239759694274564,2.79871552550101,3.0495663679228353,-1.715754094601052,47.10365334867595,7.381740044089525,9.214657226815683,11.243195182307781,8.713587547125455,7.923718487464807,9.93402486137245,7.715971816153403
3,7.69800361709459,8.836305287617119,1.2610966758567677,3.609888874939909,3.507335470056544,-1.9790741645882184,51.26210046897601,10.455432111909914,12.784952367208044,14.895713988068879,11.88261180626259,9.028316607044202,12.94769856631623,10.748521588921088
4,9.872031733390969,10.844370023915904,1.510586917094046,4.3470444747082535,3.92117179740407,-2.220518258714385,55.28461308159361,13.352134432648183,16.158448782143502,18.30800673071711,14.866036115901519,10.060910526588595,15.748149503727259,13.564462473059667
5,11.805056712760448,12.457088376920726,1.6558198084791311,4.989556234387989,4.278171598645841,-2.4367475130191316,59.145656851914545,16.021292829409127,19.279669844226593,21.41047383431648,17.60856870847171,10.995965601260279,18.27224726892558,16.106215921029044
6,13.457091528107355,13.60315367834309,1.6845812337554333,5.520713515193531,4.5676659699479165,-2.6252584690977536,62.82754448685845,18.41926113027392,22.100886811327264,24.142302661314254,20.062016309387584,11.81203706491047,20.46477500301839,18.325499262173757
7,14.797947899511314,14.22569623882696,1.589571152176761,5.928317241561951,4.781586427505997,-2.784406560564886,66.3207207480673,20.51050026848175,24.58346993602175,26.453110338928646,22.18657370924347,12.492464930867396,22.279964899105735,20.184755248442407
8,15.808032074054987,14.284059654114433,1.3686943293298202,6.205051835765052,4.914709166889178,-2.91340790573941,69.62359099828116,22.268436766707627,26.698863649688125,28.304198225219515,23.951778445780658,13.025823360807543,23.682682923695854,21.658109117053872
9,16.478682699271964,13.75501892521251,1.0251268393935116,6.3486189276349245,4.964767525152094,-3.0123228711434,72.74188996967915,23.675954228659172,28.429148446623824,29.66937180904999,25.337100000626844,13.406102691741538,24.649222214851555,22.731821024054874
10,16.812052625974363,12.633399775928153,0.567156818795105,6.361634559576711,4.932430587584084,-3.082023690902594,75.68761396773887,24.725510466468368,29.767173185660102,30.53530101417171,26.332152804049635,13.632618909312598,25.167685164121767,23.404230559853808
11,16.8205608834853,10.932083350768352,0.007808368501572078,6.25130580105016,4.821153462905975,-3.1241473758811313,78.47756467063381,25.418891192911712,30.71626378094122,30.90141918000493,26.936542695542098,13.709663024906309,25.237955790549854,23.68521827712992
12,16.525960793940957,8.681404200404689,-0.6357344290370747,6.028913224279862,4.636910186061779,-3.1410346142017604,81.13157386962048,25.766627428259294,31.289535820882712,30.779381857351122,27.159374452223695,13.645918530741246,24.871283418932823,23.59523322177733
13,15.958084382804488,5.927971485436455,-1.342879370133535,5.7091327437667,4.3878238399651694,-3.1356552952772097,83.67049490981903,25.78711773254089,31.50885869141032,30.192127146895402,27.018461941110466,13.453687444694589,24.089514213982707,23.16395370096084
14,15.153332988927778,2.7329645088672345,-2.0905222367178196,5.309235797306154,4.083711935924298,-3.111521166967589,86.11405872660629,25.50550871086706,31.403537031684053,29.172596949084074,26.53929259677542,13.147974843934007,22.924018984489283,22.428661480403427
15,14.15299061511422,-0.8300259317709413,-2.8540474167687826,4.848211908839157,3.7355693788921687,-3.0725853969599033,88.4787010469933,24.95239785091756,31.008790348241458,27.762192535589314,25.753804977492493,12.745488703203954,21.41437433924349,21.43241800822087
16,13.001440252971284,-4.677521143322851,-3.608386615641991,4.345861324880975,3.3550156647674645,-3.023127475403441,90.77547222272804,24.162429963960996,30.364120305858044,26.009046771438395,24.699041996724695,12.263615618711626,19.606859441877056,20.222134734114558
17,11.744363528104921,-8.718941046159248,-4.329085819357038,3.8219057793717384,2.9537357067720444,-2.967620668697317,93.00814092612397,23.172860292925687,29.51165505602379,23.966197559173875,23.415742479913476,11.719432717292948,17.552831883191597,18.846627655965708
18,10.42700020247684,-12.85954477428383,-4.993330906748215,3.295161744988046,2.5429440904907716,-2.910579092008561,95.17159642087852,22.02215308383744,28.494550917750697,21.68974242291616,21.946929857464163,11.128811854934586,15.307044112713422,17.354739570816015
19,9.09253653183464,-17.003415768626265,-5.5808854946351625,2.782813446350433,2.1329006800095818,-2.8563833273973676,97.25064113348402,20.74867490533376,27.35551601250437,19.23704389306023,20.33654968414735,10.505664806287795,12.925957588780204,15.793603537202838
20,7.780680654941742,-21.05638645373994,-6.074900132113667,2.299813628697273,1.7325013861072494,-2.809087784572994,99.21924660458868,19.389528610819486,26.135501132222625,16.665041683552122,18.628198393882595,9.861367886296243,10.466106120492583,14.207108848304228
21,6.5264701399613765,-24.92880654808196,-6.462559416443985,1.8584298858531307,1.3489617748795728,-2.772218785215386,101.04032348815481,17.97955850371309,24.87258351818006,14.028713401877157,16.8639759307069,9.204391858032732,7.9825534010359664,12.63461721977779
22,5.359343585568976,-28.53807024486089,-6.735541916688985,1.4679448946161218,0.9876041568554564,-2.7485775106047474,102.66603280229678,16.550542811525066,23.601052880763927,11.379713719477085,15.08348659160229,8.54014970920845,5.52748353898291,11.109963100593964
23,4.3024966695488915,-31.810829116493842,-6.890275485004715,1.1345116199868754,0.6517523396051913,-2.7400646873209187,104.03864324391893,15.130578513396397,22.35069837161345,8.765214235933467,13.32300644185364,7.8710626966060575,3.148958289156691,9.660759040808678
24,3.3725331737712776,-34.68482945089622,-6.927977316771324,0.8611594729589745,0.34273292741960626,-2.7475437557208586,105.09191847065593,13.74365641943781,21.146290301151847,6.226961779831359,11.614830803442578,7.19683400100339,0.8898699796571611,8.308014836377277
25,2.5794115587045225,-37.1103258991982,-6.8544753420190645,0.6479431403854637,0.059977517865306536,-2.7707564239767892,105.7529983853298,12.409419985499293,20.00724930022946,3.80056914317997,9.986809582816637,6.514908075332681,-1.212886759611598,7.066066944292708
26,1.92667649205101,-39.05103869141599,-6.679816494181477,0.4922210117574316,-0.19878397460848335,-2.8082992972191843,105.94471974646295,11.14309840028258,18.94749649203001,1.5150475317653938,8.462070958789035,5.821082011397803,-3.1290091726187814,5.942802144837826
27,1.4119528507152577,-40.484639280206956,-6.417677945899688,0.3890444860249177,-0.437252255419894,-2.857663909496167,105.58830441725291,9.955602323497068,17.975479903777334,-0.6074157549914342,7.0589260498087265,5.110224767060511,-4.835140329146885,4.940147246248386
28,1.0276682621131392,-41.40276828563395,-6.084608413245571,0.33163359428072564,-0.660226138773042,-2.9153366449789444,104.60632842541507,8.85376893970148,17.094373980332335,-2.5514369896318234,5.790939736200289,4.377053269922417,-6.314986156688984,4.054785830118548
29,0.7619601547913836,-41.810608397653745,-5.699137065903166,0.311909514403821,-0.8732268865432519,-2.9769504484714235,102.9258714949745,7.84074138604372,16.30244975988882,-4.308181544322965,4.667146655027321,3.6169124981715917,-7.559207496058362,3.2790545427979363
30,0.5997151355441022,-41.726051593653466,-5.280796704230556,0.3210518056574227,-1.0820987561759705,-3.0374768988559655,100.48173437608877,6.916465134241047,15.59361151691377,-5.874890098559884,3.692386974390799,2.8265092281058455,-8.56510643313409,2.6019655507070545
31,0.5236825458824524,-41.178513669248524,-4.849115100579981,0.3500478354883662,-1.2926055519546351,-3.0914455792733686,97.21959975962424,6.078278937208793,14.958089451017571,-7.254208219652727,2.8677336918935747,2.0045546245805297,-9.336132515763083,2.01029807665502
32,0.515600404308291,-40.20745961873267,-4.4226331245537756,0.39020340350946,-1.510043179136452,-3.1331782410568576,93.09900252658451,5.321570011569214,14.38326648466572,-8.453351896066595,2.190981293651635,1.1522775177078144,-9.88124039207858,1.4897000019461601
33,0.5572710974633218,-38.860710680912185,-4.018009559203054,0.4335865801968915,-1.7388880459377325,-3.1570274989758165,88.09596900046022,4.640454247411529,13.854602385348944,-9.483152234961883,1.6571645399013342,0.2737772332951848,-10.214135330720426,1.0257406779737515
34,0.6315270360413794,-37.192607172901354,-3.649269330831967,0.4733813118391224,-1.9825000436853144,-3.157612219806771,82.20518581132518,4.028435674085663,13.356604228222082,-10.357031857276436,1.259076552850948,-0.6238076452348512,-10.352445669889201,0.6048591906192832
35,0.7230338409306858,-35.26209996145044,-3.3272435847252932,0.5041335153032501,-2.242896261447944,-3.130042926987155,75.44156904408162,3.478997740008987,12.8737826313323,-11.089971723014726,0.9877581195892557,-1.5303296904626968,-10.316860774759112,0.21515910757932508
36,0.8188905956253764,-33.13083775993655,-3.0592367012497217,0.5218801711180182,-2.5206074192028733,-3.070129825737477,67.84112444999278,2.9860836818740206,12.391531131434945,-11.697528446387873,0.8329356179478473,-2.4328673535891254,-10.130269799730382,-0.15298847894190784
37,0.9090024507926241,-30.861308505177963,-2.8489378078561183,0.5241611063802492,-2.81462338421839,-2.974564019617094,59.46101975780841,2.5444346914043794,11.896873015941589,-12.19495716549401,0.7833927981639341,-3.3161576224407896,-9.81693110627098,-0.5065574515234029
38,0.9862187963163963,-28.515082636187348,-2.6965743316432924,0.5099230392477115,-3.1224274918337374,-2.841060684675822,50.37882952930153,2.1497712741486925,11.379035112929115,-12.596483838540498,0.8272704341102857,-4.163207611792492,-9.40169555675879,-0.8497020702204027
39,1.046248462506362,-26.151196017040125,-2.5992851171022378,0.4793346355968082,-3.4401124968054844,-2.668453026105394,40.69095912011387,1.7988220098197056,10.82982797228634,-12.914755496630647,0.9522959342300633,-4.956053165343294,-8.90930042454613,-1.1838062642687528
40,1.0873800834361207,-23.82470174413781,-2.551673313574598,0.43353810077887833,-3.7625650143400056,-2.4567286064144063,30.51030338448555,1.489221165302302,10.243831697659894,-13.160480271752306,1.145951312029869,-5.67662078193435,-8.363745395710243,-1.5077237764407179
41,1.1100489721362494,-21.585413454798196,-2.5464868584954115,0.3743660917664052,-4.083701576367772,-2.207004993773292,19.963242842963542,1.219308998588686,9.618402576637802,-13.342253359934992,1.3955921471627188,-6.307640549004885,-7.7877582039491005,-1.8181758518013242
42,1.1163002867417873,-19.476857554870634,-2.5753678843075725,0.30405268211982456,-4.3967384751879255,-1.9214486894586762,9.186119430936195,0.9878740936633053,8.953526208444014,-13.46655219588102,1.688532437712955,-6.833553716754186,-7.202354130501496,-2.110266650143572
43,1.1092018637307821,-17.535447053952637,-2.629611077710362,0.22496492924185305,-4.694478457378891,-1.6031480115543237,-1.678638885831677,0.7938757495345847,8.251548832494267,-13.537874735530462,2.0121110387707635,-7.241358969553575,-6.626490121347417,-2.378072804058209
44,1.0922596661241006,-15.789884497817361,-2.7008735992136925,0.13937825404876736,-4.96959845236471,-1.2559545305571211,-12.486561976146998,0.6361784570194366,7.516821550626839,-13.558988624674742,2.353755310064206,-7.521345381064852,-6.0768103871026815,-2.6152616898110272
45,1.0688845541065308,-14.260795898251422,-2.7817852312130307,0.04931420458365077,-5.214923470540292,-0.8843075105944999,-23.09516682156708,0.5133226217060861,6.755292861931189,-13.531255847522397,2.701056577982098,-7.667667082882468,-5.567476537735557,-2.8156931910022087
46,1.041950478980436,-12.960592982575331,-2.8664176618814934,-0.043547613396221756,-5.423673846513192,-0.49305298255724395,-33.36780040331202,0.42334780207492717,5.974083221974693,-13.454997354581595,3.041869258945388,-7.678725045689882,-5.110072374134289,-2.973962881930962
47,1.0134714507562594,-11.8935587962188,-2.950586423640829,-0.137880908901599,-5.589677277936679,-0.08726626340987675,-43.17714605505336,0.3636776447633082,5.181071349292444,-13.3298650273597,3.3644408327771447,-7.557334762053971,-4.7135719919740895,-3.085851207573093
48,0.9844094708293355,-11.056151252308823,-3.031976428156556,-0.23265565992180653,-5.707543118698108,0.3279146216167493,-52.40827272849942,0.33106988815586674,4.384516702013758,-13.155193115364359,3.657574402480175,-7.310673863542325,-4.384360053356701,-3.148653158528563
49,0.9546103897711472,-10.437518727085166,-3.1100994869398444,-0.32703138109361446,-5.772802379124467,0.7474375946481591,-60.96114011274924,0.3216306034316259,3.592736775411694,-12.930306884577405,3.9108205248391243,-6.950019336641035,-4.126294872662326,-3.1613752012142315
50,0.9228516288050567,-10.02021922892488,-3.1861068402056594,-0.42022709591564056,-5.782020970259557,1.16646115594609,-68.75250542789587,0.3308893474959669,2.813851910233086,-12.654772201993621,4.114690814631605,-6.490298272806535,-3.940807807300326,-3.124799175451918
51,0.8869769855728773,-9.781128919246953,-3.2624894344482085,-0.5113971137391107,-5.73289460696749,1.5804515241360253,-75.71720635680325,0.3539310188019283,2.055604432858882,-12.328575903074864,4.26088273932442,-5.949486739395126,-3.827035369449708,-3.0414243556728766
52,0.8440901946592493,-9.692517364943566,-3.342702924654721,-0.5995389243232752,-5.624331374187439,1.9852534906177606,-81.80881750970121,0.38558015951241775,1.3252531945214565,-11.952232963359675,4.342502932025539,-5.347896810246904,-3.7819829296861407,-2.9153074532747
53,0.7907791599462036,-9.723257980039847,-3.430754508212288,-0.6834528196467469,-5.456523558198525,2.3771417023578425,-86.99969622618654,0.42063225951362593,0.6295379498476726,-11.526823555568289,4.354274187103775,-4.707392899453757,-3.800721371556381,-2.7518264000000654
54,0.7233444237283173,-9.840134795610748,-3.5307868179702164,-0.7617645846650557,-5.231005806958776,2.752863285427386,-91.28045017206344,0.4541222480614942,-0.02530065165128603,-11.05397213817861,4.292707879776063,-4.05057807359194,-3.8766212277727012,-2.557398521664563
55,0.6380076673132864,-10.009201269587399,-3.646690961794417,-0.8330140642704047,-4.950693250714785,3.1096838287025927,-94.65887638147971,0.4816128508815757,-0.6334697060491965,-10.535790878043787,4.156219534466719,-3.399990793382793,-4.001631874483697,-2.3391869123140574
56,0.5310804252532083,-10.197141923740778,-3.781775426396903,-0.8958035814148114,-4.619891115128539,3.445446029118562,-97.15843970544945,0.49947738490575233,-1.1895736507994508,-9.974817179733153,3.945163603445177,-2.7773515089427248,-4.166613810988776,-2.104827999159902
57,0.3990816344907216,-10.372582127373677,-3.938509024463671,-0.9489908627023773,-4.244266477435857,3.7586440509835226,-98.81637679932626,0.5051461348345105,-1.6885989739897804,-9.37397559535061,3.661767547422322,-2.2028940476413843,-4.361727417327714,-1.8622060109754541
58,0.2388047859083256,-10.507286224113498,-4.118344975409716,-0.9919020445214163,-3.8307733099151746,4.048508215576278,-99.68152707910757,0.4972850972410506,-2.125961148908493,-8.736586151129197,3.3099563787013504,-1.6948072856952137,-4.576871196458273,-1.6192865087886812
59,0.047348289533132276,-10.577182002659326,-4.321621650561232,-1.0245332685617696,-3.3875239532090076,4.315086227679478,-99.81200124431422,0.4758815568480646,-2.4976258943122716,-8.066425911543478,2.8950750991977126,-1.2687993945774958,-4.80214839158419,-1.3840045553396003
60,-0.17786803681675276,-10.563153273420332,-4.547526333267579,-1.0477067417131571,-2.923603521072805,4.559301005521374,-99.27279893436535,0.4422217169034828,-2.800298408749692,-7.367833087749183,2.423533246417402,-0.9377835418681214,-5.028327635760749,-1.164188456805373
61,-0.4390753097900451,-10.451554336298022,-4.794104343896323,-1.0631510523656171,-2.448828491638232,4.782962750182185,-98.13347999596341,0.39875853093826175,-3.0316584086108667,-6.6458291452115095,1.9024073995809145,-0.7116743125478115,-5.247256552024689,-0.967492107192055
62,-0.7380977832407647,-10.234420620219804,-5.058298138398676,-1.0734862819026914,-1.9734568486855875,4.9887148751263135,-96.46598012828666,0.3488798702135742,-3.1906098253455135,-5.906228475002927,1.33904049627281,-0.5972803644275898,-5.45219030639095,-0.8013102694102766
63,-1.0762577016033086,-9.90937572826325,-5.336007629757339,-1.0821095524207949,-1.5078634704025413,5.17990008271883,-94.34264269118123,0.2965968192805033,-3.2775122602140283,-5.155707568001381,0.7406717533613933,-0.5982800381598647,-5.638008882640675,-0.6726604069756597
64,-1.4542485709715267,-9.479261301934745,-5.62217049462188,-1.0929921615631406,-1.0621991266476973,5.360343562160485,-91.83451566545746,0.24617906948887086,-3.294364863346597,-4.401813547256602,0.11412118842491666,-0.7152703607725927,-5.8013131422224955,-0.5880280263577767
65,-1.871993228941962,-8.951537769577445,-5.9108669868507,-1.1104121023844555,-0.6460532997587477,5.534063026008544,-89.00993856343588,0.20176862168194204,-3.2449207144467027,-3.652902497689919,-0.5344585623140419,-0.9458840512397302,-5.940406337921706,-0.553185712643645
66,-2.3285094624302456,-8.337518361856526,-6.19545671734963,-1.138653563608398,-0.26814011163456575,5.704927593338603,-85.93342142759431,0.16700370818263574,-3.1347201306030215,-2.918009360685248,-1.1997610897038733,-1.2849723996571842,-6.055181589022709,-0.5730059819055446
67,-2.8218069756379425,-7.651504579262683,-6.468754440972293,-1.1817068614033337,0.06397662903223869,5.876297199930325,-82.66479921543846,0.14468229935591861,-2.971042839325237,-2.206661370922942,-1.8774419614378945,-1.7248530234587962,-6.146944739754897,-0.6512925856896064
68,-3.348834890601695,-6.909888676367085,-6.723247658598894,-1.2429982169251932,0.3441082330620911,6.050679570200691,-79.25863134855084,0.13648981786285772,-2.762788753720196,-1.5286539684985836,-2.5641818838681814,-2.2556195238226433,-6.21820462199368,-0.7906528725120465
69,-3.9054896679484115,-6.130279127461475,-6.95135122588075,-1.3251703507570864,0.5676104828469242,6.229441686586119,-75.76380916366337,0.142809655584834,-2.5203023376704223,-0.893810254823262,-3.2577070914289963,-2.8655049292936914,-6.27245854356389,-0.9924256042634746
70,-4.486681822971951,-5.3306910545897646,-7.145685350916066,-1.429924491039147,0.731497364139284,6.412606909848897,-72.22333402290963,0.162628293633937,-2.255154878179607,-0.31174207403339965,-3.956771650115816,-3.5412838387340426,-6.313990787464082,-1.256666443375256
71,-5.086449359997162,-4.528828350957867,-7.299356679270326,-1.5579248474758398,0.8345022959878573,6.598758314030957,-68.67423500989352,0.19353971788543142,-1.9798934476945196,0.20837629318885134,-4.661098913527536,-4.268691696090437,-6.347688861155672,-1.5821807625878381
72,-5.698099198660934,-3.741470394437673,-7.406219876508966,-1.7087599794737696,0.8770908973374111,6.785055488884309,-65.14760458771616,0.23184708809221444,-1.7077580189611703,0.6580199728258694,-5.371272389957058,-5.032835817134836,-6.378869844061171,-1.966583924778272
73,-6.314355863412591,-2.9839653204979846,-7.4610990760079625,-1.8809521699587133,0.8614287415750228,6.9673589394751705,-61.66873936689978,0.27275394181668255,-1.4523624107351074,1.0295175816850168,-6.0885620970543854,-5.81857252632964,-6.413100223205397,-2.406364649944817
74,-6.927498599128206,-2.269824414553299,-7.459953283126365,-2.0720048967881666,0.7913068898387869,7.1404457158148285,-58.25737819310522,0.31063263715117995,-1.2273326752986649,1.3162596404230789,-6.814672736875329,-6.610827821614015,-6.4559886868518825,-2.896928104618709
75,-7.529473143835271,-1.6104086174153636,-7.399976195715326,-2.2784789335498337,0.6720278210825334,7.298293042967269,-54.92803056168022,0.33935374683708075,-1.0458991671649502,1.5129236100319123,-7.551405772208896,-7.394845133734772,-6.512933629764131,-3.4326018918064136
76,-8.11197231752149,-1.0146982525380668,-7.279628126850955,-2.496089444048227,0.5102543151706339,7.434403494603367,-51.69038639767626,0.35265658765858443,-0.9204457208490266,1.6157222082224,-8.300238604822496,-8.156353036950302,-6.588815984515808,-4.006599305404566
77,-8.66648916006458,-0.48913978267974284,-7.098604602956183,-2.7198194950307566,0.3138236086055205,7.542145278460824,-48.549795331700665,0.3445385103437403,-0.8620294221950405,1.6226715365382687,-9.061838710404462,-8.881657586443728,-6.687641820146762,-4.61094783076478
78,-9.184355209686053,-0.03756718980046963,-6.857751693665211,-2.944048998965363,0.09152878728106593,7.615083642006106,-45.50780096270494,0.3096392780519741,-0.8798944992116704,1.5338638048796718,-9.835545894107273,-9.55767637587199,-6.8121544723442895,-5.236404049221172
79,-9.656782715933339,0.33880073259257265,-6.558942161241661,-3.162701440959473,-0.14713104461674473,7.647283243276623,-42.56271407725932,0.24359659549317744,-0.981011440160229,1.3517189488464252,-10.61886890586738,-10.17194175758729,-6.963449196026456,-5.8723863431039085
80,-10.074932262349952,0.641283550314417,-6.204929309646508,-3.3694129422335015,-0.39223041201793035,7.633566143715451,-39.71020885345399,0.14334970623574772,-1.1696763775882908,1.0811824885670551,-11.407050600930562,-10.712606430526126,-7.140631889699214,-6.506961979897494
81,-10.43002548868585,0.8735800479490744,-5.799196100155985,-3.557727779299636,-0.6337243339858213,7.5697157726090945,-36.94392722191626,0.007370832061458013,-1.4472052541871323,0.7298357206025351,-12.192755717557354,-11.16848389570309,-7.340565312697379,-7.126923213374846
82,-10.71351523253139,1.0415293052023868,-5.345814367756377,-3.7213201253171273,-0.8617764135727259,7.452623027751742,-34.256077578998294,-0.16419015307665913,-1.8117515308930945,0.30789009497324726,-12.965925687601057,-11.529148477139612,-7.557739924374519,-7.717976994810871
83,-10.917313088278158,1.152803363345659,-4.8493229989091144,-3.8542341033316063,-1.0670968824468094,7.2803756087441585,-31.6380141318053,-0.3694545018572456,-2.258265519448005,-0.17195057636521652,-13.713827287313222,-11.78510610518731,-7.784292721788368,-8.265056437135243
84,-11.034060463501044,1.2165521435775128,-4.3146267944837025,-3.951125993294163,-1.2412736234467465,7.052295684632991,-29.080782449247938,-0.6048549394171705,-2.7785998640106766,-0.6947617048073673,-14.421300573276303,-11.928031189508857,-8.01017993697862,-8.752743509512092
85,-11.05741821915064,1.243027312658393,-3.7469120157315623,-4.007486957996973,-1.3770750237993385,6.768934317244606,-26.57561623178657,-0.865258572164405,-3.361752474066526,-1.2437909074412492,-15.071191292730004,-11.951050666694538,-8.22349299059446,-9.165776328984224
86,-10.982345296944777,1.2432120106450502,-3.151572090755611,-4.019824298261034,-1.4687029186698988,6.43203263854973,-24.114371354528863,-1.1441595653581755,-3.994228657817979,-1.80094992456557,-15.644937708051756,-11.849046852954803,-8.410895108115794,-9.48960441409873
87,-10.805339174161197,1.228477526053771,-2.534138048757503,-3.985784564304166,-1.5119780742487927,6.044458186550496,-21.68988708484585,-1.433928934137996,-4.660500105259955,-2.3473788057143676,-16.123273312296163,-11.618947413643804,-8.558149580072628,-9.710952557183287
88,-10.524618483230132,1.2102785201093054,-1.9002116241485425,-3.9042110747163834,-1.5044486920517066,5.610120727041028,-19.296270519065235,-1.7261112356586539,-5.343538349456061,-2.86405629176843,-16.487004225882398,-11.25997288268726,-8.65070874388502,-9.818356956375398
89,-10.140237071790771,1.199889049594825,-1.255402241453801,-3.7751379877539195,-1.4454213298962653,5.133868069454049,-16.9291063350069,-2.011759688073967,-6.0254007564331005,-3.3324320190349273,-16.7178203260676,-10.7738177199274,-8.674333046628579,-9.802642835802514
90,-9.654126479883216,1.208175166950053,-0.6052706329669835,-3.599729984447124,-1.3359205867184532,4.621360912474938,-14.58559772303962,-2.2818003148214174,-6.68784544069536,-3.73505593472926,-16.799100160620686,-10.164747956014867,-8.615710133859745,-9.657318856948182
91,-9.070069899722895,1.2453965783350749,0.044718176466435604,-3.380180209288698,-1.1785879938336625,4.078926504991561,-12.264645582126814,-2.5274125843959503,-7.312948492913076,-4.056178293940252,-16.716671246076498,-9.439605992117988,-8.463044737257825,-9.378870043489622
92,-8.393615801953178,1.3210285636195884,0.6892304814865535,-3.1195804026786242,-0.9775323807853387,3.5133926634295656,-9.96687268561461,-2.740410566338323,-7.883695081002953,-4.282292145421702,-16.45949024841532,-8.607720459331182,-8.206592222137614,-8.96693809552873
93,-7.631943309713084,1.4435952950864523,1.323087272767083,-2.8217769324898794,-0.7381441223367442,2.931905722574186,-7.694598150753915,-2.9136063055741936,-8.384517004148323,-4.402591342810662,-16.02021195227302,-7.680725373581882,-7.83911232934745,-8.424385270062707
94,-6.793693180717382,1.6205066648722575,1.941276451931278,-2.4912248083661583,-0.46688439359332046,2.3417381036453815,-5.451765457983205,-3.041136346366346,-8.801753143311213,-4.40932152265602,-15.395621448313948,-6.6722975608415425,-7.356224298567707,-7.757244455906724
95,-5.88877787777378,1.8578925921802913,2.5389570627698275,-2.13284902958081,-0.17105839608856024,1.750092882762329,-3.2438251188028966,-3.118733277950508,-9.1240154708617,-4.298008907207728,-14.58691079547266,-5.5978247992104775,-6.756649883168646,-6.974563571903555
96,-4.928182469468769,2.1604314773712017,3.111460173626518,-1.7519193696768551,0.14142075877206473,1.163913403639965,-1.0775717795735202,-3.143927136056889,-9.342451437977498,-4.067561321990406,-13.599790148224171,-4.474019980440213,-6.042337035314085,-6.08815733461341
97,-3.9237653737317872,2.531173338390319,3.6542918659758787,-1.3539413133668168,0.4622727364358505,0.5897056327324608,1.039064511952019,-3.116166051655331,-9.450902495318866,-3.720245786968094,-12.444433435718768,-3.3184985316686197,-5.2184640107384155,-5.112283157746802
98,-2.88806409273627,2.971363228785351,4.163144517127009,-0.9445625764153551,0.7830918785906809,0.03338033764454035,3.0972720654478554,-3.036850177525471,-9.445966218684388,-3.26155533287773,-11.135268105136342,-2.1493362482147162,-4.293330172102351,-4.063259140929552
99,-1.8341066598014235,3.4802757131443753,4.6339227637600615,-0.5294920235121677,1.095587656889954,-0.4998781576478038,5.087653352432987,-2.909276522098026,-9.326974564224376,-2.699982903248324,-9.690625469274293,-0.9846225051418617,-3.278144926992646,-2.9590407212489547
100,-0.7752261956068209,4.055074848388399,5.062788694994874,-0.11442653676054448,1.391820639226011,-1.005710096087259,7.000556504312258,-2.7384954171106304,-9.095903125351342,-2.0467222984960447,-8.132272773108163,0.15797854388660013,-2.1867301113227824,-1.8187704087265897
101,0.2751248610339196,4.690715407269716,5.446226320199849,0.2950183474512313,1.6644294727028697,-1.4806394262361884,8.826431719547887,-2.531083235832202,-8.757226470355073,-1.3153157857622695,-6.484850887568331,1.26164667384813,-1.0351540430949868,-0.6623138993773379
102,1.3035630508044906,5.379900273670852,5.781119778058755,0.6933769632759879,1.906842659976774,-1.922089620747406,10.556197015052561,-2.2948409974056676,-8.317732941768742,-0.5212656452375095,-4.7752424742588895,2.3107910901267994,0.15868318668892403,0.4902043864461912
103,2.296965467726066,6.113106903274612,6.064835837238955,1.0754027319742663,2.1134679406754415,-2.3283541413299886,12.181593621226222,-2.038433737817402,-7.7863087268078806,0.3183772989132032,-3.03189398259942,3.291389410739812,1.37549501721508,1.6188542616355333
104,3.2426648504543345,6.878693068317361,6.2953005424666015,1.436138513345548,2.2798521705241335,-2.698522479021657,13.695508524016358,-1.7709899922559904,-7.173696178089773,1.1854405344286656,-1.284111288217019,4.1912687904026,2.5950703456131947,2.7043318053605403
105,4.128648328526318,7.663088762700476,6.471061743036387,1.770987611701093,2.4028052733428686,-3.0323664364859177,15.092240477612702,-1.5016840757427863,-6.492226859764138,2.0610695598329207,0.4386552107559733,5.000321164083183,3.7967434462622256,3.7283646584938666
106,4.943759241474366,8.451076891687753,6.5913321588435325,2.0757839926902393,2.480482920699734,-3.3301955623197874,16.367686694236347,-1.2393258923706674,-5.755527396524618,2.9261808280552493,2.107522909597269,5.710647962538235,4.959867646166272,4.674087813811897
107,5.677899909551963,9.226160194273492,6.656010789769615,2.346859468014463,2.5124242911236094,-3.5926942099843777,17.519431249015767,-0.9919831996207145,-4.978196733504313,3.761927926983626,3.694874224221523,6.316632899948467,6.064290711625043,5.526388549561925
108,6.322231138390806,9.971005875185837,6.665683631608052,2.5811051860929872,2.499543379581757,-3.8207543700930238,18.546723503689762,-0.76665919817059,-4.175456603107913,4.550177058949627,5.175024892803854,6.814944640634388,7.090829264819482,6.272218465938123
109,6.869361884774371,10.667953045787575,6.621607239036637,2.776024588601363,2.444074111657052,-4.015318180288596,19.450344831224328,-0.569044213447396,-3.3627819236530243,5.27398151747403,6.524846737044366,7.204473782840848,8.021736110000834,6.900867971465064
110,7.313520648825894,11.299562467425075,6.52568004578197,2.92977501539032,2.3494706178554887,-4.177242662100683,20.232373100521677,-0.4033544365833896,-2.555522944326765,5.918038398728894,7.724325277189206,7.486210341554625,8.841149522010118,7.404195352370454
111,7.650699798770192,11.849184896468717,6.380406582560528,3.0411957855352725,2.2202649799399614,-4.3071972880022535,20.895865256814623,-0.27226341274229254,-1.7685341612378593,6.469106908763477,8.757031295002923,7.663069427668604,9.535509699526338,7.776800684756609
112,7.878765455618235,12.301524307160129,6.188859169622466,3.10982218857001,2.061886290953253,-4.405602367338032,21.444487599784825,-0.17692365754362643,-1.0158248593777586,6.91636776919089,9.610487373064698,7.739674902669472,10.093926236479412,8.016135360450725
113,7.997528063491003,12.643174669079306,5.954640254288536,3.1358869691744533,1.880447109977292,-4.472612796542081,21.882129791275062,-0.1170673321242943,-0.3102424997204206,7.251706957238491,10.276415797409655,7.7221132697433035,10.508481523685933,8.122540526061098
114,8.008771297629504,12.863112282056948,5.6818462359456205,3.1203125726927072,1.6825058740006091,-4.508147704439253,22.212541074229893,-0.09116755202731623,0.3368054557909655,7.469912964462497,10.750861721762703,7.617671864036834,10.77445753934644,8.099211316166185
115,7.9162387032597925,12.953128586423892,5.375030918868742,3.0646978168216865,1.47481579620194,-4.511962624801833,22.43902474980221,-0.09663722334938389,0.9155908559733552,7.568783521583232,11.034193023095519,7.434575523517005,10.890476581816571,7.952087494830428
116,7.725578090680333,12.908189928193847,5.039164624242796,2.9713015799169193,1.2640714969124025,-4.483757644321181,22.564219567924162,-0.13004175240261948,1.4182674805326088,7.549143880191538,11.1309838801199,7.181734268859749,10.858549479256679,7.689674254367498
117,7.4442433288467695,12.726710482870834,4.679584047956516,2.843023749862165,1.0566638281988538,-4.423312598429036,22.58998569400016,-0.18730593963873274,1.8390385362535606,7.414782717390567,11.049791947629561,6.868511677858862,10.68402746670644,7.322798889046977
118,7.081352099341083,12.410722864824724,4.3019279920647735,2.6833804471272424,0.8584516559271126,-4.330638644328379,22.51740070517953,-0.2639026560825051,2.174287549835734,7.1723125976735735,10.80283952431444,6.5045200039399935,10.375456421657804,6.864309670073147
119,6.647497077525811,11.965929595544825,3.912054766620798,2.496467354093779,0.6745578069048475,-4.206134334632173,22.346859989911792,-0.3550192132310233,2.4226670634240883,6.830960274880352,10.405608520818554,6.099443846479729,9.944334770122696,6.328723007418961
120,6.1545080795296565,11.40161991088365,3.515938555030131,2.286903353434105,0.5091956372431381,-4.05073355165783,22.078267662273372,-0.45570419059688205,2.5851358757638594,6.402289902842988,9.87635862756127,5.6628900362972185,9.40477939243236,5.731825165519165
121,5.61516504271939,10.730441745171616,3.1195449339748387,2.0597476978685463,0.36553270002437643,-3.8660322152713955,21.7112994547141,-0.5610012119119602,2.664933617554689,5.899861351765694,9.235578694464058,5.20425847669577,8.773107480483231,5.090236583494506
122,5.042866360443097,9.96802758915117,2.7286899528565014,1.8203874140223162,0.24559839906416814,-3.6543806691295826,21.24571764669532,-0.6660765776743973,2.6674816295231403,5.338826806768557,8.505383036337529,4.732627484464092,8.06734631002719,4.420950056008553
123,4.4512628503407905,9.132483392681392,2.3488914742294025,1.5743964422420123,0.1502428185687857,-3.4189294642670522,20.68171857250472,-0.7663457081089936,2.600201102298178,4.735470936572609,7.708866624834183,4.256647271998607,7.306686441002203,3.740857033394446
124,3.853872675807153,8.243759963583878,1.985224305792572,1.3273729072414278,0.0791534964904476,-3.1636182348564192,20.020294148136,-0.8576000520392891,2.472243193829955,4.106702622613106,6.869435317738273,3.7844361066801895,6.510896142669732,3.0662776025828467
125,3.2636954740392485,7.322935255795078,1.6421911589285128,1.0847648703806356,0.030935006286781162,-2.8931008522822785,19.263589149790377,-0.9361322421027793,2.2941320757891863,3.469509876437216,6.010129294512919,3.3234754228620207,5.699716134952167,2.4125093758083453
126,2.6928443697112048,6.391442568849955,1.3236195155020918,0.8516969203138007,0.0032520842158243217,-2.6126055470766953,18.415235141442608,-0.9988537961267555,2.077330826390669,2.840394456335029,5.152960061496445,2.8805028582574153,4.892255123709563,1.7934097285675616
127,2.1522127508975806,5.470282972436017,1.0325904233040668,0.6328092641383296,-0.006969533707854832,-2.327736162534068,17.48064007501235,-1.0433977181251886,1.8337502073537224,2.2348081223086154,4.318283782152371,2.461405492223948,4.106408384584203,1.2210253852683108
