,AF3,F7,F3,FC5,T7,P7,O1,O2,P8,T8,FC6,F4,F8,AF4
0,-2.4319251662479875,-2.4148734474006726,-2.579201495497631,-6.569122696952798,-5.2388185594341445,-0.5738534184275957,-2.5988995871540816,-1.7103909047443615,-5.86304429284011,-4.066506413769109,-0.669141217442208,-1.6840352016603768,0.5101952147944784,-3.444485538202815
1,-2.1621669617696018,-2.641469340934334,-2.0726707438616057,-6.089128111348023,-5.295884792837734,-0.6348056087512854,-1.754283228748949,-1.3861297628920082,-5.823498729347597,-4.228860406067086,-1.17380216027878,-1.8452718886938035,1.3379080288125378,-3.2389692741750045
2,-1.9249807361673221,-2.8717698778606584,-1.5862136989606175,-5.6245053513916945,-5.36231669181143,-0.6945669189478823,-0.9344685164408257,-1.0742099853233444,-5.817854733961291,-4.381238568041994,-1.68214598849394,-2.006567439944456,2.15195206462557,-3.0353240573527005
3,-1.7205012213638147,-3.1072549818389557,-1.1190921689687856,-5.176085349773133,-5.43393258977677,-0.7517154716628603,-0.1466365502950348,-0.7723231677292319,-5.847214499447779,-4.516359551145189,-2.1861514435744187,-2.1558458319207574,2.9446199117463756,-2.827772679050021
4,-1.5475976828561606,-3.348409156544315,-0.6697887731673449,-4.744035133457124,-5.506337052274157,-0.8051939987078328,0.6026175401108409,-0.47770786726706493,-5.911113591184203,-4.627197866350614,-2.677146772738581,-2.281174593570773,3.709628612692414,-2.6100340862043923
5,-1.403886883382205,-3.5946870440379373,-0.2361050041109007,-4.3278991164572265,-5.575071397736488,-0.8543925327374753,1.3073227955534719,-0.18725953100794587,-6.0074879369441065,-4.707214747824084,-3.1459524015161806,-2.3711382500604845,4.442394410059622,-2.375462843522008
6,-1.2858282228857463,-3.844550040128152,0.18469050054639438,-3.9266703866332535,-5.635760614580144,-0.899206890758707,1.9621607104607632,0.1023146474075953,-6.132747672000166,-4.750613835793134,-3.5831074924866133,-2.415247749587759,5.14014493154603,-2.1172888924972852
7,-1.1889028264164392,-4.095573281363565,0.5956644466221188,-3.538889469956917,-5.684250825471613,-0.9400721275778511,2.5624807307354827,0.3942976413017227,-6.281960407529498,-4.752611546587624,-3.979181071601891,-2.404378790529679,5.8018567154226,-1.8289570506638932
8,-1.1078670633011622,-4.34461301680946,0.9999808091628406,-3.1627636886352564,-5.716731499231931,-0.9779714115957312,3.1043013310770387,0.6917315834904277,-6.449131713966016,-4.7097048327449835,-4.32515582533753,-2.331221546732219,6.428026028083014,-1.5045499370406867
9,-1.0370604004073174,-4.588016147616233,1.4006384806607985,-2.796296381371173,-5.7298370285456395,-1.0144197543737083,3.5842988733186103,0.9971722177915276,-6.627556186697784,-4.61991311139551,-4.612859751922152,-2.190713646324131,7.020299677511107,-1.139263679561211
10,-0.9707400256414731,-4.821848328500854,1.8002061727472976,-2.4374129683889474,-5.720722980721979,-1.0514196274959295,3.9997919148798613,1.3124525558978566,-6.810201850664021,-4.482967813130467,-4.8354109948878605,-1.980420917730481,7.581007036211251,-0.7298949114980979
11,-0.9034122302526768,-5.042116147427002,2.2005775994633794,-2.0840713514641913,-5.687113595918136,-1.0913837841418677,4.348733092886845,1.638480483102933,-6.990087753131043,-4.300424464707386,-4.987637456956748,-1.7008293274364616,8.112642252368254,-0.2752921896254212
12,-0.830132865572653,-5.24496247244509,2.6027681780977048,-1.734347326544132,-5.6273189677543005,-1.1370209583939723,4.6297220773402685,1.975091721539888,-7.160620098407818,-4.075678888689284,-5.066435214237907,-1.355516456023204,8.617346729172562,0.22327445196373072
13,-0.7467542481733929,-5.426820122670454,3.0067707518052362,-1.3864899620036983,-5.540222352950177,-1.1911826511230341,4.842051069870681,2.320973397759645,-7.315863020964045,-3.8138789399428252,-5.071036109915222,-0.9511790389084512,9.096438417232696,0.7618666432678552
14,-0.6501018308270644,-5.584515542895937,3.4114830249079446,-1.0389458743812934,-5.425239988445655,-1.2566737330682243,4.985789211847983,2.6736659083529593,-7.450732136308316,-3.521733752637992,-5.003163536807241,-0.49750249024715226,9.550027658731636,1.3337852878554797
15,-0.5380702989976277,-5.715320419171302,3.8147136198823124,-0.6903547880106489,-5.282257877397318,-1.3360359844925978,5.061904099551364,3.02964244889604,-7.561110108880365,-3.2072322500749477,-4.8670656053511125,-0.006868930271248516,9.976749345324793,1.9296526182535367
16,-0.40963574217393767,-5.816955143707936,4.213266945241335,-0.33952175343013213,-5.111552179112076,-1.4313208747345922,5.072408337696065,3.3844571450608876,-7.64389233086369,-2.879290415711003,-4.669425152007506,0.5060878647362093,10.373628811687524,2.5376751263053303
17,-0.2647881577475072,-5.8875532768624925,4.603099839494435,0.014626407255259415,-4.9137013156130545,-1.5438734037552422,5.020509302222533,3.7329457839619473,-7.696975809732506,-2.5473511024895914,-4.4191541806005725,1.025060448754716,10.73608652148586,3.1440795693421038
18,-0.10439620450241908,-5.925599947175217,4.9795359596570385,0.37309164298733505,-4.689498028188221,-1.6741502289867107,4.910733925113915,4.06945941161614,-7.719204477065574,-2.2209603530354824,-4.127085448562586,1.5327488338364268,11.058076269222042,3.733700069818484
19,0.06997721093672185,-5.929859140862911,5.3375180264837905,0.7368529553352369,-4.439868696781315,-1.8215918830968887,4.748998877597797,4.388110946500549,-7.710280353350784,-1.9093411901491457,-3.8055769354172617,2.0116079960295443,11.33234366857381,4.290681251867583
20,0.25628565657594393,-5.899305058753771,5.671874498649406,1.1069033661612584,-4.165806092887585,-1.9845619652492608,4.542600006163134,4.683017387212003,-7.670645155340806,-1.620981476351522,-3.468047138568686,2.444620372157257,11.550785592467097,4.799252576562797
21,0.4522125605256925,-5.833071218431092,5.977577093178775,1.4842675837394077,-3.8683207323768904,-2.160357977896101,4.3001025382366,4.948523765558061,-7.601334112273095,-1.3632486696235113,-3.128461151206571,2.81604975090484,11.704886742171688,5.244524540241845
22,0.6553663278820947,-5.73042790520923,6.249969004188045,1.8699945098608917,-3.548414833453978,-2.3452909309912955,4.031124469423775,5.179398852558649,-7.503804800083385,-1.1420423141374958,-2.8007893758468643,3.112133973438002,11.786206729087722,5.613258086604542
23,0.8634415299091388,-5.590794231591079,6.484949848013285,2.2651220208450904,-3.2070811207238985,-2.5348251726527855,3.7460183763261115,5.370996383344701,-7.3797483999847735,-0.9614949620601623,-2.4984622248529953,3.3216787194333364,11.786889897161744,5.894562779513394
24,1.0743371453161876,-5.413785838952859,6.679110876057968,2.6706157795437164,-2.845326301628568,-2.723766666485262,3.455469808992486,5.51937903765405,-7.230896660701509,-0.8237331250855209,-2.2338446982780638,3.436522951995025,11.700170322007097,6.080485738589877
25,1.2862297554196618,-5.199293598661962,6.829821424869758,3.087288452606291,-2.46421638776178,-2.9064869012882983,3.170041196107903,5.621405510672077,-7.058841867176601,-0.7287106004492251,-2.017753931850729,3.451857041861883,11.520845703735672,6.1664617564335025
26,1.4976058723190724,-4.947583115387001,6.935273792272839,3.5157093425766752,-2.0649385405580243,-3.0771697738994486,2.899696830456342,5.674783754127353,-6.864886643076591,-0.6741259432011764,-1.8590406752998323,3.366385799775556,11.24569607125315,6.1516050506352435
27,1.707262351879041,-4.659400498542488,6.994497872941725,3.9561159850558067,-1.6488719969696732,-3.2300689764238197,2.6533457904022373,5.678095866517112,-6.649934588949792,-0.6554334790129221,-1.7642522924587538,3.182339361153918,10.873826164778128,6.038833686290093
28,1.9142859837964903,-4.336068506276645,7.007358070680901,4.4083382300932294,-1.2176593532040279,-3.359763297681371,2.4384357951361686,5.630801868425444,-6.41442379317216,-0.6659536212962226,-1.7373906427676087,2.905343580866282,10.406913552469907,5.834827236758637
29,2.1180217483634047,-3.9795600472899664,6.97454271757044,4.871741980994757,-0.773269765138803,-3.4613972027825057,2.2606236565617275,5.533230035569375,-6.158298027793922,-0.6970844914951853,-1.779774257982433,2.5441667660863225,9.849347206642204,5.5498251272243335
30,2.3180342668719,-3.592542178989282,6.897551438437059,5.345195283087628,-0.31804734922685407,-3.530894270511567,2.1235395767226186,5.386560124774341,-5.881009119473683,-0.7386135691123724,-1.8900116182046072,2.1103608729757717,9.208243227319823,5.197276596934745
31,2.5140613307463897,-3.178390090194456,6.778681026559964,5.827055777536062,0.14526015148281773,-3.5651313031785166,2.0286552680714656,5.192803239508602,-5.581548210789662,-0.7791244715773787,-2.064090089242125,1.6178144411281579,8.493327016643665,4.793354623365784
32,2.705955405139165,-2.7411743388437846,6.621007483645182,6.315177141769435,0.61349681510768,-3.5620613439017457,1.9752610076179324,4.954779443974289,-5.258508851835613,-0.8064879872154636,-2.2955804001189017,1.0822343440106816,7.7166770363504265,4.356348503887598
33,2.8936101814432464,-2.2856252853700725,6.428361124579905,6.806932843567707,1.0831228001958793,-3.5207755433034906,1.9605537468123087,4.676092285825575,-4.91018678067422,-0.8084172539144873,-2.5759478477673814,0.5205756351897134,6.892335850729715,3.905955171748378
34,3.076873639314658,-1.8170774299168515,6.205292040886211,7.299256977344727,1.5502717955769854,-3.4414981177988575,1.979835103623642,4.361097982548554,-4.53471911044779,-0.7730566095544567,-2.8949506162604566,-0.04955725637917421,6.035807898674754,3.4624967815776273
35,3.2554543543455767,-1.3413946933025076,5.95702387775516,7.788703032779867,2.010843949998264,-3.325515826723811,2.0268124662235296,4.014865857625646,-4.130261285504143,-0.6895662014018717,-3.2410966046948264,-0.6105112836358093,5.163476222541676,3.0460989172621287
36,3.4288316526467955,-0.8648764860658675,5.689394418325571,8.271521647312388,2.4606325618589686,-3.1750522749569767,2.093988443216633,3.6431258307729015,-3.695195372671814,-0.5486629420376561,-3.602125927152109,-1.1451600294671809,4.291978173788805,2.6758680299593167
37,3.596181335939305,-0.39414397001721474,5.4087816650430804,8.74375720529244,2.89547758887965,-2.9931056307743615,2.1731151202447725,3.2521987850385337,-3.2283587111351246,-0.34308304759370145,-3.965487577325204,-1.6374286661894404,3.4375812087537905,2.369107985139321
38,3.756327045224088,0.06399377930923367,5.122013806351988,9.201360359678759,3.3114341309605178,-2.783273353457772,2.2556822949403457,2.848906655993464,-2.729277981255159,-0.06794020098807958,-4.318784826194568,-2.072749416947547,2.6155952456607814,2.140614115760597
39,3.907723732510385,0.5026927969960908,4.8362607003518825,9.640310043617344,3.704941240047936,-2.549587222175026,2.333405243372031,2.4404609311677468,-2.1983911173166453,0.27903604511238483,-4.650172920406142,-2.4384356327177006,1.8398500350906024,2.002079074277268
40,4.0484751317511485,0.9152431109463743,4.558903642684212,10.056735890832398,4.072976568810618,-2.2963761937346647,2.398678794173585,2.034330433594627,-1.6372393283170172,0.6973862380293379,-4.9487021438186165,-2.7239704959480853,1.1222567070403713,1.9616379512581494
41,4.1763822235845804,1.2952466844074118,4.297379779542912,10.447031178440932,4.41318484032389,-2.0281654216718423,2.4449698400242035,1.6380911872493715,-1.0486145904203872,1.1839259259883859,-5.204607130852197,-2.9212136834237126,0.47246331286719856,2.0235707171540995
42,4.289014908642987,1.6367942156982365,4.058998044776422,10.807947335436618,4.723971534114805,-1.7496100656589681,2.4671278662873237,1.2592623549825888,-0.4366538292742025,1.7328556809449593,-5.409548481562226,-3.0245348977669964,-0.1023943082986767,2.1881690162933505
43,4.383795073230594,1.934628849853922,3.8507250917724636,11.13666321256296,5.004556596195931,-1.4654544801618596,2.461600894936256,0.9051327095716121,0.19312244330555234,2.3359568433244444,-5.5568152297876905,-3.030886039023005,-0.5978514638764337,2.451763499561216
44,4.458076969750184,2.184285602122387,3.6789422782216192,11.430825280786708,5.254986226401979,-1.1805021540224072,2.4265516718650937,0.5825822715858865,0.8338245597438244,2.9828516375871352,-5.641496652345316,-2.9398237083138863,-1.0121918518665205,2.8068991273301074
45,4.509211206110675,2.382197976470444,3.549178141184292,11.688558195814025,5.476103967355706,-0.8995801710009197,2.3618754776122057,0.29790382079450756,1.4772569858734947,3.6613081726694263,-5.660629262837704,-2.753491503462636,-1.3464517058516885,3.2426403222200006
46,4.534581707444194,2.5257669659917763,3.4658246853172594,11.9084481133198,5.669485284706498,-0.6274842249309622,2.269125982775604,0.05662874286975202,2.114026905165149,4.357575657224382,-5.6133199023578095,-2.476568271812461,-1.6043566254630826,3.744985464032559
47,4.531610229106352,2.6133920324024023,3.4318499765717214,12.089503566396628,5.837342270684855,-0.3688954605062849,2.1513589736254324,-0.1366386719367492,2.7336968171699043,5.056741466390592,-5.500839154429213,-2.1161845076626338,-1.7921918403025277,4.297370246759639
48,4.497729662882154,2.6444684400584424,3.4485237083328775,12.231100847904461,5.9824066096329265,-0.12826714785493487,2.01290622852881,-0.278373844424918,3.324983676084075,5.743108141855966,-5.326671772342244,-1.6818044243235923,-1.918600969367773,4.881240882152934
49,4.430334393174707,2.619359335632475,3.515175791723434,12.332922569378423,6.107799046825644,0.09031366572953689,1.8590938475072543,-0.36626496317759266,3.8760111770387895,6.40059333653802,-5.096504730030135,-1.185066899160026,-1.9943052400406782,5.4766796204776895
50,4.326721541435364,2.539352823956003,3.629009433422998,12.394898567259588,6.216892231187057,0.2832778793820221,1.69592051320142,-0.3993178307449028,4.374622864856485,7.013156889459769,-4.81813244555021,-0.6395764910076357,-2.0317377899904194,6.063064862211559
51,4.184039439213625,2.4066132014007096,3.784988922900246,12.417156731219881,6.3131717367279805,0.4477234973710456,1.5297110957577773,-0.3779229911555732,4.80875902404296,7.565255456916476,-4.501264732593039,-0.06063714157742021,-2.044595901101875,6.61974569999497
52,3.999258727362463,2.2241317227818556,3.9758187001414087,12.399987849299388,6.4000984487559816,0.581545596607543,1.3667604901962875,-0.30387726051790764,5.166890382757655,8.042317770760889,-4.157234510871884,0.5350749690333734,-2.0473240491976643,7.126707527696955
53,3.76917789136263,1.9956771730453549,4.192024952946282,12.343824694402523,6.480974862956677,0.683533395462968,1.212982903002262,-0.1803559677346289,5.438489810484374,8.43122515688192,-3.798615353313371,1.129898237198431,-2.0545491249902517,7.56520336154255
54,3.4904699568166713,1.7257419238767366,4.422144897131224,12.249232933287741,6.558817928201656,0.7534259145626322,1.0735833214304593,-0.011837594829698832,5.614512807898342,8.720774178749465,-3.4387701606687995,1.7056260226330013,-2.080495672852707,7.918325323419367
55,3.159771882719015,1.4194764409521818,4.653023017717074,12.116910573124652,6.636241444082619,0.791923549480966,0.9527697006322865,0.19601319898655756,5.687850964228496,8.902092726876871,-3.09135946358903,2.243989732231179,-2.138413658451759,8.171492192949454
56,2.7738145667300116,1.0826051429824162,4.870208623144487,11.947693202473856,6.715351556377328,0.8006579069373011,0.8535250627235117,0.4364965541202139,5.653721186914144,8.968980154794634,-2.7698393756942146,2.727170494859524,-2.2400520665796884,8.31283307920363
57,2.329590184425817,0.7213192705179216,5.058445042314272,11.742563673143765,6.797659554706348,0.7821252978951486,0.7774567336446215,0.7020555636919706,5.509958113801409,8.918148301000093,-2.486974567265773,3.1383250159618683,-2.3952061404662506,8.333455622455784
58,1.8245538037027362,0.34214696953774953,5.202236755009457,11.502666375779038,6.884016748231271,0.7395897558888331,0.724734379995884,0.9844765368105662,5.257187032417195,8.74935212976959,-2.2543832476464662,3.462112959766929,-2.611355300685921,8.22759867818844
59,1.2568555075666323,-0.04819484692978185,5.286475503501195,11.229326911162172,6.974576270699502,0.6769601656402253,0.6941200003695577,1.2751076474969114,4.898867830633075,8.465411410820959,-2.0821235822535633,3.6852141069506352,-2.8933972545011235,7.992679942114834
60,0.6255958346222745,-0.44295952242661535,5.297099706364101,10.924077232719505,7.068785970030943,0.5986451288775095,0.6830840488085365,1.5650925345032125,4.441214558532598,8.072133518229291,-1.9783272754135819,3.7968212955556537,-3.2434759926406773,7.629254490730118
61,-0.06890853323059529,-0.8355322114825989,5.22175451547352,10.588684592159362,7.16541511503987,0.5093902586089606,0.687995011238458,1.845614699348754,3.8930078676661393,7.578150810800416,-1.9488859056839358,3.7890900935776974,-3.660898698713947,7.140900188680699
62,-0.8248679492574491,-1.2195861646499102,5.050414546983708,10.225180507555203,7.262615696795263,0.4141054619281845,0.7043658721239794,2.1081471427954876,3.2653267618716693,6.9946863927560505,-1.9971969995001653,3.657520693522932,-4.142137458669793,6.534042639265267
63,-1.638794440910173,-1.5892278713481915,4.7759292046825035,9.835884065261675,7.358016729472669,0.3176927870465309,0.7271392421646604,2.344699870337467,2.571229780371479,6.335261927634272,-2.1239781834619893,3.4012444596847904,-4.680913228599637,5.817728477795095
64,-2.505330048686455,-1.9391275650543809,4.394452616790479,9.423412985056427,7.448847268151655,0.22488700282125793,0.7509925036566816,2.548055912680849,1.8254129096932317,5.615360950533621,-2.327158393915449,3.0231887061932174,-5.268359823557657,5.003352822622644
65,-3.417147416051797,-2.2646328374840774,3.9057270888825357,8.990676878456817,7.532081229713752,0.14012037721652992,0.7706447280642128,2.71198463262972,1.043862850896669,4.852059393743519,-2.6018550685474375,2.530098892891877,-5.893264864735578,4.104344870669694
66,-4.3649352910842545,-2.561862328838617,3.3132001482406443,8.540850033529084,7.604595177650055,0.06741979376499736,0.7811482465687039,2.8314198004103757,0.24351232183814553,4.063630926358193,-2.9404456222753343,1.9324063437411962,-6.542384071740247,3.1358148069282894
67,-5.337474604365102,-2.8277744607704025,2.62396874817163,8.077324713005616,7.663329427804374,0.010338750921072715,0.7781495931600415,2.9025899127144674,-0.5581073521987963,3.2691292243549235,-3.3327396957041153,1.2439399557470012,-7.20082531230335,2.1141657327102226
68,-6.321804147660662,-3.060204921594952,1.8485571438010129,7.603648611229102,7.705442905595265,-0.02807974800926022,0.7581069156369372,2.9230900756475062,-1.343228520314654,2.4879448172941965,-3.76625467634133,0.4814904125762167,-7.852497956122333,1.0566766834016519
69,-7.303470312340117,-3.257867867753151,1.0005448715686027,7.123450488855673,7.728452590956236,-0.04531892783171724,0.7184534430109227,2.891888371492765,-2.0942380944831473,1.7393328641669443,-4.226591103610424,-0.3357561144879123,-8.480620188666665,-0.018933896608689663
70,-8.26685352503448,-3.4203199641439364,0.09606728876173624,6.6403562426418405,7.730348953118795,-0.03939494274147878,0.657698904906298,2.8092644106465783,-2.7941064101484274,1.0419108397603456,-4.697898509902851,-1.1868914847625065,-9.068272713439505,-1.0949528655153977
71,-9.195563573903646,-3.5478919357292256,-0.8467857352057395,6.157895528065148,7.709679800921432,-0.008866476981470948,0.5754632512104066,2.6766835173108077,-3.42685398356034,0.41313111493566657,-5.163417260567117,-2.05003844985206,-9.598982875181877,-2.154114232764566
72,-10.072894521486912,-3.641596566038418,-1.8086452628033467,5.679398687472345,7.665596804248582,0.04714386295887733,0.47244052077048865,2.49661672450421,-3.9780432772358503,-0.13125842914859814,-5.606077658914022,-2.903150975710606,-10.057318815943045,-3.1800280102690457
73,-10.882326215950233,-3.703023312440907,-2.7695829610713685,5.207885795960438,7.597861604294524,0.12891202165300333,0.35029589075551204,2.272323475925431,-4.4352694947998765,-0.5777442808410918,-6.009133371717326,-3.7248262676426194,-10.429468894797882,-4.1575853722864275
74,-11.60805486236234,-3.73422864673882,-3.7098433676299467,4.745952608205626,7.506811527469161,0.2360596129861834,0.21150529436126042,2.0076185591652074,-4.7886152544596,-0.9155403140571172,-6.356802609559373,-4.495090169680076,-10.703778599983124,-5.073327572317297
75,-12.235531996092405,-3.7376300335052264,-4.610557211960487,4.295659989974578,7.393287858836219,0.36749148476948035,0.059152963237340365,1.7066457814506373,-5.031032027782931,-1.137014923889777,-6.634888211202639,-5.196117972823114,-10.871217185632169,-5.915764875835612
76,-12.7519904851047,-3.7159112518213075,-5.454406738922521,3.858433439338029,7.258532025355621,0.5213338473122059,-0.10329366943665937,1.3736783836458015,-5.158616780507446,-1.238025536851423,-6.83134673903074,-5.812856356564409,-10.925749334027161,-6.675632792805498
77,-13.146936881877705,-3.6719467618500303,-6.2262177977920015,3.4349785031170246,7.104056853857704,0.6948861152760691,-0.2722105856933192,1.0129613777087967,-5.170762681720671,-1.2181383111658965,-6.936776772420932,-6.333518182329421,-10.864591954652047,-7.346075990609493
78,-13.412589783752939,-3.608751627894612,-6.91345685648075,3.025217354534533,6.9315014601897165,0.8846007486911165,-0.44402468187964267,0.6286051111930208,-5.070174480910817,-1.0807162368071261,-6.944798645110413,-6.749928805949788,-10.688341721319524,-7.92275386473285
79,-13.544243061611821,-3.5294605923196793,-7.506613539694468,2.628251759264311,6.742479384992068,1.0861039190878539,-0.6153841339480238,0.22453329577473008,-4.86274944388071,-0.8328645056818945,-6.852302914294498,-7.057709813516882,-10.400964960832177,-8.403864175468879
80,-13.540531923710077,-3.4373356532039643,-7.999452078618887,2.2423577317228744,6.538430217267048,1.294265534152567,-0.7832787547686253,-0.1955168732910879,-4.55733209484037,-0.4852281443655186,-6.659552650123332,-7.256293682285365,-10.00964808961322,-8.790082066101867
81,-13.403580616360363,-3.3357964964297286,-8.389119632356257,1.8650170677795832,6.320485011406389,1.5033210782917503,-0.9451049933863792,-0.6279495583724992,-4.165355194088494,-0.051643932827003115,-6.370133820192247,-7.348770743908016,-9.524513576757311,-9.084412176613899
82,-13.139013960655758,-3.2284628110371965,-8.676105630005296,1.4929907051788924,6.0893553702006775,1.7070418306390798,-1.0986786786108136,-1.0692306450927005,-3.7003818564144786,0.451343213906795,-5.99075725550643,-7.341577353350912,-8.958212815463856,-9.291952761629542
83,-12.755820487912597,-3.1191928524065906,-8.864052964568183,1.1224384299787122,5.8452552066163666,1.8989456891749974,-1.2422057303029657,-1.515786620622563,-3.1775673222547476,1.0050800349784368,-5.5309243599974085,-7.244041100253036,-8.325413170749675,-9.419573729926114
84,-12.266062041780657,-3.0121002609297682,-8.959428478207519,0.7490880666985082,5.587862693777645,2.072538148639402,-1.3742251031620898,-1.9638964358904385,-2.613065331521789,1.589491840198102,-5.002476769288961,-7.06780575824902,-7.6422021882708595,-9.475516030313907
85,-11.684432867004597,-2.9115321101973164,-8.971066701941531,0.3684540472357693,5.3163274354877075,2.22157145254433,-1.4935388058064072,-2.40959115583841,-2.0234113610694084,2.183818962619327,-4.419057022069106,-6.826165439027147,-6.9254373761206764,-9.468927383605415
86,-11.027679841130647,-2.8219949612904487,-8.909607077054648,-0.023899915236913687,5.029324384681437,2.3403092242699963,-1.599141803727517,-2.848574840430796,-1.4249187440188102,2.7673602078165835,-3.7955118030534587,-6.533342879159886,-6.192073855643163,-9.409356815604225
87,-10.313904207826535,-2.7480212615438298,-8.786850597866312,-0.4320653416652243,4.725151880684469,2.4237837446900454,-1.690161317186174,-3.2761767911226305,-0.8331211400653825,3.320181131744148,-3.1472705615490546,-6.2037496803611365,-5.458503041266458,-9.30623515187275
88,-9.56177371751326,-2.6939749398429114,-8.615066829038451,-0.8594772304738425,4.40186710824915,2.468033166376371,-1.7658115914960997,-3.6873406949594267,-0.2622871264143199,3.8237505837863317,-2.489730275936515,-5.85126630098051,-4.739933025000297,-9.168369620621952
89,-8.78968195503755,-2.6638017425981455,-8.406286410972163,-1.3086057283717345,4.057449077914119,2.4703061467815948,-1.8253672010781343,-4.0766516719350765,0.2749769316827731,4.261478541947558,-1.8376723511346442,-5.488576908159908,-4.049836428131915,-9.003478947039909
90,-8.014897892118743,-2.6607362174100233,-8.171617157497776,-1.7806717290818355,3.6899772600643415,2.4292218352544803,-1.86815531090153,-4.43839880859203,0.7680287282917828,4.619140296916382,-1.2047311372014675,-5.126589395622913,-3.3994854628392566,-8.817792208463771
91,-7.252752420820234,-2.686983640729143,-7.92062310810216,-2.275406102713835,3.297813224973737,2.3448743314504896,-1.8935647066090953,-4.766668305897561,1.2083975994611107,4.885184664035387,-0.6029271184698279,-4.773964855261104,-2.79758798959564,-8.615730901570121
92,-6.515909210101329,-2.7434018771011006,-7.660804559764493,-2.7908707142274203,2.8797729316398746,2.2188730958159133,-1.9010666984503088,-5.055460229926682,1.589905548177418,5.05093482764622,-0.04227332952341898,-4.436774519442355,-2.250033366029981,-8.399689289651864
93,-5.813764529884801,-2.829213771970138,-7.397212449234031,-3.3233570425749637,2.4352786472204198,2.054314502636186,-1.890240724666075,-5.298820318366211,1.9087139499266506,5.110697293140152,0.4695381861580768,-4.118296236779849,-1.7597533488933428,-8.169923544504266
94,-5.152015095399826,-2.9417827316201763,-7.132222593929623,-3.8673743022127165,1.964481822763055,1.85568444699042,-1.860796652712598,-5.490978743683306,2.1633091969556433,5.061795720208692,0.9273626362996944,-3.8189570498646384,-1.326701051892828,-7.924556193339281
95,-4.532425201962728,-3.076481352390357,-6.8654851965592965,-4.415733303296038,1.4683513693722343,1.628696807099596,-1.8125873231699263,-5.626490986948032,2.354437288825944,4.904542527906018,1.3287328398162876,-3.5364233135546908,-0.9479492287667906,-7.659699327394568
96,-3.9528149126132965,-3.226676241015276,-6.594053876834413,-4.959725900680323,0.9487251891839468,1.380076716430572,-1.7456087508225469,-5.700380891577301,2.484990914940893,4.642154565004085,1.6738838037076196,-3.265834784845326,-0.6179072445849446,-7.369697379736837
97,-3.407279770571527,-3.383843180399479,-6.312687194981084,-5.489394058164299,0.4083258978159441,1.1173005638227593,-1.6599900459225514,-5.708289954972505,2.5598458431267006,4.280613097905648,1.9656615734478347,-3.000173866553665,-0.3286536570267123,-7.047486610152313
98,-2.886639241304138,-3.537816415441376,-6.014304668438557,-5.993877578675328,-0.14925618340802468,0.8483063576237685,-1.5559783901528166,-5.646637749694912,2.5856395804628223,3.8284652382275848,2.2093089799215706,-2.730755405708429,-0.07037786573120021,-6.685062486262084
99,-2.3790963050175424,-3.6771646163441676,-5.690569226629662,-6.461824999021156,-0.719608893885955,0.5811884686474713,-1.4339253615470022,-5.512795579286612,2.5704857074409513,3.2965641025665056,2.412127139673366,-2.4478162685640132,0.1680808827241018,-6.274038043132663
100,-1.871075864851169,-3.789675387077222,-5.332560028763748,-6.881848110688481,-1.2975693999128814,0.3238897672870625,-1.2942803486037444,-5.305270334138048,2.523621547912119,2.6977471202890406,2.5830209993987143,-2.141177992971658,0.3986156773494908,-5.80626764164332
101,-1.3481971123935759,-3.8629217994023968,-4.931494917064843,-7.242997987652344,-1.8773176350644198,0.08390235768719806,-1.137595914773526,-5.0238898780937165,2.454993972792814,2.0464545892801347,2.7319478843643332,-1.8009510628011811,0.6331808853358204,-5.274503512152747
102,-0.7963265137662409,-3.8848792672789005,-4.479461042070331,-7.535240168416724,-2.452489175604509,-0.13201340976819634,-0.9645492231671696,-4.6699767296048575,2.374797010429643,1.3582938528998791,2.8692974032096115,-1.418246676041667,0.8830984834486588,-4.673048896883807
103,-0.20265407037710903,-3.8445589223597616,-3.9701146518926675,-7.749908488410169,-3.01630481619009,-0.3180824202769652,-0.775982783490794,-4.246494513668035,2.2929833758200684,0.6495588962884651,3.005237058993416,-0.9858618308217993,1.1583742385982858,-3.9983721808918955
104,0.44326518874626275,-3.732623743811933,-3.3993150615686427,-7.880119400829902,-3.5617144106148477,-0.4697310618881044,-0.5729662598731217,-3.758152317462884,2.218777290863624,-0.06327982840159821,3.149059757225758,-0.49890553274794325,1.4670555646507855,-3.2496500342680905
105,1.1485616766076845,-3.5419550872171226,-2.765661734648638,-7.921129763989981,-4.081552701005396,-0.5837560164832376,-0.35687827551048845,-3.2114551237811377,2.1602167223310498,-0.7640961446923,3.308568396726361,0.04466381024201911,1.8146619085568443,-2.429211736218568
106,1.9162493816107653,-3.2681391653575913,-2.070906419531717,-7.870620815592342,-4.568704479492165,-0.6584358783281942,-0.12950310680653113,-2.6146922508568045,2.123750290759543,-1.4376170687937526,3.4895313562402657,0.6436185112999514,2.2037186484626927,-1.5428593359727971
107,2.7446245583183506,-2.909845469708936,-1.3202149813305706,-7.728890954011583,-5.016275696902104,-0.6935785769393248,0.10686704684008277,-1.977858810924123,2.1139094407489756,-2.069896008075573,3.6952421319152124,1.2931872209782063,2.6334259421636257,-0.600039277151219
108,3.626912077764014,-2.469072903641957,-0.5222574248011628,-7.498941928292682,-5.417766687958273,-0.6905022893440996,0.3493364856660263,-1.3125075520348015,2.1330715605423536,-2.6487274600138297,3.926215146720915,1.9849518952909064,3.0994922959334605,0.38615711646871126
109,4.551196361435752,-1.9512451525075796,0.31088926755977636,-7.186447839839373,-5.767243862302669,-0.6519527274372976,0.5943306398886766,-0.6315306123288655,2.1813256543229538,-3.163984143293638,4.180045205989576,2.7069368638845615,3.5941567910562404,1.3991822182960871
110,5.500659021645393,-1.365144292870461,1.1640324129778559,-6.799603158259404,-6.059506543328288,-0.5819634300106865,0.837554725921151,0.051127362083938394,2.256449337902704,-3.6078621527683343,4.4514489963538315,3.443902254812752,4.106413770452497,2.4194197957525185
111,6.45412698535405,-0.7226801360708391,2.019345864876186,-6.348853255779544,-6.290245415551528,-0.48566740458954427,1.0740002135690723,0.720821884386124,2.3540036812094174,-3.975023920949171,4.7324943248431035,4.177842840814016,4.622440750612169,3.4247714877164137
112,7.3869149769372795,-0.03850161083283518,2.857029029821241,-5.8465177195723435,-6.456188229206602,-0.36906928323593474,1.2980118315969682,1.3626226393353962,2.467549159891197,-4.262633130099135,5.01300836374722,4.888680507254826,5.126215925587093,4.391429131320945
113,8.271926858704248,0.6705351115127303,3.656117103324771,-5.306322642950315,-6.555227378423642,-0.23878813770367247,1.5034245993740347,1.9617812815613662,2.5889804388428073,-4.4702819623333285,5.281141926002529,5.555124885595523,5.6002969037316355,5.294805724002307
114,9.08096276826307,1.3860195749923125,4.395405855781742,-4.7428633585296485,-6.58652286465371,-0.10178166175880383,1.6837748516715714,2.504240466066392,2.7089701468277383,-4.599819432310891,5.524054593235243,6.155663158974431,6.026718547585886,6.1105836140460275
115,9.786163700941254,2.0887322781891506,5.054444259861268,-4.171023741040672,-6.5505732748252505,0.03493865961063036,1.8325823827792547,2.977165658447505,2.8175036031547376,-4.655097811714223,5.728676917503791,6.669627899259594,6.387957170953568,6.815826970416048
116,10.361512815555212,2.759447431478065,5.61454029803966,-3.6053818735167757,-6.449247450654221,0.1645941619276209,1.9436935327743736,3.369475549792662,2.9044786667720226,-4.64165944325783,5.88250155113785,7.078282581207477,6.667902974942928,7.390098395660676
117,10.784304875004107,3.3797538387010677,6.059720781295469,-3.0596334163990506,-6.285770846432934,0.28092175600430536,2.011667597544842,3.672342057683741,2.960337757116585,-4.5663873040504575,5.97435459787481,7.365859568635943,6.8527828744594546,7.816516840851254
118,11.036493511125023,3.9328523373792263,6.3775862210566086,-2.5460624522778668,-6.064662784378816,0.37844630282335906,2.0321817065715884,3.8796279438828156,2.9766932227615532,-4.437140245578755,5.99510091996969,7.5204856756299785,6.931980385380857,8.082694991543573
119,11.105830739139371,4.404288644998046,6.56000695735038,-2.07508554558838,-5.79162354399565,0.4527328817126143,2.0024229834887968,3.988230306890413,2.946904024864847,-4.262389548948983,5.938241911060663,7.534935603429933,6.898705918834178,8.181498254672146
120,10.986723350458867,4.7825824042101095,6.603615768158536,-1.6548903078507573,-5.473373551810193,0.5006051250582326,1.9214323332224457,3.9983020106737777,2.866562337908938,-4.050869225863142,5.800370722518657,7.407162554116766,6.7504780491553795,8.11157394778343
121,10.68074543275737,5.059716187308904,6.51006363705739,-1.2911859938526473,-5.117450915690097,0.5203125507415335,1.7903627771814081,3.9133295729569464,2.7338531399939403,-3.81125019003994,5.581457567815797,7.1405670757668736,6.489384012683343,7.877608224126341
122,10.19676499418776,5.23145338967576,6.286018478455296,-0.98707948427862,-4.731977594493798,0.5116291254380603,1.6126181620525233,3.7400539204740904,2.5497573786141543,-3.551848496106814,5.2849464328267235,6.743979219765878,6.122097334005818,7.490280226658348
123,9.550665588308382,5.297462932923083,5.942901295330434,-0.7430838311033199,-4.325407492591517,0.4758680148195411,1.3938458513345842,3.48822910375501,2.3180790251105092,-3.2803786547063902,4.917654589427119,6.231345320710919,5.659643379522388,6.965899048408295
124,8.764670366786001,5.261241568288522,5.496370318711025,-0.5572582075324815,-3.906270741972578,0.4158030214709991,1.1417689087480134,3.170223507277086,2.0452875891774385,-3.0037621249238757,4.48947786121511,5.621129018049155,5.116919481530002,6.325729744294411
125,7.866304001425719,5.129839549917451,4.965580324834784,-0.4254688120492732,-3.482927203358466,0.3354943486741674,0.8658577861594781,2.8004783668276456,1.7401800666300247,-2.727997265008813,4.0129171434266695,4.935455741816044,4.511993530498957,5.595038191591808
126,6.887053944150112,4.913410142592741,4.372259771361015,-0.34175156941380347,-3.0633394592201633,0.24002458952766104,0.576857140869345,2.3948491862457515,1.4133797926040825,-2.4580911037144686,3.502454095998174,4.1990487836480686,3.865221637176674,4.801907224629676
127,5.860813008929856,4.624615554287607,3.7396603312125607,-0.2987509199156867,-2.6548723345520933,0.13516016821688215,0.28619844149414325,1.969865679274362,1.0767037536743231,-2.198047484941987,2.97381453910804,3.4380203053004728,3.198239035280667,3.975894130670955
