,AF3,F7,F3,FC5,T7,P7,O1,O2,P8,T8,FC6,F4,F8,AF4
0,4.573589956513179,0.1930463286049927,-0.16163187932194287,0.5784821284492312,0.08077967940012572,1.1212111374928837,1.0792828407571209,2.893138146450506,2.201224235524853,3.850444159769608,1.840678789843488,5.879342893015031,1.6123482850098632,1.5236951370052536
1,4.910593098539512,1.8605652217423458,-0.0543827940538393,0.41020249777256557,0.3207420119121742,-0.966630640034186,0.00015338373909798533,1.7688142993479865,0.921484659941402,2.5056560011303035,1.5147867886698405,4.716637469440572,5.612002228174307,1.1986323132303516
2,5.272736402328071,3.502554195188841,0.053223117930618756,0.2583315090973525,0.5554464820640371,-3.0181693913113032,-1.0346445820918526,0.6882889231288999,-0.30329668006718735,1.2221826306059094,1.2300019612538262,3.5810524302936373,9.54958676938772,0.9108045293268588
3,5.6607112669212585,5.096741125871138,0.15949322302692298,0.12653381140396275,0.7803441646055466,-4.9993413710707735,-1.992941011088353,-0.3215880479881668,-1.4429874937498717,0.03297345210887524,1.0019721298049884,2.4841799893488457,13.35555867328591,0.673442884837841
4,6.074196421903071,6.622174099257416,0.26277079265393544,0.01795208943597522,0.9911819657859904,-6.877937839377172,-2.8448635842408967,-1.2360067666630832,-2.470002059710628,-1.031994558824881,0.8444553779813776,1.4358087504260988,16.964177407559365,0.4982944491071228
5,6.511896351599822,8.059724772326991,0.36147583978375136,-0.0648084143377539,1.1841426672850544,-8.624430310445298,-3.563734252258128,-2.03282316908581,-3.3600637173990293,-1.9465581352698913,0.7688767878391326,0.4438847019793171,20.31536270340579,0.3953052237359553
6,6.971570265642295,9.392516644501063,0.45414012940610526,-0.11970556060482562,1.3559675657911405,-10.212698961895967,-4.126864800980877,-2.693157360648888,-4.092903881776624,-2.6891335217733756,0.7839150826492426,-0.485506452515048,23.356292871637624,0.3723111773403318
7,7.450049909096785,10.606267128140127,0.5394353350626675,-0.14529588188963558,1.5040573194850024,-11.620638436629074,-4.516220789853406,-3.2019444357998728,-4.652872947433598,-3.2433761737952933,0.8951391449992919,-1.3481329662248591,26.042689456011747,0.4347509246187917
8,7.94325144220112,11.68953818868105,0.6161942305163682,-0.14077622895638778,1.626547747544053,-12.830621909135235,-4.718927327309021,-3.548409674838043,-5.029433788291629,-3.5986980582058585,1.1047206162341334,-2.141576534998892,28.339755803528682,0.5854203697631553
9,8.446192406796937,12.633893842147472,0.6834256646307528,-0.10602565183598124,1.722358220842284,-13.829812395142108,-4.727596790430349,-3.7264362348870375,-5.217507271924282,-3.7506051861800547,1.411250073076491,-2.8651439609111806,30.222757358511583,0.8242921299999951
10,8.953027570680364,13.433964801299092,0.7403247137710631,-0.04164071510063874,1.7912110880873535,-14.61031841850568,-4.540466525929305,-3.734793921299374,-5.21764206337132,-3.700822818638263,1.809680651198759,-3.51971775852444,31.67724892652991,1.1484211133189672
11,9.457116398528429,14.087422517725221,0.7862796390248751,0.051043021919818986,1.8336216774261933,-15.169198096564763,-4.161342653443227,-3.577202486967869,-5.035988092899557,-3.457186984216849,2.2914156243181507,-4.107535926738465,32.69896844242888,1.5519532343402929
12,9.951130643876024,14.594867081217625,0.8208769960202946,0.16995034305597947,1.8508598369957892,-15.508321169665207,-3.5993537387688295,-3.2622121553278043,-4.68406376468525,-3.0332973148500186,2.844546601199504,-4.631897226876102,33.29342755325921,2.0262474343034818
13,10.427204504141319,14.959635388206976,0.8439056059628592,0.3122918850226602,1.8448852977931427,-15.634102815511781,-2.868525277178919,-2.8028966292638233,-4.178319751320941,-2.4479444940845996,3.454237800937195,-5.096796578172369,33.47523652898014,2.560112461058545
14,10.877123478210171,15.1875374752281,0.8553593572396938,0.4746182943857497,1.818259948091022,-15.557126444558525,-1.987192742738107,-2.21636744310533,-3.5395151931109323,-1.7243420136556762,4.103240744123601,-5.506504301049154,33.26720524589008,3.1401506008964764
15,11.292543105666203,15.28653038566386,0.8554381347379044,0.6529023578774631,1.774040468748986,-15.291674882443248,-0.9772772232136308,-1.5231306300903664,-2.791933647561474,-0.8892037031903811,4.772514564232471,-5.865110996042726,32.699264467267554,3.7511927298764887
16,11.665226413843573,15.266341106447285,0.8445456562438625,0.842646154963347,1.7156551374436435,-14.85519026899622,0.13654703384936845,-0.7463156470341277,-1.9624747896501873,0.02828543440980865,5.441921730899973,-6.176065096789169,31.807253647912,4.376804343669839
17,11.987289266709217,15.138053081020495,0.8232827527069134,1.0390093447489448,1.6467692949501642,-14.267682882024573,1.3277596008587613,0.08918805903944006,-1.0796626956141522,0.9975567197104974,6.090967727383309,-6.441731774480905,30.631623493353697,4.999840983434267
18,12.251444941679187,14.913673543371212,0.7924348378744662,1.2369546922400028,1.5711448506944856,-13.551108375730585,2.5689384846459595,0.9576489703015277,-0.1726126097309673,1.9877582023515992,6.699554962104179,-6.663000426839536,29.216102763664914,5.6030326119977705
19,12.451241710171871,14.605700148473892,0.7529530532468575,1.431407061891405,1.4924998255927102,-12.72873193729488,3.8327032653027544,1.833427658837257,0.7300034648279693,2.96882736810236,7.248723983688581,-6.838964969271903,27.606377738945326,6.169578250022636
20,12.581288130570488,14.226704874917543,0.7059296261540776,1.6174218142130123,1.414373867509101,-11.824496777198094,5.09261729705909,2.6918898094127033,1.6009546061457596,3.9125002737695755,7.7213572984947,-6.966697995528467,25.848827932107337,6.683733021528177
21,12.637459140246465,13.788951568432648,0.6525688986861075,1.7903577926603031,1.3400048343690056,-10.862413271488402,6.3240117060866075,3.5102619352695017,2.4153769732546615,4.793224563693592,8.102822109934955,-7.041136976916381,23.98935308090907,7.131369132693632
22,12.617073418726225,13.30406119792093,0.5941560000614017,1.9460490683220164,1.2722202335654074,-9.865983919141401,7.504698613309575,4.268394771695497,3.151594787528272,5.588945981785835,8.381528550371632,-7.055097472852474,22.072316159012235,7.500490893520166
23,12.519031697912661,12.782735909892178,0.5320253176316205,2.0809683331634785,1.213346065730079,-8.857677840369234,8.615547469574269,4.949401025158695,3.7918052409102154,6.281740442823233,8.54938039237959,-6.999424396273993,20.139617561950256,7.781682730301258
24,12.343907310132233,12.234549304423172,0.46753089456477137,2.192373255059693,1.165134786547377,-7.858466633361873,9.640905781606882,5.540137618547929,4.32259902568785,6.858267643771063,8.602096471514507,-6.863287940746954,18.22990777934966,7.968468744967986
25,12.093982440168178,11.667806316467148,0.4020205690302405,2.2784257195715796,1.1287136085660814,-6.887431091641566,10.568853301888547,6.031508713856447,4.735292302233151,7.310027903375424,8.539383673025714,-6.634626032010622,16.3779397689961,8.057563225357026
26,11.773224844726384,11.089472237193274,0.3368149720001747,2.3382737147199846,1.1045539549412249,-5.961445871770066,11.391286640850485,6.418574561426758,5.026052383718997,7.633411443238032,8.364947175065728,-6.300729627857791,14.614058429676295,8.04899456221544
27,11.387200562048838,10.505167147532333,0.27319153769355436,2.3720871426441597,1.0924623103258273,-5.094947052360126,12.103838879733242,6.700461787154269,5.195808862927673,7.829538506573303,8.086331149557463,-5.848960228764098,12.963823562053943,7.946090738104862
28,10.942919659214342,9.919219202010815,0.21237274121710392,2.3810413407488804,1.0915918467610866,-4.299785710027524,12.705645765568438,6.880082109195037,5.249953901560606,7.903898965871298,7.714592485282278,-5.2675805987629865,11.447763396949114,7.755321999143429
29,10.448615590114064,9.334767578070515,0.1555171351591056,2.367244802448853,1.100473177226514,-3.5851687020020813,13.198976301825551,6.96367784553882,5.197848487276908,7.865810771716704,7.263819914174634,-4.546670339058668,10.081256092142047,7.486004306923039
30,9.913464368915514,8.753904038698703,0.10371154320491421,2.333610960238331,1.1170619401522008,-2.9576850833442854,13.588750965001482,6.96022310238683,5.052163918835125,7.727727301929463,6.750520384241931,-3.679087907792781,8.87453586704693,7.149875475410202
31,9.347255930013057,8.177841974051661,0.05796294038643508,2.2836787956804394,1.1388011742251805,-2.421412637037648,13.881975246219518,6.880718420591522,4.828098195308064,7.504433477251841,6.192903176345175,-2.661430568938203,7.832819533168917,6.760564600546293
32,8.760034999584638,7.60710371649741,0.019188945388783456,2.2213932035668984,1.162697588985192,-1.9780941925990887,14.087119539862451,6.737423310096134,4.542514315780466,7.212177815435462,5.610099110462285,-1.4949350350716437,6.956548397757187,6.332983596992863
33,8.161732476195915,7.041719664130853,-0.011793696026650249,2.1508620604946747,1.1854122904939979,-1.6273686818041515,14.213478341500762,6.543074859066261,4.213051023222831,6.867791002614235,5.021355934814299,-0.18625615461395745,6.241738675599153,5.882675657732247
34,7.561811121722039,6.481434620375119,-0.034282815503079524,2.0761112343393173,1.203367580077639,-1.3670383039520138,14.270541908271184,6.31014044402729,3.8572559229968952,6.487840531962016,4.445250948345626,1.251939298569854,5.680429449306672,5.4251577607207135
35,6.968949751243435,5.925916934791037,-0.04770639935615713,2.000860003104197,1.2128716262105594,-1.1933515467545481,14.267411629652061,6.050147713650453,3.4917862075637354,6.087865570797923,3.8989581376151365,2.800620563496767,5.261211249978458,4.975292362372751
36,6.390785756114592,5.3749647823433655,-0.05163914061719343,1.9283368388378368,1.210261894446834,-1.1012825644296622,14.212286380238254,5.773125943927237,3.1317139124904023,5.681727075339496,3.3976001864423298,4.434326800873145,4.969812165037255,4.546717673244902
37,5.833727214755365,4.828701973126265,-0.04581862129684672,1.8611497100749168,1.1920662320741342,-1.0847905484854659,14.112041549326905,5.487181408987845,2.7899620458142125,5.281096737019359,2.9537069823473545,6.12141353252131,4.789713799720046,4.151358034459165
38,5.302836542341212,4.287753714170569,-0.03015978870276466,1.8012174551507838,1.1551776696708715,-1.1370476119323156,13.971915957443928,5.198217902311095,2.476887104687597,4.895096663676946,2.576793753110682,7.824617517874421,4.702767596651609,3.799027890853669
39,4.801780396294395,3.753391203261315,-0.0047667845154831965,1.7497609930835554,1.097035603328782,-1.2506293527593497,13.795315194807438,4.909803737687766,2.2000140349784814,4.5300915093741,2.273065286110865,9.501924525373907,4.689783321625193,3.4971359128981025
40,4.332835605483636,3.2276331586874343,0.03005847386024639,1.7073462629461664,1.0158024527710292,-1.4176678332508932,13.583733683195543,4.6231791892204255,1.963922048319192,4.189626942037318,2.045247983126664,11.10770440576806,4.731065630857603,3.250490191368964
41,3.8969378938572223,2.713292947937791,0.07381151569531814,1.6739656411087882,0.9105219836480049,-1.629971450607388,13.3367924201363,4.337393359628071,1.7702737142777767,3.874503012676972,1.892548289916735,12.594061382509393,4.806880965684899,3.0612012439703156
42,3.4937599634958723,2.2139625875444566,0.12578499994449974,1.6491420047731895,0.7812443569674116,-1.8791192161898238,13.052385068958454,4.049556456620633,1.6179752426291598,3.5829677959878303,1.8107340744146054,13.912336170773427,4.897844820670734,2.928677227077159
43,3.1218086284303874,1.7339295001037174,0.1850736111383317,1.6320398966572067,0.6291041477767438,-2.1565380073485487,12.72692154860795,3.755191441141325,1.5034524754585261,3.3110147639971603,1.7923344006866673,15.01469103357959,4.985227348234288,2.849705052015696
44,2.7785355407087193,1.2780273546901348,0.2505850319485987,1.621570756592363,0.45634057377886245,-2.453571249164778,12.355654965391375,3.448666607592418,1.4210240140241093,3.052765647547887,1.826951811947999,15.855708861456145,5.0511817657750395,2.8186109857190487
45,2.460459935899981,0.8514273925048668,0.3210578975985365,1.6164829644953078,0.2662533358910543,-2.7615473058590836,11.93307423670016,3.1236871112251525,1.363349633379897,2.800918498776687,1.901678906689668,16.39394203731941,5.078904853474254,2.8274941160172147
46,2.163303541235675,0.45938115875142843,0.3950873512619888,1.615431970500325,0.06309270505201012,-3.071855559061401,11.453341434112657,2.7738194327351606,1.3219292324598242,2.5472388403933066,2.0016079936312754,16.59335506057648,5.052743109235219,2.8665263124511076
47,1.882138351746459,0.10692975698567497,0.4711581244402362,1.6170306749392398,-0.14811138206693422,-3.3760366958348467,10.910750548486233,2.393019717728522,1.2876260984697296,2.283071164870611,2.1104196960246253,16.424614767525703,4.958262425090236,2.9243132957337457
48,1.6115489414139048,-0.20140171999233425,0.547684203549492,1.619884449559589,-0.36177055502306876,-3.6658906479737317,10.300183596788568,1.9761360143235602,1.2511887862128142,1.9998489449244417,2.2110336915526245,15.866191186469344,4.782302174509351,2.988311915766676
49,1.3458123183806816,-0.46190382445593936,0.6230534043632147,1.6226173475396688,-0.5719947386922963,-3.9336017073946463,9.617540755742967,1.5193561632027173,1.2037481684504476,1.6895832399933628,2.286302056938416,14.90523927822439,4.513034519481255,3.045297202158598
50,1.0790983406067232,-0.6719554648652865,0.6956747027983451,1.623895549323826,-0.7728677169824159,-4.171876666697664,8.860123389881524,1.0205774040614852,1.1372696411496128,1.3453124617519863,2.319723069775144,13.538237777890036,4.140046242951724,3.081869301392685
51,0.8056912862685439,-0.8302502455249644,0.7640260367552243,1.6224520125009476,-0.9587248391987355,-4.374088734385226,8.026952403981639,0.4796801456531635,1.04494471083013,0.9614990310114874,2.2961515163904567,11.771368034516549,3.6544551198864497,3.084986849750498
52,0.5202295616549629,-0.9369600268284779,0.826700513410954,1.617114533311898,-1.1244171210094558,-4.5344174217107085,7.11900917602752,-0.10130391225048474,0.9215111752283203,0.5343628786543164,2.2024812899286177,9.620624173320909,3.049067929042597,3.04251137261897
53,0.21795759111625662,-0.9938235100898756,0.8824493773125894,1.6068389570928021,-1.2655474098537547,-4.647972999228835,6.139392115090579,-0.7181308591777483,0.7634966786297512,0.062146706038387504,2.0282773212685306,7.111655028582603,2.318583425888075,2.9437468983614754
54,-0.10501853943676218,-1.004152577349483,0.9302204443514019,1.5907494923720926,-1.3786660518984872,-4.710894146872566,5.093388055465657,-1.3643848162616785,0.5693858407596548,-0.45468774123945205,1.766335657786102,4.279345988919871,1.4598396815117587,2.779958454664435
55,-0.45148371519008496,-0.972754557883067,0.9691907965861714,1.5681876160543418,-1.461415759721589,-4.720409350738187,3.988463162632756,-2.031607869958781,0.3397150686876355,-1.0133311447204798,1.4131514622657286,1.1671539158420217,0.47209943863608295,2.5448510886023823
56,-0.8228913515403781,-0.9057747139389969,0.9987923907312225,1.5387688781720372,-1.5126183265797202,-4.674856174855296,2.834181574256207,-2.7095060538220173,0.07710028653014259,-1.608565800560013,0.9692742545054852,-2.173788822829684,-0.6426406823690807,2.234987811714013
57,-1.219185716352878,-0.8104696692189669,1.0187290631572148,1.5024431748817795,-1.5322993652466537,-4.573657182933641,1.6420612258929352,-3.3862186578187017,-0.2137991500841782,-2.232776251036747,0.43952846129653894,-5.6857828666570915,-1.8793398080522787,1.8501218360330025
58,-1.6386885936841178,-0.694927847288712,1.0289834945658787,1.4595502570040964,-1.521650961764281,-4.417256315332844,0.42537570763769866,-4.04864089609489,-0.5263810544116095,-2.876039593126844,-0.16692328841550452,-9.305861542328293,-3.229631334746454,1.3934170455108386
59,-2.078066710867088,-0.5677558702410539,1.029813280911088,1.4108601670309384,-1.4829356512296221,-4.207024338071801,-0.8010909393732466,-4.682793195196713,-0.8522700895564151,-3.5263068027056725,-0.8366950709413484,-12.96725593596559,-4.681605024881614,0.871531967499739
60,-2.5323920354847136,-0.43775016931803584,1.0217363239522412,1.3575885885681303,-1.4193383045750307,-3.945146030101825,-2.0213324751116444,-5.274233180152138,-1.1815628743893878,-4.16968637917443,-1.552486650643954,-16.600993951613862,-6.219687760405833,0.29454732968381464
61,-2.9953019244932664,-0.3135718142348379,1.005506789721066,1.3013791187598507,-1.3347753051494418,-3.634504231897124,-3.218450590370317,-5.808507929054445,-1.5031535916524836,-4.790837667112361,-2.2935934679314838,-20.137595865124617,-7.824653481643158,-0.32427449703161504
62,-3.4592590574210957,-0.203440935448025,0.9820832773372631,1.244247429177983,-1.2336725111357558,-3.2785756169154268,-4.375026963131077,-6.271642938621852,-1.8051407258771393,-5.373473552518596,-3.036612192328942,-23.508823337689307,-9.473783626197104,-0.9688992081437593
63,-3.915901864172014,-0.1148654040322262,0.9525906588478296,1.1884859148284619,-1.1207244502590685,-2.881349374882809,-5.4735358784262385,-6.650659487087016,-2.0753079411848634,-5.900961625277925,-3.7563216014936467,-26.64943419265206,-11.141186673341787,-1.6210883699564977
64,-4.356466562775789,-0.05441584068419795,0.9182769650826937,1.1365318173064825,-1.000646861795443,-2.4472734355308314,-6.496792136843455,-6.934104191961254,-2.301661833329614,-6.357000583597965,-4.426702767237097,-29.498891207311434,-12.798270954968402,-2.26110157663382
65,-4.772254079832903,-0.02755449033581061,0.8804670348430459,1.0908066990808487,-0.8779337769827334,-1.9812251762824278,-7.428423533072902,-7.112565859182976,-2.4729983259569677,-6.726336644084987,-5.022047871041078,-32.002969863142155,-14.414351031338015,-2.86849730911795
66,-5.1551095815746155,-0.038519203054219346,0.8405149985520753,1.0535396572530835,-0.7566295678482883,-1.4884969999352333,-8.253351470019613,-7.179148186494058,-2.5794608668696983,-6.99547555540539,-5.5180958966420395,-34.11520847607917,-15.957356892954317,-3.422987681658786
67,-5.497878790590869,-0.09025754707714191,0.7997575256938387,1.0265897524038905,-0.6401255665452049,-0.9747834768208342,-8.958258472175888,-7.129864431511847,-2.613049621928628,-7.153341466754454,-5.893127760115979,-35.79814561981755,-17.394608217939293,-3.9052972730070934
68,-5.794804575685881,-0.18440204473828506,0.7594691730035295,1.0112844102350476,-0.5309892380387541,-0.4461565007009987,-9.532018511478789,-6.963922010735545,-2.568042191796577,-7.191835004008094,-6.128953782972337,-37.02429482633277,-18.69361309914644,-4.297975602643835
69,-6.041831476109132,-0.3212764679202782,0.7208205678824855,1.0082902327440406,-0.4308317564236504,0.09098234929094479,-9.966066067959016,-6.683870765716942,-2.4412928224328323,-7.106249359263111,-6.211732997138124,-37.7768152234493,-19.822852441718894,-4.586116359641424
70,-6.236795418603198,-0.49992457134843254,0.6848398841446004,1.0175305003072967,-0.3402185006183624,0.6299781866848697,-10.254683208224343,-6.295598411148931,-2.2323886424650827,-6.895515119970921,-6.132576921768257,-38.04984910849669,-20.752518421356463,-4.757944570722246
71,-6.37948839333574,-0.7181556702554529,0.6523781587457507,1.0381588799198527,-0.25862713914070573,1.164027809876073,-10.395190295690655,-5.808170270995629,-1.943657568210767,-6.5622615666361455,-5.88790958906316,-37.848513250476316,-21.455187731696288,-4.805245420229022
72,-6.471599616111903,-0.9726051141996647,0.6240793722907114,1.0685916460121079,-0.18445876389868726,1.6863070721252842,-10.388033868601712,-5.233525630179024,-1.5800403448708458,-6.112701625185124,-5.4795777072456495,-37.18854846093855,-21.90642511610399,-4.723623511037382
73,-6.5165440353169926,-1.2588110040859108,0.6003567823224718,1.1065930838237088,-0.11510743071230341,2.190109871038818,-10.236772799069405,-4.586055882329504,-1.1488537241758234,-5.556364769928023,-4.914724995242406,-36.09564888688957,-22.085325384840704,-4.512595668357861
74,-6.51919628059932,-1.5713106479025336,0.5813775412270696,1.1494031738607762,-0.04709145718211761,2.6689864931293505,-9.947969527842282,-3.882096738178837,-0.6594786375917358,-4.905712532015576,-4.205458828636954,-34.604505904292274,-21.975008953428585,-4.1755310212516905
75,-6.485553388800599,-1.9037606164854552,0.5670577556853864,1.1938941549858457,0.023754228228311643,3.116870694650273,-9.530996623285914,-3.1393673813966507,-0.12300560371908253,-4.17567349887499,-3.368344488620529,-32.75761024110228,-21.563085751305064,-3.71945800249381
76,-6.4223522879477075,-2.2490825324203008,0.5570695697700401,1.2367424071896576,0.10203086589613553,3.5281884208955647,-8.99777083631745,-2.376385589222178,0.44813764432668013,-3.3831307909377415,-2.4237643633369594,-30.603860552091614,-20.842096591430487,-3.1547600752689324
77,-6.336668223619857,-2.599633573917542,0.5508606571915234,1.2746030372889559,0.1924855351724541,3.8979448925047597,-8.362427961959618,-1.6118825313227738,1.040560071424727,-2.5463884171435214,-1.3951788818426951,-28.197028635687094,-19.809932222791968,-2.4947822879321118
78,-6.235519041985172,-2.947397744104064,0.547685031255699,1.3042758873399054,0.29969369960092407,4.221790053230633,-7.640952408712369,-0.8642366162471433,1.6402737737357311,-1.6846362261535825,-0.30832418365033093,-25.594132247437408,-18.470220351958833,-1.755370385038848
79,-6.12549786546414,-3.28419250839278,0.5466428138029699,1.3228534400742746,0.42773288891194106,4.496064934421761,-6.850775206040153,-0.1509429543725316,2.2330486270758754,-0.817427347954197,0.8096212434367723,-22.853766550303423,-16.832661260765885,-0.9543632272492637
80,-6.012452583389716,-3.6018852125122742,0.5467260372147856,1.3278434954281517,0.5798667943512084,4.7178334646013536,-6.010352691376274,0.5118673210164113,2.80475348346625,0.03582280734771409,1.9308725569211787,-20.03444434157027,-14.913284353108809,-0.11105732080664445
81,-5.90122454735197,-3.892613660741396,0.546867691027667,1.3172623084864663,0.7582595969065857,4.884905581497995,-5.138734943049156,1.1098466424407596,3.3416835231501403,0.8563105470242912,3.0278530869212776,-17.192992869398136,-12.734592218517493,0.7543405657491988
82,-5.795452646737242,-4.149004830463386,0.5459914305941945,1.2896963940917534,0.963739979065557,4.99585767804918,-4.255129064210008,1.6307818225015132,3.830873624958601,1.6262874524677855,4.073966871916613,-14.38305151595758,-10.325556827493134,1.6212594639190236
83,-5.697445223586594,-4.364385360671713,0.5430592030032616,1.2443329260606117,1.1956318792392866,5.050054814055768,-3.3784597951482005,2.064871467878138,4.260396898816261,2.329470356384778,5.044310843430503,-11.653710791661561,-7.721435042988886,2.469297189530321
84,-5.6081214065351634,-4.532977582916955,0.5371139820319374,1.180959888541829,1.4516645511824473,5.047675971194063,-2.526930169691693,2.4049274448627744,4.619645983058894,2.951413780067687,5.916309845938874,-9.048329487905301,-4.963377337531943,3.278728652352311
85,-5.527022251707086,-4.650075031794958,0.5273155047055097,1.0999385527859276,1.7279690453051004,4.989740198370149,-1.7175877733629128,2.6464993971437565,4.899592835956663,3.479839878443821,6.670260253103055,-6.60356281451636,-2.0978127778658417,4.030978319588433
86,-5.452387772922516,-4.712190883920539,0.5129681399449676,1.0021526242701755,2.019162750397703,4.878128949489736,-0.9659064170856968,2.7879228325849357,5.093021064068777,3.9049203063766593,7.289772390976899,-4.348628798144118,0.8243967543243725,4.709047984483186
87,-5.3812900958749,-4.717171751306232,0.49354090512037535,0.8889400302397358,2.318518032907997,4.715598341331962,-0.2853976881260543,2.830292659648116,5.194723490148295,4.2195040677544595,7.762107536462077,-2.304832815590618,3.74902983877387,5.29789495639691
88,-5.309809595820898,-4.664268751505956,0.4686797631902628,0.7620142613795274,2.6182051631471506,4.505774080302637,0.3127291431571931,2.777364941424028,5.201656697376652,4.419285231724368,8.078410301851578,-0.48536153842998647,6.619791282282279,5.784759326420746
89,-5.233241267530728,-4.554158898218374,0.4382121130481364,0.6233822196373789,2.909594439208833,4.25312157742181,0.8198383264027859,2.635390045859421,5.113043957995622,4.502904529679801,8.233840368561195,1.104651189038069,9.379781124040706,6.159439964919713
90,-5.146320485295721,-4.388912893684883,0.4021433976571931,0.47526453801095475,3.1835989162326315,3.9628847898038426,1.2300503987664781,2.4128804978809155,4.930418411904657,4.471979235595313,8.227608146798788,2.467792090636905,11.973101080459895,6.414516759522023
91,-5.043458900148547,-4.171909683201819,0.36064606412498645,0.3200223870235008,3.4310378881372925,3.6409897123990427,1.5403212001590447,2.1203168891552298,4.657599208959587,4.331055958992135,8.062917174438862,3.6137824803502565,14.346535573513309,6.545512492809484
92,-4.918983149346742,-3.907702536854027,0.31404145349137225,0.16009243814241975,3.64300189106815,3.29391188442067,1.7504087043554382,1.7697956710907548,4.300594281634192,4.087480867426695,7.746812934954203,4.558657807360746,16.451229961154247,6.550983935231512
93,-4.767372095312017,-3.6018450780911206,0.26277547983080785,-0.002070230542584356,3.8112020422839805,2.9285114070459444,1.8627279306528188,1.3746244913407004,3.8674252993608413,3.7511822293798733,7.2899350555978835,5.323739051707707,18.24427990119932,6.432530259046206
94,-4.5834910469855625,-3.2606882418432694,0.20738934658874866,-0.16404238985705774,3.928289723550259,2.551843403791479,1.8821038240452175,0.9488747625753986,3.367874709010524,3.3343626646279825,6.706169658898843,5.9344309043506716,19.690145396153902,6.194708753741861
95,-4.362821665555678,-2.891160590835475,0.14848716610978063,-0.32347700980999583,3.98813656042759,2.1709559143039616,1.815441432687137,0.5069070685406236,2.813162059989971,2.851104209112517,6.012202388765188,6.41889184302371,20.76181186316485,5.844852904572287
96,-4.101683830219306,-2.5005445956195516,0.0867030148386581,-0.4781417079647489,3.986068515962204,1.7926898293577727,1.6713403749794375,0.06289085450704764,2.21556524191313,2.3168974589353644,5.226979911050311,6.806631593024435,21.4416374425476,5.392795296616127
97,-3.797442484105903,-2.0962599950805463,0.022670313492645342,-0.6259502805948132,3.9190506309831514,1.4234955070180624,1.45968455571779,-0.3696571181438783,1.5880086676647247,1.7481141786417487,4.371096363375754,7.127099655715011,21.721847762652043,4.850506162236856
98,-3.4486899559691997,-1.6856621177745286,-0.04300368409765164,-0.7649859032699509,3.7858199026896027,1.0692777303047767,1.1912371083383508,-0.7782923669137269,0.9436427483940659,1.1614484957599902,3.4661289519164433,7.408332211689104,21.604663009656772,4.231666182488818
99,-3.055392565146112,-1.2758589790118968,-0.10975593723416538,-0.8935149594288373,3.586963565870705,0.7352756381436617,0.8772650973557478,-1.1520018382691923,0.29543765284327933,0.5733544493001625,2.5339523832015916,7.675722518289772,21.102064817662285,3.55119808544394
100,-2.618989467090476,-0.8735477703888469,-0.17707647758801037,-1.0099913983254432,3.32493988476884,0.42597904073624876,0.5292105129709939,-1.4814898870885134,-0.34418890374106786,-0.0004921811261302787,1.5960646001730328,7.9509722514815415,20.235230604212482,2.8247845933151816
101,-2.142432970534623,-0.4848703604754099,-0.2445072356026362,-1.1130531194329012,3.004039148813625,0.1450785175427323,0.15841535994413064,-1.7593836334217168,-0.963693975305792,-0.5456815465283498,0.6729559450274418,8.251269251030141,19.03367906625974,2.068399562415452
102,-1.630164303221656,-0.11528868242212816,-0.3116310861464101,-1.2015140739113694,2.630283669429407,-0.10455573949034086,-0.22409978356807772,-1.9803549314604243,-1.5526701252064958,-1.0494842390615606,-0.21644983722520303,8.588721965660048,17.5341812383384,1.2978747671968855
103,-1.0880259786296373,0.23051670894945378,-0.3780525778503461,-1.2743577009758196,2.2112669775238922,-0.3208723620743224,-0.6078116631582177,-2.1411606923728934,-2.102037499041807,-1.501175672455696,-1.055261032557579,8.970063841660146,15.779496248557512,0.5285178454699792
104,-0.5231183212023514,0.5487194744002506,-0.44337302138222856,-1.3307380267597675,1.7559343886245575,-0.5026202851744594,-0.9828375853382286,-2.2406075869463735,-2.6041652545927994,-1.8922610378405704,-1.8289767961044145,9.396623860160924,13.81699031037419,-0.22521090935777646
105,0.05638872995899468,0.8363852885313592,-0.5071635435194474,-1.3699941965290547,1.2743098534243908,-0.6493178773641427,-1.3400602592272988,-2.2794506402190944,-3.052925676496246,-2.2165999646953503,-2.5257355347380033,9.864544661778341,11.697193027821058,-0.9499625098117197
106,0.6414757742382122,1.0914685566093638,-0.5689399741311265,-1.3916828095407363,0.7771772293451771,-0.7612127679958703,-1.6712459892154592,-2.260237159871316,-3.4436887520593107,-2.470437197051968,-3.1364568500652052,10.365218855417304,9.472338507818415,-1.6337092898015406
107,1.2225119625939926,1.3127637813316622,-0.6281429874750398,-1.3956301903228152,0.27572719388127825,-0.839233866196463,-1.9691624468667719,-2.187107404447555,-3.7732676498676,-2.6523501261713722,-3.6548863647222487,10.885907603383025,7.1949315593582925,-2.265909789098561
108,1.7894964979491097,1.4998106780162592,-0.6841261894093863,-1.3820033261011142,-0.2188164462387329,-0.8849357951258968,-2.22769526392278,-2.065561766813146,-4.039826483328575,-2.7631258778825747,-4.077555255898217,11.410502869921523,4.916372573916098,-2.8376384361450273
109,2.332292159743846,1.6527573318913444,-0.7361541446012986,-1.3513935277371554,-0.6955754233368733,-0.9004351876212728,-2.441955916600406,-1.9022019687355347,-4.2427616438077775,-2.805580563218307,-4.403666468007825,11.920395054122261,2.685669538623331,-3.3416885008022907
110,2.8408456612946584,1.7721923508600232,-0.7834115677887935,-1.3049014267978103,-1.1443836985495819,-0.8883381306274764,-2.6083686291250774,-1.7044517487172088,-4.382567292537125,-2.784331841064963,-4.634917960804649,12.395410373887247,0.5482627386185275,-3.7726525963272897
111,3.30539711175559,1.858963846599283,-0.8250238881081134,-1.2442069965558282,-1.556124344032416,-0.8516584216163406,-2.72472284257711,-1.4802614764830893,-4.4606943768981235,-2.7055334984808166,-4.775270639010561,12.814786240797023,-1.4550130718691299,-4.12697865920186
112,3.7166873331688954,1.9140081913864162,-0.8600882435888865,-1.1716058628081814,-1.9230188286198557,-0.7937270542816677,-2.790180580838297,-1.2378017757267281,-4.479410967099426,-2.5765781329117647,-4.830665894415326,13.15815616438155,-3.288804202109005,-4.402992862385514
113,4.066175718720545,1.9382127624389358,-0.8877129617461383,-1.089994944043379,-2.2388529341996097,-0.7180944710896098,-2.805233872418488,-0.9851541241190706,-4.4416703119247405,-2.40577273952665,-4.808696622695377,13.406516485154498,-4.923927744444733,-4.600877228675372
114,4.346280826764033,1.9323335357547795,-0.9070629247570879,-1.0027964651207546,-2.4991281638658087,-0.6284285570449248,-2.77161456986496,-0.7300110395793415,-4.350992271189194,-2.2019935120031606,-4.718237623387641,13.54314479813854,-6.337856548934174,-4.722590719853501
115,4.550649558657507,1.8969816053990707,-0.9174078854385797,-0.9138179392276151,-2.701133984223997,-0.5284127444769477,-2.692165635689059,-0.4794030933965676,-4.211363629748596,-1.9743304484688897,-4.569046430585203,13.554435758728324,-7.514988571122915,-4.7717279566861865
116,4.6744495860703275,1.8326839654308353,-0.9181706742605374,-0.8270548655212858,-2.843942864283999,-0.42164949645190347,-2.5706877124623024,-0.23947249642245813,-4.027162519430986,-1.731737593255466,-4.371351983130968,13.430616636951992,-8.446699592146528,-4.753317600682684
117,4.714667533235923,1.7400137031034957,-0.9089722663768942,-0.7464513393600967,-2.928335396546658,-0.31157452478332115,-2.411776516485987,-0.015311841916685578,-3.8031106678932742,-1.4827084299556472,-4.135453521349122,13.1663046247039,-9.131188000766223,-4.67357067348868
118,4.670386751583186,1.619774009867114,-0.8896708664743055,-0.6756402806879528,-2.9566660721453344,-0.20138598897658533,-2.2206647239164714,0.18911893416338024,-3.5442534411213207,-1.234996221521069,-3.8713536542490603,12.760871729682968,-9.573128424687868,-4.53959566284657
119,4.5430151343845555,1.473211452425735,-0.8603924777089272,-0.6176881624623836,-2.932681321882545,-0.09399028535781902,-2.003076766182772,0.37099366853862187,-3.2559616951408756,-0.9953954807930202,-3.5884468241106737,12.218591500278134,-9.783156599414857,-4.359100489300942
120,4.336433779121464,1.30222881266663,-0.8215507875277516,-0.5748684976043018,-2.8613007551000895,0.008037441280444327,-1.7650978399375636,0.5285465155464261,-2.943943127313472,-0.7695942252117641,-3.2952779863358765,11.548554050535653,-9.77721069769711,-4.14010091040681
121,4.0570398271118835,1.1095666897387413,-0.7738545982176442,-0.5484849944305891,-2.7483715253342735,0.10248234780871875,-1.5130520272570986,0.6609410586038167,-2.614246697955231,-0.5620990147848332,-2.9993780043313096,10.7643501290175,-9.575755248000927,-3.8906517949768817
122,3.7136622195585414,0.8989251390665377,-0.7183014258671516,-0.5387607427202422,-2.6004057962222635,0.18751265461560393,-1.2533808947132812,0.7681053170324934,-2.273243153150599,-0.3762275275184591,-2.707173992521887,9.883539496565849,-9.20291408920049,-3.618613236625975
123,3.317338464544048,0.6750014883914247,-0.6561562969620173,-0.5448046135613923,-2.4243124453661946,0.26169798535603883,-0.9925138677216161,0.8505577686563567,-1.927567408022756,-0.21415743630943002,-2.4239657921890716,8.92693237211287,-8.68553911314195,-3.3314583145723846
124,2.8809525463056413,0.4434281348863094,-0.5889153094015476,-0.5646599275987049,-2.2271351919285203,0.32402233808255826,-0.7367242439428588,0.909247302355392,-1.5840136019935591,-0.07701619605113293,-2.1539544326355244,7.917724129663762,-8.052241527470096,-3.0361237293772616
125,2.4187460071798634,0.21060414958315618,-0.5182543411964521,-0.5954334124537423,-2.0158090520823944,0.37388863316521614,-0.49196883667212965,0.9454247081532839,-1.2493801923036072,0.035005207623074804,-1.900305492846815,6.880531531948035,-7.332411976484025,-2.7388995306809263
126,1.9457243161619289,-0.016574259440442874,-0.4459644064972565,-0.6334955141063772,-1.7969451892593677,0.4111108964109026,-0.2637141676634555,0.9605558328469026,-0.9302697741097041,0.12252970869005517,-1.6652307936048087,5.840382304254132,-6.555255906024269,-2.4453515363189013
127,1.4769893813787993,-0.23106794312491571,-0.3738764918558371,-0.6747372896445865,-1.5766512813111393,0.43589093603089335,-0.05675711494253171,0.9562779205551433,-0.6328554683925556,0.1868730066693986,-1.450076207820371,4.8217085042836665,-5.748871919534281,-2.1602708061550775
