,AF3,F7,F3,FC5,T7,P7,O1,O2,P8,T8,FC6,F4,F8,AF4
0,-1.1540390472453368,-1.4884154954134774,-0.4959297400078183,-2.3985530585658634,2.18195477175055,-0.019625671319717847,0.3816449897930494,-0.10663840769394166,-0.26258424734672864,1.5043799556694546,-2.3439431501254075,1.101098269488492,-3.5564695822786945,-1.0777594778168547
1,-1.4989162094703112,-2.7400502299275993,-0.6071979647324498,-2.90817843386919,1.7836376156886355,0.25693349117122116,-0.4675816963044263,-1.1505844742329836,-2.052499506998482,1.142261759749811,-0.9647562665921658,1.6406137967641652,-1.806181014770062,-0.9189955229609011
2,-1.8558181640844011,-3.973288602140529,-0.7418841629955333,-3.4123714052661227,1.3866973593069296,0.5305750401771376,-1.3046825387206515,-2.1865829291877157,-3.829631591842494,0.788263111027403,0.3731549284820417,2.15356922614811,-0.10648891135502621,-0.7790135067923978
3,-2.237287197773431,-5.177844497574977,-0.9102939286594242,-3.910715502010565,0.9900530721180588,0.8013678408125966,-2.1082715446525784,-3.194714559055185,-5.559573627750089,0.44753515309733993,1.6373574291522375,2.6190672689393555,1.506323250308883,-0.6700094486992755
4,-2.654406432704023,-6.343792283247455,-1.1209061830064613,-4.40251636923292,0.5930260753331937,1.0693099408115139,-2.857933041212103,-4.1554977476182025,-7.20922258000347,0.12496758888135633,2.7983763073500847,3.018480665092135,2.9992292912050633,-0.6023798922060358
5,-3.1161335485620882,-7.461480531405929,-1.3798386854020825,-4.886587462197579,0.19546914871072402,1.334204941420253,-3.5349037697076944,-5.050454562469305,-8.747820639517881,-0.17490380262276056,3.8307676194133857,3.336287484576058,4.3435893490548585,-0.5841181351456041
6,-3.6287305138751194,-8.52144829171688,-1.690418234834472,-5.3610646075229145,-0.20212651834587256,1.5955698793024389,-4.122662009614085,-5.862624350213881,-10.147848229338436,-0.44794972536251987,4.7140068041130965,3.5607466242494836,5.516081228550852,-0.6203217257773197
7,-4.195322105605125,-9.514358078279752,-2.0528824761673476,-5.823262619580226,-0.5985513837797551,1.8525847816197976,-4.607398776423107,-6.577007185229416,-11.38574033308488,-0.690464735457248,5.433151404504818,3.6843745198074536,6.499392991050781,-0.7128468214695056
8,-4.815614305722645,-10.430962865211496,-2.464237046004879,-6.269587367424691,-0.9918301910354796,2.104090936380303,-4.9783560802540485,-7.180926515585177,-12.44241493733097,-0.8991637705993,5.979247641820699,3.704193087965746,7.282647396706149,-0.8601420679112673
9,-5.4857976724232085,-11.26212394507542,-2.9182850918150973,-6.695515139900558,-1.3792137314570798,2.3486402501880796,-5.228028158871606,-7.664307090244198,-13.3036151918921,-1.0711761853374142,6.3494641368240305,3.621732050410035,7.861543632934322,-1.057285522168659
10,-6.19864931706844,-11.998891366847143,-3.4058356477043334,-7.0956468193535285,-1.7572161608893262,2.584591672576524,-5.352232328612259,-8.019870004647382,-13.960075753571807,-1.2040535284398288,6.546952523653495,3.442785850361986,8.238219507248463,-1.2962323364652752
11,-6.9438310443358215,-12.632649743955106,-3.915084184853177,-7.4638373005808285,-2.121701974318964,2.8102432460715647,-5.350065114091707,-8.243251030104204,-14.407530510926478,-1.2958011159322784,6.580451507399524,3.176944308767307,8.420854720004126,-1.5662609852484717
12,-7.708363480113458,-13.155321804432164,-4.432144839741932,-7.7933924175232665,-2.4680222590858745,3.02398196658413,-5.223764806848541,-8.333050643497574,-14.646584019024997,-1.3449358120364294,6.46366588283148,2.836934051039831,8.423049714232826,-1.8545864465727195
13,-8.477240509798271,-13.559612906366489,-4.9417015978984455,-8.077318748492502,-2.7911946541621826,3.2244305700074656,-4.978502616983186,-8.290823798228391,-14.682471282476005,-1.3505654862311056,6.214464122742889,2.437821692923339,8.263024212988368,-2.147094008149045
14,-9.234138434664178,-13.83927430594442,-5.4277373606349935,-8.308607773434087,-3.0861173091923075,3.4105715778602717,-4.622121936427122,-8.121014876586464,-14.524728914246499,-1.3124808196216546,5.853946380257003,1.9961374342530098,7.962685436343081,-2.4291393198821214
15,-9.962171550920038,-13.989362420309332,-5.874296770390893,-8.480535370623395,-3.34780495434974,3.581833970651388,-4.164840819998875,-7.8308400057619005,-14.186795986153772,-1.2312481268676558,5.4054376350804985,1.5289779408674935,7.546617610014839,-2.6863596014576343
16,-10.64464955737975,-14.006474992426837,-6.266240532687468,-8.586959811354374,-3.5716346988340706,3.7381352006683186,-3.6189282264308185,-7.4301167117765745,-13.685557517868988,-1.1082924208556846,4.893457681397892,1.0531411744978008,7.041041107044711,-2.9054466424484557
17,-11.265799326572706,-13.888950849979022,-6.589953883769289,-8.622604604969661,-3.753589512513864,3.879878651261321,-2.998360758943341,-6.931040433758633,-13.040839674362806,-0.9459620430235617,4.342712425174046,0.584335968240115,6.472783212236228,-3.0748414141918237
18,-11.811420661416342,-13.637025453501794,-6.833977780812267,-8.583315059911696,-3.8904878232325464,4.007912003673632,-2.3184643240813987,-6.347908464282107,-12.274864035084843,-0.7475685005022946,3.77714278581009,0.1364986234499602,5.868296498631642,-3.185319253544325
19,-12.26945093919114,-13.252937891217266,-6.989537132801347,-8.46627863233945,-3.9801881499817475,4.123454545107612,-1.5955449210856247,-5.696793892265461,-11.411668480271441,-0.5173969093190249,3.219061113918257,-0.2787607360538868,5.252756717395406,-3.230442117004429
20,-12.630417580233749,-12.740985810863167,-7.050945674435729,-8.27019960438776,-4.021758391269508,4.228001895794547,-0.8465144255399215,-4.995174579475219,-10.476503769141567,-0.26068337698728683,2.688401240369472,-0.6525675395222568,4.649268652147282,-3.206860874500766
21,-12.887761379842454,-12.107523625994132,-7.01587208189013,-7.995419101360539,-4.015600398716536,4.323215947886302,-0.08851922815787377,-4.261524492225457,-9.495216958510758,0.01644443376395559,2.2021059361655335,-0.9790401889165936,4.0782039897011115,-3.1144571455591072
22,-13.038018353932173,-11.360897720842269,-6.8854567673057145,-7.64397214469844,-3.9635216842107255,4.410806655548306,0.6614197743518352,-3.5148762767372292,-8.493634547694414,0.307068197815705,1.7736726630951065,-1.2553929925772107,3.556689855757691,-2.95632140943724
23,-13.080852774136774,-10.511312191917026,-6.6642736074011095,-7.219574503891838,-3.8687475241657805,4.4924111466840735,1.386748671705891,-2.7743646243921667,-7.496959230148343,0.6036264290454526,1.4128734483027414,-1.4818857387431825,3.0982608636949727,-2.7385717010072863
24,-13.01893992857979,-9.570621513194576,-6.360136169645756,-6.7275342866414425,-3.7358687454243666,4.569474898774596,2.0716990348595195,-2.0587600011638463,-6.529194341897655,0.8981124415687034,1.1256572617007774,-1.661624433083124,2.712681343710855,-2.470024077623387
25,-12.857704589665532,-8.552052873213977,-5.983754544789393,-6.1745875398650085,-3.570723795683682,4.6431397177087534,2.701581803988227,-1.3860021608332922,-5.612609163041711,1.1823227028493846,0.914234204276514,-1.8002225563005003,2.405937482078569,-2.1617317478618943
26,-12.604930204467633,-7.469869554484781,-5.548256838631494,-5.568663835126839,-3.380218541353504,4.714143793515347,3.2630569534023155,-0.7727427815154573,-4.767255557232392,1.4481493162682302,0.7773311061283176,-1.9053390379275863,2.1803914515007627,-1.8264151256739218
27,-12.270263279532596,-6.338995000865612,-5.068597707802916,-4.918595423733365,-3.1720927041073335,4.782739570297368,3.744379911893762,-0.23390658786065602,-4.010542170986903,1.6879036183068,0.710598901199299,-1.98611663395955,2.035082033408464,-1.4778107982462612
28,-11.864645469883062,-5.174622465019087,-4.560883435798585,-4.233789619197046,-2.95464635446673,4.848634951128668,4.1356250476646546,0.21771948605901403,-3.3568679920273032,1.8946530244183024,0.7071449194596879,-2.052550312024197,1.9661497924855416,-1.1299724507772126
29,-11.3997107977864,-3.9918357971931697,-4.04164794024198,-3.523886781186864,-2.736442333297372,4.9109622266841315,4.428885023099041,0.5718588271729929,-2.8173146165685057,2.0625517778240523,0.7581588626226455,-2.1148184166229713,1.9673600557586604,-0.796559449911813
30,-10.887186430421986,-2.8052631624272193,-3.5271168536696775,-2.7984254386133807,-2.526000848600094,4.968277255927495,4.618442854392598,0.8210674047252854,-2.3993977202772556,2.1871474738463,0.8535985579331767,-2.182610470881538,2.0306934335201503,-0.490148720716704
31,-10.338333127589092,-1.6287790585056958,-3.032497960663917,-2.0665329332533773,-2.3315013793276997,5.018589320532619,4.700911419619585,0.9609911175855037,-2.1068830276031045,2.2656470388244547,0.9828986590392628,-2.264485987400893,2.146970943664933,-0.22160396748235778
32,-9.763457373314626,-0.47526345594035885,-2.5713360316502087,-1.3366561541811617,-2.1605050179550243,5.059420226333724,4.675333334134745,0.9905407797542439,-1.939678825055142,2.2971264233947686,1.1356621383683283,-2.3672994466402533,2.306478944746903,0.0004655987701161189
33,-9.171522495225801,0.6435784173015504,-2.154968165487105,-0.6163433288763881,-2.0197079792320585,5.087889780911987,4.543232740396602,0.9119658248096539,-1.8938230480806402,2.2826675002098744,1.3022927349802758,-2.4957271069925198,2.499558395448835,0.17012692234219823
34,-8.569880641798978,1.717336429798254,-1.7921115646521721,0.08791572090375306,-1.9147345321115605,5.100823497907993,4.308609536460085,0.7308090690057831,-1.9615855809027585,2.225405190757401,1.4745284852903724,-2.6519300435802924,2.7171241528364654,0.2843982842296447
35,-7.964140581430207,2.736960384904798,-1.488608763485423,0.7707869685376655,-1.84997530361436,5.094877132446635,3.977865993026098,0.45572968010180176,-2.1317041081429076,2.130469723908763,1.645842382461007,-2.8353832649593103,2.9510839582421844,0.3433569085248469
36,-7.358177666986578,3.6947757964383596,-1.2473456236457798,1.4281261341738374,-1.8284749791350527,5.06667173721638,3.559656410049462,0.09818976591060806,-2.3897645524572466,2.004814211601465,1.8116853723847641,-3.0428919521762445,3.194633774093081,0.35006693249360604
37,-6.754282169095947,4.584457561149971,-1.068345263869799,2.056950097157984,-1.8518719089091005,5.012932786978157,3.064653729151487,-0.327989223106588,-2.7187256582681734,1.8569264722178291,1.9695588695722406,-3.268802452666548,3.4424159492112416,0.3103278437618081
38,-6.1534304915162945,5.400968881102757,-0.9490273384585731,2.65534901905531,-1.920390472049322,4.930627716960585,2.5052335766636125,-0.8071821505258697,-3.0995728248630923,1.6964354870110077,2.118918509486204,-3.505398246601208,3.6905388458373523,0.232258121675206
39,-5.5556509213189145,6.140474580727661,-0.884607996245049,3.222346341170266,-2.0328843904254152,4.817097803685789,1.895085347558447,-1.322598237761131,-3.5120707105517988,1.5336351281163803,2.260926701513718,-3.7434518153983536,3.936470103214294,0.12574426176020245
40,-4.960443630987142,6.800240740165268,-0.8686030787549743,3.7577189645013545,-2.1869253751347864,4.670182338739279,1.2487695686499625,-1.8569625457308403,-3.935570406188639,1.3789581839147715,2.398086036333146,-3.9728856440822664,4.178828486912347,0.0017986555156593524
41,-4.367207027209115,7.378534428760224,-0.8933875260309024,4.2617946230657955,-2.3789276469474525,4.488334938247278,0.5812483981988783,-2.39319697567422,-4.349818719890334,1.2424399774215151,2.5337957194361973,-4.1834830055829615,4.417108295331088,-0.12812197286893057
42,-3.7756217199549993,7.874536816771178,-0.9507592800597513,4.735246068632406,-2.6042966771806335,4.270732742535429,-0.09258014202423215,-2.915057528630804,-4.735717252999264,1.1332117466966694,2.671877362031864,-4.365583958449308,4.651373345502378,-0.25278385915838536
43,-3.185949542076267,8.288279989533947,-1.0324572610984677,5.178901484686707,-2.8575908951246562,4.0173783737966495,-0.7583144059752875,-3.4076906739530854,-5.075988047373089,1.059059383463871,2.816115205004781,-4.510704713090727,4.8819548498677365,-0.3617790281378658
44,-2.599216771163423,8.62061287916917,-1.1305904778710136,5.593587490171262,-3.1326877742351953,3.7291918093770526,-1.4024229157090529,-3.8580817167986483,-5.355717755883084,1.0260745151018533,2.9698505714297596,-4.612028596268356,5.109181518906313,-0.4460214839961292
45,-2.0172663660800576,8.873195097570408,-1.2379485837808608,5.980015211186303,-3.4229495576612243,3.4080860282540852,-2.0125427272616947,-4.2553799976697375,-5.562768335410171,1.0384142378352876,3.1356616248055356,-4.664733076621835,5.333163199419019,-0.49810695934326105
46,-1.442681892617642,9.048509809026923,-1.3481817268033416,6.338711879351606,-3.7213876702056536,3.0570181778042347,-2.5776951065003524,-4.5910976373978665,-5.688054613382163,1.0981745026281338,3.315147541459248,-4.666137707507626,5.553641268950401,-0.5125230409247181
47,-0.878603200859143,9.149880360213777,-1.4558563023218156,6.66999248546605,-4.020827284997104,2.6800079939822274,-3.088420988613423,-4.85918844434428,-5.725695717546543,1.2053716825762126,3.508822515387441,-4.615679157823514,5.7699092318205425,-0.4857150069629133
48,-0.32846739886700754,9.181472924175873,-1.556409223594141,6.973960928404579,-4.314073612730705,2.282116796060509,-3.53684642891494,-5.0560200298795275,-5.673048816583494,1.3580192759015592,3.7161124950706625,-4.514737824935911,5.980797002172154,-0.4160284383219247
49,0.20428435735441813,9.148269709232874,-1.6460334240067334,7.250528944971006,-4.59407960113694,1.869382426351594,-3.916692725717785,-5.180255032832589,-5.5306323846852825,1.5522831891671087,3.935438387319955,-4.366352843545018,6.184705282588987,-0.30355889796126356
50,0.7164937441668127,9.056002591474744,-1.7215305212539833,7.499442847655765,-4.854112548914666,1.4487071087607137,-4.223247297561802,-5.232658154591697,-5.301945787641098,1.782698425136391,4.164363866164467,-4.174867761362191,6.379673879776102,-0.14994161316010332
51,1.205530865781198,8.911043124409892,-1.7801640233550629,7.720311059945145,-5.087916124685083,1.0276961592848943,-4.453310640664597,-5.215846306399685,-4.9931951138587545,2.0424298096856814,4.399783129244499,-3.9455489095180294,6.56346871109832,0.04188760561254145
52,1.6694725072688152,8.720250866729442,-1.8195401449637645,7.912628545455021,-5.28986440299921,0.6144465629455942,-4.6051322357877575,-5.134000201686836,-4.612942002575779,2.323558066267339,4.638123429730946,-3.6842144392284104,6.733674478072992,0.2679331064873078
53,2.1071970733317396,8.490787658657966,-1.8375350536338209,8.07579699298134,-5.455104813438161,0.21728688238900506,-4.6783442523492464,-4.992556411084572,-4.171700113947321,2.6173704813838565,4.875538500968059,-3.396905590049134,6.887781817848289,0.5233603336445269
54,2.518389744567746,8.2299099947764,-1.8322787291738096,8.209141727458425,-5.579686810444233,-0.15552566496175393,-4.673897215248645,-4.7978982233549266,-3.6815089692493217,2.914634572736456,5.10807137997494,-3.089623929163404,7.0232584055079705,0.802681822104174
55,2.903459300704693,7.944753830611916,-1.8021978586478278,8.311927513141068,-5.660672795719228,-0.49613945199230086,-4.593997964624188,-4.557061388905499,-3.155514341494713,3.2058356808540927,5.331768600557083,-2.768149788702558,7.137593416997592,1.0998992745471374
56,3.2633745735128947,7.642125947006376,-1.7461136309791356,8.383375737111013,-5.69622759547864,-0.7974568125111801,-4.442047942014837,-4.277467354581136,-2.607577868805822,3.481365820605267,5.542733335118044,-2.437948458345759,7.228305800594653,1.4085984833633334
57,3.5994345031924913,7.328314392864236,-1.6633842644433223,8.422685356544912,-5.685682613089787,-1.0534751332575294,-4.222578756854105,-3.966692389131123,-2.0519281697597522,3.731659967794145,5.737113568602961,-2.104162087926329,7.292910824503757,1.7219994510317522
58,3.912991723820582,7.008928596909116,-1.5540760543181997,8.429059998224245,-5.629570656027622,-1.2595977909847726,-3.9411819327816398,-3.632276544157106,-1.5028547444239162,3.947284895265141,5.911031919266089,-1.7716768405206946,7.3288464473790045,2.0329696059709454
59,4.205155016228921,6.688778090285844,-1.4191410910585156,8.40174386430206,-5.529627412326411,-1.4128935970567598,-3.6044307117568195,-3.281572286230371,-0.9744372369486435,4.118993246202145,6.060474342911819,-1.4452468688976519,7.333369582428816,2.3340133387241844
60,4.47649995385884,6.371797471174729,-1.260575758404474,8.34006929558345,-5.388755551724034,-1.512287165485805,-3.2197930984654635,-2.9216292596721116,-0.4802975697045939,4.237761562378967,6.181163803476112,-1.129649658960142,7.303440688354542,2.6172561642381305
61,4.726818669931221,6.061023649666759,-1.0815331184715706,8.243518457367367,-5.21094753205773,-1.558667515716742,-2.7955357591013854,-2.559109121124647,-0.033361029765518656,4.294835404323017,6.26845051207048,-0.8298421210092304,7.2356221398749625,2.874446362233137
62,4.954937814053515,5.758628632519971,-0.8863653840819669,8.111800279325367,-5.00116402945624,-1.554907479350828,-2.3406174363064256,-2.2002230761171924,0.35438558999308084,4.281806322629781,6.317251130218564,-0.5510849905840743,7.126019620265224,3.0969994716678415
63,5.158627724367731,5.466006802350978,-0.6805797782615749,7.944941513983404,-4.765167382882544,-1.5057916048954099,-1.8645688854569695,-1.8506853478312983,0.6721449885221202,4.190742422197309,6.322064422618853,-0.29900596052402145,6.97029390041511,3.276109269189321
64,5.334616198100628,5.183910405230695,-0.4707008486982245,7.743388022992109,-4.509313770963276,-1.41785495351214,-1.377355280714486,-1.5156784336603326,0.9105667177317891,4.0143859221737035,6.277080556514311,-0.07957945486335956,6.7637619783143315,3.4029418672809495
65,5.478709113346737,4.912621950877801,-0.26404275709250685,7.508109809996373,-4.240312921123868,-1.2991392937203698,-0.8892172932518007,-1.1998292042837353,1.0619985378382772,3.7464190467568423,6.176388097823744,0.10098876029418524,6.501593806819552,3.468918901868254
66,5.586010197657393,4.652148535376799,-0.0684041301154249,7.240701415486803,-3.964968171991688,-1.158876656009959,-0.41048796734185555,-0.907196337821163,1.1207134140048158,3.3817869682137442,6.014270717075532,0.23647344151542088,6.179097781546293,3.4660845941865723
67,5.651225140104696,4.402421164312332,0.10829582276655259,6.943468318515507,-3.6899115576987542,-1.007113095068304,0.048616889284212615,-0.6412680699933087,1.0830940895480643,2.9170565372460597,5.7855773239730395,0.3209305993860594,5.792078114307487,3.3875422663024044
68,5.669030855738229,4.163481808039983,0.25841827391063005,6.619489982259324,-3.4213485013978833,-0.854288058011533,0.47823658876067354,-0.40496586191470585,0.9477626410948441,2.3507839655497262,5.486144092346451,0.3490721173145722,5.337240704660175,3.2279388503541875
69,5.634487612630539,3.935641969561636,0.3750200962051543,6.272651029788671,-3.164825528076741,-0.7107870269908158,0.8691317690352284,-0.20064680478115585,0.7156496064537989,1.683863168527858,5.113241957217264,0.3166920152600842,4.8126193145740475,2.9839692643483096
70,5.543468670829526,3.719599073674999,0.45225982089394007,5.907633563762419,-2.925032589645337,-0.5864869126635712,1.2129749213441807,-0.030097521589152316,0.39000311746471933,0.9198272168486651,4.666017241695656,0.22111390005947118,4.217989521326398,2.6548649174749865
71,5.393078953820191,3.51650085207636,0.4857688672893148,5.529865662306457,-2.7056492082451125,-0.49031488485939384,1.50265481240522,0.10548439363714708,-0.02365838062872353,0.0650766245077156,4.145887528118245,0.06162099256539577,3.555235380092177,2.2428234048158586
72,5.182031953116303,3.3279523249130847,0.4729612197381378,5.1454234541597925,-2.5092408144605476,-0.4298418475075522,1.7325766821331194,0.2055198514020664,-0.5176455334558372,-0.8709896879265387,3.556852902765602,-0.1601752672467703,2.8286350265341387,1.753332767013427
73,4.9109535646119005,3.1559639813974307,0.41325505510446575,4.760886813543292,-2.3372086066970392,-0.4109312981844444,1.8989333493897491,0.27008152538997904,-1.0822458435475937,-1.8759604253898023,2.905686650354333,-0.44007235284186075,2.0450366251730037,1.1953455327203755
74,4.582583443276572,3.0028430024125377,0.30818283949767816,4.383151563113544,-2.1897931007540175,-0.43746252851613376,1.9999188765493563,0.2999201223210831,-1.7059166318923027,-2.9345272680005365,2.201979044816484,-0.7711585107592916,1.2139034157026691,0.5812650932924931
75,4.201849211128716,2.8710325505522394,0.161372163979952,4.019204138255344,-2.0661283096596756,-0.5111440474454001,2.0358573589123186,0.29647220262122703,-2.375520197235848,-4.028732853634164,1.4580204632968385,-1.143868091945062,0.34721500526041377,-0.0732807724890485
76,3.7757973351168617,2.7629083866031365,-0.02161168854086153,3.675868002045039,-1.9643402944472756,-0.6314289102337985,2.0092245790578906,0.26184019047579415,-3.0765978422489306,-5.138345399887038,0.6885226678552772,-1.5462249399021157,-0.5407784663236185,-0.7498875872935875
77,3.3133773410460967,2.6805476339007717,-0.23355823879725807,3.359534611397371,-1.8816808291982943,-0.7955381742077868,1.924549166097374,0.1987392737398212,-3.793678552882885,-6.241345273179162,-0.08981188803103891,-1.9642713054989487,-1.4339423000155356,-1.4280313619198128
78,2.8250922178542344,2.6254903527060964,-0.4660211348853153,3.075895025903337,-1.8146844144894927,-0.9985919522394819,1.7881918527039542,0.11041111875387251,-4.510616821040233,-7.3145020037292445,-0.858853185544881,-2.382660938928014,-2.3147659842585018,-2.0859026950163804
79,2.3225442302966446,2.5985189362189574,-0.7098109909081521,2.8296906666393684,-1.7593355709140266,-1.2338403725155682,1.608015033651401,0.0005100309310779936,-5.210952874175763,-8.334016690453387,-1.5997101289493596,-2.785376529052404,-3.164967611981205,-2.7013662877962674
80,1.8179178389139514,2.599481431975557,-0.9555269665757283,2.6245023751894276,-1.7112344050560524,-1.4929806569941502,1.392967746995893,-0.12702768205025763,-5.8782877460499785,-9.27620446923729,-2.2934622203933537,-3.1565164848125296,-3.9661584050559116,-3.252980190496601
81,1.323447084409296,2.627181450517084,-1.1940771501407015,2.462594818396893,-1.665752394758279,-1.7665424441721511,1.152620790456254,-0.26811731186570065,-6.496664791221574,-10.118193243816268,-2.921912185666473,-3.4810872488331825,-4.700526337047168,-3.7210023176088067
82,0.8509129990733598,2.6793492651122834,-1.4171397810642992,2.344827986634821,-1.61817597002736,-2.0443213352935423,0.8966910650880976,-0.41864840645413653,-7.050947607696173,-10.838616499078613,-3.4683150532368487,-3.7457366310920603,-5.351497656499583,-4.088313586439704
83,0.4112086057371175,2.7526975856230824,-1.6175257820404605,2.2706396655181176,-1.5638404460740145,-2.315839737175531,0.634593008921253,-0.5745851502757066,-7.527181612611694,-11.418278908131313,-3.9180448101559633,-3.9393708891841346,-5.9043406824613225,-4.34119620239439
84,0.0139968066232948,2.8430537636400537,-1.7894164414609424,2.2380939055692917,-1.4982595799179528,-2.57081355643458,0.3750492314726477,-0.7320372237199547,-7.91292371630209,-11.840773962801498,-4.259168813168794,-4.053612257781196,-6.346685505557278,-4.46991988064865
85,-0.3325279315828732,2.9455499961922333,-1.9284664064399446,2.243982724028108,-1.4172562597262952,-2.7996026514415107,0.12578389426488587,-0.8872985909328739,-8.197524017181204,-12.093034243888441,-4.482910077161694,-4.083072700418424,-6.668943320650467,-4.469106722499712
86,-0.6217773369297218,3.0548460496869314,-2.0317788923616447,2.2839634842269945,-1.31709808010338,-2.99362251238399,-0.10668756585090212,-1.0368565154399356,-8.372347522306288,-12.165798095324657,-4.583987004063858,-4.025440962001842,-6.864618214791459,-4.337865848470159
87,-0.848821216430334,3.1653565531981704,-2.0977743272453826,2.352713626863213,-1.1946384009301694,-3.145695654540344,-0.31716910222732303,-1.1773776077242823,-8.430932411268355,-12.053980468491192,-4.560827881871179,-3.881399192056663,-6.930511340234621,-4.079709072837589
88,-1.010375183931087,3.2714575977088467,-2.125983325544656,2.4440871668155784,-1.0474596580395612,-3.2503249890988606,-0.501801725004261,-1.3056810351717163,-8.369090830125911,-11.75693827293498,-4.415662266426782,-3.6543987074212216,-6.866821632173702,-3.702275249310593
89,-1.1047483538014158,3.3676539631566946,-2.116799306994858,2.5512620029962436,-0.8740120273482989,-3.303878056501817,-0.658003308960926,-1.4187102173006219,-8.184964159347512,-11.278620324772374,-4.154492969446344,-3.3503309529451735,-6.677148421420388,-3.2169010820921122
90,-1.13177382081855,3.448696374751453,-2.0712258971679463,2.666872104822951,-0.6737376898221337,-3.3046787373908857,-0.7843516635079962,-1.5135129410216963,-7.879044674075716,-10.627589871278815,-3.786952051769802,-2.977130941581925,-6.368400577602082,-2.6380801485707215
91,-1.09274081970353,3.509646008247412,-1.990650373092413,2.7831233842162546,-0.44716917223683417,-3.253009552219293,-0.8804342811264645,-1.5872366638606614,-7.454170093511963,-9.81690615534652,-3.326043379369204,-2.544348279544074,-5.950615697768253,-1.9828508733559638
92,-0.9903415185964494,3.5458903941244575,-1.8766675590414645,2.8918964645735605,-0.19598968547203668,-3.1510318170285054,-0.9466866458608688,-1.6371426188938907,-6.915489539719183,-8.86385281043337,-2.7877740595738802,-2.06271632430431,-5.436692139203977,-1.2701495890943548
93,-0.8286376826180114,3.5531207478755933,-1.7309694391454316,2.9848435565881224,0.07695554816484725,-3.0026332217846554,-0.9842367167090951,-1.6606404908126562,-6.27039262213457,-7.789505993763763,-2.190678454723736,-1.543743347698191,-4.842036623634264,-0.5201578153352784
94,-0.6130432188073172,3.5272857536846995,-1.555305177499658,3.0534900641316636,0.3677048415505328,-2.8132137990588184,-0.9947676990147328,-1.6553447503639123,-5.528391077099751,-6.618143879580619,-1.5552417966823526,-0.9993408719165148,-4.184130878314258,0.24633540517740646
95,-0.350308774423393,3.464541416124058,-1.3515052382382726,3.089354151988993,0.6712854113723552,-2.5894223404864674,-0.980405611853977,-1.6191531542960562,-4.700946093600339,-5.376510693348498,-0.9032351114488134,-0.44149440310706256,-3.4820224957872092,1.0085437923607479
96,-0.048485936848525354,3.3612204990401255,-1.1215531970884665,3.0840988683044905,0.9818761201618473,-2.33885623833888,-0.9436330055750756,-1.5503462249985955,-3.8012422330785904,-4.092961311272827,-0.25697852563330836,0.11802749563935708,-2.7557478254064818,1.746262083249881
97,0.28315650879085186,3.2138465586438087,-0.86768133862783,3.0297305833364967,1.2930205614466725,-2.0697383552611655,-0.8872254868840388,-1.4477027477333357,-2.843915913128042,-2.7965239763195164,0.36144455765670136,0.6679363075435272,-2.0256979511203816,2.44041323965448
98,0.6342913214727316,3.019214309542321,-0.5924630856964301,2.9188533022501164,1.5978799739418397,-1.7905846600308488,-0.8142034683254248,-1.3106206597943968,-1.8447486652017815,-1.515926637873818,0.9309951595526569,1.1976715254363803,-1.3119428633163241,3.073567799287357
99,0.9937863211059101,2.774548748558294,-0.2988778568062033,2.744980355203687,1.8895126765735473,-1.5098758135819068,-0.7277884676567288,-1.1392273854676152,-0.8203327744732949,-0.27863624688717903,1.4324767645496626,1.6976433208117039,-0.633534945355615,3.630435936827371
100,1.3500587167133753,2.4777411063383763,0.009668470132996307,2.5028939856499406,2.1611646489055523,-1.2357444314528427,-0.631352383318341,-0.9344619724196593,0.21228691718069156,0.8900396518306324,1.8492873799167908,2.15947215109167,-0.00782137382811321,4.098325201175626
101,1.6915185150966852,2.1276435757602155,0.329373862837176,2.1890314624110183,2.4065551563953864,-0.9756874607886367,-0.5283499009586706,-0.6981152506290993,1.235992375174085,1.967743385678099,2.1680845241303506,2.5762170903179804,0.5501960880743451,4.467546435024452
102,2.007071302911055,1.7243907706033623,0.6561166913759254,1.8018659058224673,2.6201421367935773,-0.7363107256726878,-0.42222825620574156,-0.4328228428744472,2.2339870583984953,2.9357110558415713,2.3793201654692475,2.942574673223454,1.0284098231158532,4.7317403984526765
103,2.286636283334495,1.2697067510063262,0.9855645487326242,1.3422433839869485,2.797353890177281,-0.5231111934307221,-0.31631439293345814,-0.1420160912847766,3.190194064037436,3.7792407461681137,2.477606514765842,3.255023481647988,1.4180199314011162,4.888091011731979
104,2.5216276221858296,0.7671536994005287,1.3132950409264161,0.8136368706381928,2.9347759712411263,-0.340302235994582,-0.21368615759196402,0.17015606756305443,4.089640406510762,4.487967477256785,2.4618838918002846,3.5118883690793847,1.7137763398310182,4.93739040782867
105,2.705347963491587,0.222282563357186,1.6349067184244874,0.22228285887268312,3.0302849900671873,-0.19068760259554288,-0.1170401524537963,0.4989185224231902,4.918808402088059,5.055940913818735,2.3353771930272984,3.7133028898599707,1.9140272724891843,4.883928381661676
106,2.833252700618517,-0.35734358828445784,1.9461019269213373,-0.4228236117784923,3.083124106127692,-0.07559020125241889,-0.028572744422296657,0.8389621339936412,5.665938105698889,5.481516265199344,2.10534510533563,3.8610587075701748,2.0205707949392577,4.735194571671921
107,2.903060193884378,-0.9622685002335891,2.2427307998297605,-1.1100875385734825,3.0939179151694045,0.005158524243254681,0.05010868926657378,1.184531120707577,6.321270630280765,5.767081669895804,1.782642959363588,3.958344516762209,2.0383260741756604,4.5014027318084615
108,2.914703076166569,-1.581403510642808,2.520795028468656,-1.8256257028339615,3.064626955255039,0.053164325850016673,0.1180304973898003,1.5295077441677778,6.877228073379525,5.918654484704268,1.3811335491897023,4.0093917058725435,1.9748583440808387,4.194867877481097
109,2.8701354515681516,-2.202414793488062,2.776419956695831,-2.553719199136706,2.9984443555376252,0.07134971129919036,0.1748464591944125,1.8675017479247318,7.328529675422589,5.945383593508354,0.916989376753379,4.0190574478790575,1.8398041998488994,3.82928466538798
110,2.7730270726953994,-2.8122085603054594,3.005812478312831,-3.2773832557734695,2.8996394385413473,0.06377053176376317,0.22078203079514355,2.191954367278968,7.672245349406868,5.858995093120469,0.4079342739381717,3.992386260810067,1.6442502266581154,3.4189664232019994
111,2.628386156809011,-3.397476059479702,3.2052280947009555,-3.979021349489897,2.77335542175185,0.03537803768636784,0.2565388200120574,2.4962660178743725,7.907787443096693,5.673214370839871,-0.12752837030598785,3.93419628656025,1.400116622147812,2.9781076569402165
112,2.442156198207509,-3.9452555637801243,3.370971262232499,-4.641124107473612,2.6253706968214527,-0.008260284919296814,0.283174655567123,2.7739530328095334,8.036840369744121,5.403189235391211,-0.6708596812402245,3.8487349272360625,1.1195886040947876,2.5201287022144734
113,2.2208291192126897,-4.443469551164395,3.499448129175619,-5.2469713358362124,2.461835346668748,-0.06126426636573537,0.30197675123561657,3.0188327606560565,8.063226662650079,5.064928756052079,-1.2041706539214352,3.7394397966319444,0.8146249021909675,2.0571500401677048
114,1.971108688324476,-4.881401626486261,3.58728113606278,-5.781298091850429,2.2889962679817173,-0.11775042867281431,0.31434377384982176,3.225229759913749,7.992708683369235,4.674764286872705,-1.710828800484159,3.608826710559723,0.4965584503614403,1.5996268057337748
115,1.6996463497521312,-5.2500880801764565,3.6314830894166104,-6.230891877609914,2.1129251023838345,-0.17212867687801406,0.3216877037923582,3.3881908127177116,7.832729278101718,4.2488355992417075,-2.175975086376872,3.458509560756443,0.1757923494138218,1.1561538840707393
116,1.412858662497668,-5.542610695855772,3.6296767594149135,-6.58509552407035,1.939262983106124,-0.21936953176213328,0.3253598131131089,3.503694256085713,7.592102288503782,3.8026068317354214,-2.586945734342943,3.2893408068060515,-0.13841446257553888,0.7334329075271266
117,1.116823432628418,-5.7542872941846674,3.580337104773269,-6.836197023892848,1.772995066367122,-0.25522831497603465,0.32659901269935465,3.568839716425912,7.280672655994338,3.3504224067572967,-2.93359596538824,3.101648717526385,-0.43808229873147114,0.336377964234626
118,0.8172418785030353,-5.882762850620646,3.483028466421658,-6.97969277516077,1.6182661752524732,-0.2764168558508209,0.3264969048079097,3.5820069560760435,6.908972072133104,2.905119002301003,-3.208523189573455,2.8955395931861267,-0.7165785285829676,-0.03167190523820784
119,0.5194477185035085,-5.928007564550799,3.3386086811657507,-7.014415463797473,1.4782466179657792,-0.280717741102284,0.3259726566094547,3.542975935751065,6.487896620545564,2.4777131276659934,-3.407186720150444,2.671229682396849,-0.9686291067013337,-0.36866901181889544
120,0.22844123487182805,-5.892230502225815,3.1493750902651,-6.942523521106343,1.3550542207356713,-0.26704011039157166,0.325751944960215,3.453002678279258,6.028426919538499,2.077183065534227,-3.5279211113250053,2.429371214471263,-1.1902829850748489,-0.6735377367606236
121,-0.05107309032642834,-5.779719071610704,2.9191327413582107,-6.769355900150338,1.24973492930445,-0.23541877237045655,0.3263470082047006,3.3148457222532026,5.5414006735211165,1.7103583782517593,-3.5718420789147545,2.171338691898768,-1.378837459715786,-0.9458532838875701
122,-0.3146636193142912,-5.596615649263289,2.65317186512005,-6.503162802327219,1.1623003493592143,-0.18695975853030294,0.32803832472587435,3.1327362522721782,5.037335435592446,1.381920489964675,-3.54264832735076,1.899444774220952,-1.5327330180770522,-1.1855491669218803
123,-0.5581766495424761,-5.350643239638257,2.3581492559563753,-6.1547286889709145,1.0918168258383536,-0.12373611639174818,0.33086160608934456,2.9122836668269443,4.526289060528375,1.0945060237797313,-3.4463288266589434,1.61706017145409,-1.6514278908912303,-1.3926799880812872
124,-0.7777767174168976,-5.050792189252555,2.041876017020099,-5.736907491424602,1.0365376750691748,-0.04863890250727603,0.3346059865099367,2.6603097141099714,4.017739312853721,0.8488936302205764,-3.2907912457938626,1.3286199016867584,-1.7352636559922494,-1.5672594528090154
125,-0.9700220519688282,-4.7069797083383556,1.7130219209971378,-5.264091250609027,0.9940684448613579,0.0348096790905421,0.3388300523572972,2.3846090012995633,3.5204637411413415,0.6442482549817667,-3.085431255814264,1.0395093829424906,-1.785332479945109,-1.7091841935565626
126,-1.131968015709545,-4.329693519903534,1.38075369889878,-4.751633518625396,0.9615545896079973,0.12267169962622684,0.3429009099970346,2.0936407846987874,3.0424063863231607,0.47839627725856826,-2.840663619303483,0.7558369482445669,-1.8033538000349822,-1.8182433913000053
127,-1.2612864578413283,-3.9296309671963323,1.0543297352511902,-4.215249433752087,0.9358811460150579,0.21082602110607218,0.34605727612133985,1.7961652378965713,2.5905280139721545,0.3481101796976613,-2.567435725948049,0.4841119921926266,-1.7915644960697874,-1.8942045251250725
