,AF3,F7,F3,FC5,T7,P7,O1,O2,P8,T8,FC6,F4,F8,AF4
0,3.1233950856819357,-1.9982633490562904,0.15556155010779874,-0.40074037735881907,-0.7999154690498511,-2.234498968638102,-1.3811626766305687,-0.44101822348295416,0.10373991926100895,-3.834278002062226,0.5252985946114475,0.19131942904611698,1.075679817828214,-1.2488650393165233
1,2.893072916289709,-2.229178685329979,0.05858672498044148,0.00790006834415047,-0.48943040026525153,-2.1473066459470975,-1.8987909068575137,-0.6307298376848817,0.021333492529314536,-3.6739879356202354,-0.013485970936634452,0.4534141702687657,2.1557565218360915,-0.45123221832656063
2,2.658116216034498,-2.4476881599030254,-0.03398357729962887,0.4170599029535742,-0.17496282245047304,-2.058118983793547,-2.3954269809674957,-0.8009394179758774,-0.04992216062903414,-3.513250376652247,-0.5394504403698204,0.7120519255766065,3.2188666040798806,0.32121015515910306
3,2.4214633830165813,-2.64063364362344,-0.11978795216344287,0.8264255926795611,0.14696704548179665,-1.9580215737222602,-2.8459472667114842,-0.9437732697063037,-0.10360956527364945,-3.34033759836946,-1.037023389704296,0.969364450465663,4.262876444454403,1.0640259125262475
4,2.1856131126994267,-2.7957521569728825,-0.19675484275817928,1.2353277425340399,0.4794630493891748,-1.8387709587966041,-3.2273934412372633,-1.0524652328840511,-0.13390305716708745,-3.1440294601353718,-1.4920229342604865,1.2264279090912356,5.285955727365005,1.7730577150847382
5,1.9525119988987758,-2.902038743218065,-0.26317860311917135,1.6426726866057517,0.8251310153437185,-1.693099559581599,-3.519776673654353,-1.1215230688271223,-0.13571062623239494,-2.914074866132166,-1.8921857904271098,1.4829853773189967,6.28650210185312,2.4443988710919085
6,1.7234779693877376,-2.950057261697629,-0.317778659600973,2.046914909854211,1.1859710803659438,-1.514978106234798,-3.706736972085645,-1.1468644652323228,-0.1048130815101471,-2.6416108991176097,-2.227612668127648,1.7372775534323799,7.263042373312786,3.074377566194822
7,1.4991606113527782,-2.932193044313997,-0.3597390836002004,2.4460699950801854,1.5632859422352252,-1.2998245462973945,-3.77603006899985,-1.1259133123820748,-0.037993302631463916,-2.3195230972372927,-2.4911109196928227,1.9859977976072156,8.21411041958066,3.659555136699242
8,1.2795354169482949,-2.842846452395608,-0.38872700960237566,2.837760985273716,1.9576047865489372,-1.0446499953810557,-3.7198243346347604,-1.0576475267023235,0.06685235241307583,-1.9427344285606905,-2.678420725173957,2.2243771629782865,9.138105240725835,4.196738381028341
9,1.063927767101266,-2.678568206852431,-0.4048894618830333,3.2192876857138355,2.3686222881342625,-0.7481345475445247,-3.5347999732395134,-0.9425929139905793,0.210626676433942,-1.5084145405569602,-2.78831533481238,2.4463958866160582,10.033137697505541,4.683006486517832
10,0.8510644555164083,-2.438135961638174,-0.40882950137617236,3.5877092401542914,2.795153733712162,-0.41062858246381495,-3.2220514224126204,-0.7827615685383681,0.39297224566882066,-1.0161035170391624,-2.8225686381406665,2.645111071441272,10.896881208300242,5.115755826100991
11,0.6391539350964939,-2.1225692862251577,-0.40156401443659195,3.9399336373002862,3.2351098826130045,-0.034078786849302656,-2.7868023882335713,-0.5815371144474563,0.612242452063403,-0.46774640572071774,-2.7857868456933623,2.813084493447714,11.726447273227505,5.49276819700441
12,0.4259988367957506,-1.7350791185167231,-0.3844664382881701,4.272811566471508,3.6854970801406917,0.37811763089435807,-2.2379520170934177,-0.3435124155327035,0.8655047031353734,0.13236277633113888,-2.68510750382989,2.942887676393333,12.518308285426217,5.812307465899775
13,0.2091443860766455,-1.2809481534952825,-0.35919793762638164,4.583235266757981,4.142448929600548,0.8213226039587859,-1.587479499964357,-0.07428783536599137,1.1485778984945503,0.7777263486500355,-2.5297779363368993,3.0276538408742932,13.268286902755621,6.073245701077175
14,-0.013935752179957898,-0.7673399126419659,-0.3276301470486324,4.868245486451476,4.601296008748143,1.2899187551496338,-0.8497415135032526,0.21976065788109778,1.4561072336658671,1.45987455469114,-2.330634033131448,3.0616403248230295,13.971624550177136,6.27521437977374
15,-0.24561856517905847,-0.20303635702686468,-0.2917620353648918,5.125150825507066,5.056679463708774,1.77760749711205,-0.04070173681153827,0.5317341561948684,1.7816799981487184,2.168678650296371,-2.0995069456968163,3.0407625049047287,14.623132923688383,6.418770759273132
16,-0.4878837898681541,0.40189246613065455,-0.2536332844431968,5.351662505127224,5.502711761355554,2.277725914729792,0.8228656625233994,0.8544754948997564,2.117985592530356,2.892737705528456,-1.8485891898007898,2.9630612811675383,15.217422587891066,6.50556458460973
17,-0.7420541546824532,1.0364778631357663,-0.21523711073573243,5.546043469534747,5.933183115917605,2.783563445210032,1.7241563118876497,1.1808384309477868,2.4570215897370553,3.6198268878102517,-1.5897937044941701,2.8290698850332325,15.749192813694572,6.538486346635294
18,-1.0085457217690583,1.6892857295595152,-0.1784363551371539,5.707264569299717,6.341806083168626,3.2886597332190246,2.6470595607171465,1.5039555027347065,2.7903457079607468,4.337390163918886,-1.3341405441212522,2.64205124141218,16.21355813089089,6.521775961503385
19,-1.2866546489360728,2.348872075599535,-0.1448870685459561,5.835154358495126,6.722484740066773,3.78706682209324,3.5767902057378804,1.8175001626032212,3.1093709195996384,5.0330560782447895,-1.091206054654025,2.4080839487307375,16.606381298518222,6.461070698644519
20,-1.5744069644247949,3.004234528120321,-0.11597320530813299,5.93052469944147,7.069589817113912,4.273561464295535,4.500397899587111,2.115938497628177,3.405696992445657,5.6951517583844975,-0.8686675614152018,2.1359831309893704,16.924580684307234,6.363374067314079
21,-1.8684938611299702,3.645231385226676,-0.09275484799872451,5.995253116951828,7.378218409683403,4.743796482040229,5.407131081666002,2.3947629127442234,3.6714661661340027,6.313187617785782,-0.6719718919699155,1.837052040994,17.166382737440983,6.236933591423296
22,-2.164307612714302,4.262941412677778,-0.07593148087182212,6.032305096675481,7.644417363812571,5.194383736401022,6.288640546325523,2.650694926290777,3.8997239176352316,6.8782840111159995,-0.5041483593526904,1.524671111457228,17.331496874004003,6.09102451239193
23,-2.4560839989206644,4.8499428876342385,-0.065821493300197,6.0456850493367815,7.865352774504912,5.62290510231164,7.139017052939609,2.8818388301667603,4.084759640485898,7.383512741418103,-0.36577633037966434,1.2137424443881022,17.421199592152114,5.935646964472169
24,-2.7371472887032913,5.400498145116685,-0.06235895494927191,6.0403124522545095,8.039413178372879,6.027851714945846,7.9546670502054315,3.0877654862127017,4.222399108812369,7.824131982384486,-0.2551048520301875,0.9200183762124151,17.438325417817413,5.781154090569456
25,-3.0002443435282227,5.910638201671163,-0.06510834297142523,6.021827840517091,8.16624016697844,6.408495960051236,8.734040244316306,3.2695081610938215,4.310222555382496,8.197702395747436,-0.16830898898970298,0.6593512652492151,17.387172276954075,5.63783593942639
26,-3.2379464975715244,6.378149346183713,-0.07329719269182174,5.996339868397685,8.246686693024262,6.76470542556579,9.47723218906262,3.429459850021059,4.347688683222594,8.504082836395924,-0.09985746486707034,0.44690651249819185,17.27333592059091,5.515487254327586
27,-3.443092751869275,6.802469267031104,-0.08586565581965332,5.970128784865703,8.282709370706723,7.0967128061645415,10.18549383953972,3.571171921912038,4.336153964465939,8.74531369285598,-0.0429608484961287,0.29638154018883284,17.103490879666946,5.422986125287202
28,-3.609245849811738,7.184504578616537,-0.101530811709358,5.949323868424844,8.27720564828951,7.404859709742547,10.860687223924694,3.6990648426799537,4.2787860831384945,8.925403148802008,0.00993139939249979,0.21927116083238476,16.885134548805613,5.367906212826085
29,-3.7311333542498875,7.526384916125763,-0.11886244194630359,5.939573370213271,8.233809552168298,7.689334848670231,11.50473112602308,3.818071650578745,4.180379000760714,9.050035785451806,0.0666149611979752,0.22421627148928083,16.626307899163425,5.356179697655165
30,-3.8050480044457347,7.831171144653072,-0.13636602258415914,5.945725560079256,8.156661058583142,7.949927997935375,12.119082236736455,3.93324277329729,4.047084197069448,9.126224033406348,0.13462282297562775,0.3164688551857262,16.335302522308986,5.391822526293125
31,-3.82918464488353,8.102536568032908,-0.15256805081111996,5.971538602928667,8.050164443744249,8.185820405935576,12.70429496020765,4.049345675427309,3.8860779217144015,9.161922113290961,0.22074907544754713,0.4975012909929523,16.020360496800922,5.476728700013264
32,-3.803894212580709,8.344440249953808,-0.16609852362133376,6.019435399830936,7.918750505368049,8.3954300484276,13.259696126942837,4.170493436481802,3.7051874952244255,9.165620621500004,0.33062390545503073,0.7647812455304431,15.689372022402443,5.610537013972672
33,-3.731838306610393,8.560810689761219,-0.17576537848631377,6.090317404353352,7.7666565405249335,8.576326127470576,13.783198971577193,4.299831760565538,3.512500140302052,9.14593815433094,0.4683553911088581,1.111724950881792,15.349576227372895,5.79057200264766
34,-3.6180312911812704,8.755256418625388,-0.18061605395501698,6.183448827420417,7.597736419723814,8.72522176559309,14.271265240522796,4.439304708249803,3.3159751909841826,9.111224021080082,0.6362502053601885,1.52783217342391,15.007272384007337,6.011860231162657
35,-3.4697617385137556,8.930818159154635,-0.17998220361220515,6.296419661257932,7.415310954809045,8.838047722057503,14.719008349268561,4.589508218488195,3.1230760481997146,9.069183659701,0.8346222646880234,1.998996789492932,14.667551073860787,6.267222578460834
36,-3.2963916279530254,9.089775317805751,-0.17350500485574166,6.425192807818169,7.222066137014577,8.910104108032575,15.120417633436304,4.749630772373803,2.940434333605545,9.02653703454852,1.0616956321857711,2.5079788718068268,14.334057097773751,6.5474422561340475
37,-3.1090392608025974,9.23351734500268,-0.16114016213343466,6.564237375460342,7.020003910221979,8.936282112843456,15.468676067854307,4.9174749172627115,2.7735570828946554,8.988720630443442,1.313605559453687,3.0350183795303347,14.00879771397588,6.841506834245589
38,-2.920159100855424,9.362487061767458,-0.1431433087100798,6.706746508907271,6.810446886505394,8.911343850012734,15.756541380024478,5.089552260132742,2.626588459442561,8.959645104560781,1.5844992012826424,3.558566883225067,13.692010504376563,7.136920563349947
39,-2.74303804756428,9.476197840942893,-0.12003793609318562,6.844933162617756,6.5940946186768965,8.83024539681871,15.976761734710562,5.26124624882717,2.5021387605393257,8.941521922026647,1.8667346093295651,4.056111309725264,13.382104038960206,7.420080874752624
40,-2.591233129629982,9.573319876390899,-0.09256914116240073,6.970390626207965,6.371124872102336,8.688485561734536,16.12250022256749,5.427038588614653,2.4011930385859825,8.934771592986829,2.151172239436235,4.505061069526492,13.075680749163386,7.676709898614384
41,-2.477980438762876,9.65182401318399,-0.06164724154321031,7.074497218401513,6.141329446140486,8.482460678036412,16.187745800515234,5.580793689883679,2.323107500900801,8.938021855363655,2.427547051454301,4.883666203130102,12.767644947139114,7.8923278751708565
42,-2.415608599768337,9.709166311044731,-0.028285604318263637,7.148838351879856,5.904271250029471,8.209803958305637,16.167691178536497,5.716090245517818,2.265694058931561,8.94819640965664,2.684902200418119,5.17192971599287,12.451391160208884,8.052750829402253
43,-2.4149908433652354,9.74249361761664,0.006463084551175709,7.1856160695046345,5.659447953571909,7.869687104409998,16.05905998027162,5.826581712243611,2.2253844822718025,8.960686012748274,2.9120591705067937,5.352473484783796,12.119061254082999,8.144591113464772
44,-2.4850669285688216,9.748850337463878,0.04156831050167296,7.178017176070465,5.406447758283958,7.4630626433887075,15.860366686668307,5.906361443146903,2.1974587710295905,8.96958705500217,3.0980959381710056,5.411315603522316,11.761854869471627,8.155737900577348
45,-2.63245999096379,9.725369317912953,0.07607777336240971,7.12051615807739,5.145084802232827,6.99282855413793,15.572094494088752,5.95030602347202,2.1763192415725836,8.967989928947357,3.232805572078194,5.3385190559366125,11.370376705795906,8.07579622478422
46,-2.861205054205489,9.669434609439703,0.10916533361833387,7.009097019457384,4.875505197664734,6.4639022517585,15.19677918263456,5.954372408053195,2.1557920050862758,8.948300198241157,3.307112530990335,5.128677741097429,10.935005409067847,7.896467320094969
47,-3.1725969753061407,9.578809617979955,0.140168607120758,6.841387024728577,4.598258784468259,5.883198080020223,14.738991547403415,5.915829699492831,2.1294397003960697,8.902578384709004,3.3134313964260866,4.781215565877359,10.446271245910005,7.61185857911602
48,-3.565157240582707,9.451730013552913,0.16861431083728007,6.6167033018378305,4.314335333414485,5.259509811482356,14.2052166930252,5.833413691155868,2.0908725055890702,8.822887835424282,3.2459606429184857,4.30048583507792,9.895232416193018,7.218716903226793
49,-4.034711917198131,9.286965920716906,0.19423008827043883,6.336019255450343,4.025166725505522,4.60330602003924,13.603635288532548,5.707400629039122,2.034048033410053,8.70164373956462,3.1009102390444134,3.695669557603468,9.273841988483548,6.716583297415562
50,-4.574567409343714,9.083861187468624,0.21694254883344605,6.001861555574257,3.7325986036805707,3.926450785570561,12.943819161856863,5.5396046270192425,1.9535542052251267,8.531959169839142,2.8766653511622837,2.980481319644059,8.575298454350387,6.1078689532139006
51,-5.175766604167586,8.842358103009417,0.23686237067923668,5.618150484387947,3.4388362315518304,3.241864969471688,12.236360325851482,5.3333089983210655,1.8448717564909662,8.307985157741212,2.5738892970412093,2.172699746786071,7.794372421954975,5.397854354973589
52,-5.827405833847204,8.563014182105787,0.254258168116527,5.189997246208405,3.1463699060852415,2.563144723829948,11.492457416543441,5.093143962443467,1.7046134487409856,8.025240369015041,2.1955677012013637,1.2935461921015141,6.927699911796504,4.594613408143796
53,-6.516993286224045,8.247014590529687,0.26952121859904293,4.72347191587041,2.857885416809356,1.9041543230493918,10.72348563686207,4.824921571119245,1.530734623218966,7.680921531973799,1.746992966074619,0.3669397006007471,5.974029515926703,3.7088637643335116
54,-7.230831946051615,7.896180600832775,0.28312307037757584,4.225355293599825,2.576164911807712,1.2786099504369015,9.940575436386112,4.535434967367696,1.3227053602791912,7.274179433832095,1.2356845532526297,-0.5813416952576322,4.934407668737589,2.75374281955362
55,-7.954413401889228,7.512972399144243,0.2955677450792,3.7028873302403995,2.303983322706304,0.6996698691768432,9.154221946656513,4.232226049153902,1.0816306149231796,6.806339670004996,0.6712380794056808,-1.5245627759198845,3.812285493967298,1.7445083706292848
56,-8.672810908495638,7.100484510127393,0.3073402453671664,3.1635242577443408,2.044005361652161,0.17954462287346112,8.37394269522586,3.923325265376804,0.8103036102544487,6.281045311910996,0.0650970576724109,-2.4359648590654284,2.6135337907520615,0.6981654757001248
57,-9.37106027785245,6.6624336749032596,0.31885379379393536,2.614716024520256,1.7986880583181037,-0.2708612459606267,7.607996400911768,3.6169697727960544,0.5131806910227238,5.704301793680392,-0.569753944845124,-3.289698868649842,1.3463596987652762,-0.3669736031150847
58,-10.034516806057752,6.20314046318955,0.33039939579213706,2.063714342938557,1.5701937782283542,-0.6422665183772008,6.863171451165653,3.321310405483264,0.19627270260671817,5.08441211243161,-1.2191681930544431,-4.0617235769893245,0.021127601633828572,-1.431783182152111
59,-10.649177372112293,5.727505525289049,0.34210210172349687,1.5174187188341848,1.3603184744339407,-0.9272816329860423,6.1446490873918505,3.0441223380799443,-0.13304282244811744,4.431800729750915,-1.868273033772977,-4.730634188940681,-1.3499045341725016,-2.4768528021037897
60,-11.20195971261254,5.240979062615862,0.35388808735281146,0.9822633309765872,1.170439267997648,-1.1206208684358958,5.455942876661062,2.7925371963736296,-0.4662757359009019,3.7587345783821444,-2.501942545674294,-5.278387571467788,-2.7529155771499743,-3.4830278298917046
61,-11.680935084885528,4.749519161843632,0.3654654490842888,0.464142647746517,1.0014840066725075,-1.2192522450906438,4.798912266131721,2.5728139248286506,-0.7941254035979819,3.078957040074256,-3.105282469154725,-5.690894021939442,-4.172896845454802,-4.431937529618434
62,-12.075515315662356,4.259532443056752,0.3763200767393262,-0.0316308086454664,0.8539231898471082,-1.22248075722608,4.1738440417748865,2.3901611887844667,-1.1068121265475017,2.407254385288221,-3.6641037272663746,-5.958451977692446,-5.594051086220065,-5.306487738755498
63,-12.376600097161626,3.777789400502976,0.38572678048637243,-0.5003466433661736,0.7277821233057655,-1.1319628545210358,3.5795919567631476,2.2486163980294984,-1.3944226794974641,1.7589737307575515,-4.165364735102998,-6.076011248767262,-7.000196319123475,-6.091299967914147
64,-12.576694601679096,3.311306564411787,0.3927751945133575,-0.9379069080161477,0.6226692214035008,-0.9516524470629321,3.013762296660827,2.150977824207873,-1.647260480830598,1.1495080614022182,-4.597569067008566,-6.043261058441246,-8.375161894751193,-6.773085226893795
65,-12.670009851103524,2.867187890201332,0.3964095959962146,-1.3408390612390422,0.537815383473938,-0.6876807630775997,2.4729321485595928,2.098779307623536,-1.8561959898153348,0.5937594350422439,-4.95111200733014,-5.864549939662965,-9.703170444276777,-7.3409476890186065
66,-12.652557859756493,2.452418801068325,0.3954812941736428,-1.7063225670908115,0.4721190416624635,-0.348174150821788,1.95288775581441,2.0922936396638496,-2.0130154309998947,0.105588786264403,-5.218574933301541,-5.548654048896462,-10.969204138065667,-7.786619379548533
67,-12.522250331182304,2.0736089734365226,0.38881145263839645,-2.0322368797394126,0.4241914986363953,0.05698450181121378,1.4488722637410223,2.130551514008661,-2.1107651517620045,-0.30273826093792944,-5.394968812901347,-5.10841728630308,-12.159355287569866,-8.104631306070784
68,-12.279004095893104,1.7366854616097545,0.37526121105568794,-2.3172334798999894,0.39239775749053607,0.5164437352715602,0.9558348643603073,2.211367453953876,-2.1440847792018163,-0.6210951110995968,-5.4779265335123215,-4.560289076944665,-13.261158969582,-8.292427376116752
69,-11.924848770525328,1.4465466130763605,0.35380518230882607,-2.5608277665424293,0.3748897385209916,1.0177130010662914,0.4686764143851748,2.331371240480949,-2.109515410820133,-0.8420051723297592,-5.46783858071546,-3.923782951465005,-14.263899314177483,-8.35042416123076
70,-11.464022816607503,1.2066982535970217,0.32360419140994184,-2.763498790491045,0.369631824573251,1.5475252665679191,-0.017510440630577134,2.486051316005316,-2.005761285852428,-0.9610895965787792,-5.367919689108295,-3.2208725735673847,-15.158873293635496,-8.282012977602873
71,-10.90303530266614,1.01890389395761,0.2840733872378076,-2.926777895449638,0.3744223879483234,2.0922237623766016,-0.5072067898994358,2.669822717076264,-1.833877933299607,-0.9774155067379613,-5.184188517289186,-2.475334830573926,-15.939589414584907,-8.093493634489326
72,-10.250665516790868,0.8828867766865118,0.23494212696173908,-3.053303585706825,0.38691777645494946,2.6381628482866923,-1.0042393937545013,2.876133601379368,-1.5973596186658137,-0.8937077557261298,-4.9253407122060215,-1.712045042979383,-16.60187657648852,-7.793924770887703
73,-9.517873692065853,0.7961211986061819,0.1763021127795933,-3.146820860495852,0.4046658440616678,3.1721114244302857,-1.5115631205711966,3.0976203329630225,-1.3021053497832582,-0.7163933242041647,-4.602499263514423,-0.956228813337449,-17.14388202065872,-7.394876160679023
74,-8.717603735999424,0.753743651015653,0.10864049072980164,-3.2121087927570824,0.42515433498536676,3.6816454291152403,-2.0310627472553637,3.3263125451121778,-0.9562550467096276,-0.4554601793590727,-4.228835165116198,-0.23267899580334392,-17.565946647237542,-6.910074400695871
75,-7.864470978476831,0.7486029287916506,0.032855354796830834,-3.2548288222387565,0.4458761161543621,4.155513984327258,-2.563387127391807,3.553879375761092,-0.5699029511935088,-0.12412976313716466,-3.8190650601832963,0.43504585479149416,-17.87035938230404,-6.354943971497396
76,-6.974341261529253,0.7714557212807002,-0.04974777480620327,-3.2812957481310203,0.4644096415457057,4.5839622586942825,-3.1078302975458794,3.7718995645728,-0.15470968141406294,0.2616394623391782,-3.388847605155262,1.0254157304008797,-18.06100665673221,-5.746058001679624
77,-6.063819048983796,0.811303145529591,-0.13747876376245263,-3.2981815003430417,0.47851024576706314,4.95899418375093,-3.6622720831350017,3.9721339988382947,0.27655634151004815,0.6837849193864807,-2.9541126870001007,1.5196825482045808,-18.14294512863234,-5.100523941530035
78,-5.149670264489521,0.8558548773547329,-0.22830419283606004,-3.3121675208562227,0.48620639991834896,5.27456061642378,-4.223185773769503,4.146780113375682,0.7105143756021178,1.1228674463164412,-2.5303649677842346,1.9025551422553948,-18.121933871966686,-4.435337044747789
79,-4.248210860379864,0.8920996566728887,-0.31990551895538694,-3.32956559419273,0.4858946068893463,5.526663115107869,-4.785714349196808,4.288691675266938,1.1336719457794662,1.5588482194280644,-2.1320055563517424,2.1627582940760353,-18.00396634136232,-3.766739113701282
80,-3.3746955015177584,0.906953075137133,-0.4097516596291616,-3.355929991538542,0.47642655185591665,5.71336903729906,-5.343811305491546,4.391552956825096,1.5329034172740825,1.9718711461001255,-1.7717137969501202,2.2934416952147725,-17.79484251783944,-3.1096215827375975
81,-2.5427419089218986,0.8879466814530625,-0.49518321359288103,-3.395685699870336,0.45718218180025566,5.834739204267384,-5.890437932808455,4.450002186359294,1.8958857218158522,2.3430115661419304,-1.459925725593421,2.2924118776973845,-17.4998172747497,-2.4770100817635083
82,-1.7638246213751196,0.8239181204197554,-0.5735055389392939,-3.4517978898834922,0.4281226739118293,5.8926746236214775,-6.417805674540072,4.459705243683653,2.2114777846353846,2.654959186762824,-1.2044372852607461,2.1621708974887177,-17.123352391247124,-1.8796615871374198
83,-1.0468674016413615,0.7056605529809297,-0.6420880423547503,-3.525506925361882,0.3898178324393831,5.890693560847042,-6.917649840956402,4.4173863362829735,2.4700376258165138,2.892611337227089,-1.010150175292556,1.9097587403447314,-16.66898838729214,-1.3257959014082117
84,-0.39795736054288405,0.5264902950717476,-0.6984668606460717,-3.6161516428017895,0.34344314057130576,5.833653861632803,-7.381519899063071,4.320826577462148,2.663676805064243,3.043560328282453,-0.8789677724448552,1.546409958459984,-16.139340687702767,-0.820972540101568
85,0.17980288027472763,0.28269429590947065,-0.740447469722166,-3.7211009031144417,0.2907423245716882,5.727436719823262,-7.801072335546157,4.168842371817138,2.7864543653901372,3.0984645679237826,-0.809839117425766,1.087046691475319,-15.536214226526692,-0.3681141303462306
86,0.6862956988539197,-0.02617542195457392,-0.7662029221321929,-3.8358082874441717,0.2339520133262779,5.578606797499981,-8.168354501254862,3.961252802871789,2.8345117082123035,3.0512967915504423,-0.7989412084396479,0.5496382945309014,-14.860822171856558,0.03233098514196625
87,1.1242399296962025,-0.39718410849881924,-0.7743628483913615,-3.953996593923614,0.17568637044782556,5.394061168397028,-8.476070757780999,3.6988406578842925,2.8061476799990577,2.8994655683778237,-0.8399838350398394,-0.04553809382320811,-14.114087934880468,0.3821013297189475
88,1.4989000945159328,-0.8240847038658792,-0.7640883033576729,-4.0679681446860165,0.11878214483979947,5.180678149617237,-8.717824305449438,3.383308457974483,2.7018321512198185,2.64381016278416,-0.9246162101791489,-0.6767003214870956,-13.297004558455036,0.6847309902057276
89,1.8176699193432377,-1.2975733734411907,-0.7351279071303806,-4.169025313937758,0.06610896289895048,4.944977799136814,-8.888328734640435,3.0172306740370365,2.5241582003837326,2.2884748800669876,-1.042909747881166,-1.3213909538123907,-12.411021352671906,0.9450819983542911
90,2.089556417382891,-1.8057135751812519,-0.687851281858637,-4.247974957674351,0.02035531492534717,4.692808010621869,-8.983583192783144,2.6040053406563266,2.277737234399938,1.840676329420664,-1.1838864722822064,-1.9572968366769696,-11.458424131170412,1.1688343049692893
91,2.324598291311377,-2.334501533658211,-0.6232564919314033,-4.295682682109919,-0.01619433579660396,4.429072022644909,-9.001005315012513,2.1478101052074763,1.9690456480233947,1.3103833722921947,-1.3360592857489582,-2.563021957696555,-10.442673695828494,1.361971457615914
92,2.5332554093144175,-2.8685397846366647,-0.5429493545499872,-4.303639766891186,-0.0418734911161618,4.157513083165971,-8.939517761535546,1.6535672143453928,1.606233392908018,0.7099326083657872,-1.4879507018509877,-3.1187813310104673,-9.368669266652395,1.530300001509447
93,2.725804509893527,-3.3917826665868525,-0.4490943271611379,-4.264506901255569,-0.05582138214626418,3.8805691972732372,-8.799587327376601,1.126918456054451,1.1989032212727404,0.05360111235320108,-1.6285613360189324,-3.6069919109662543,-8.242910438567842,1.6790355662032093
94,2.91177192719936,-3.888316200937347,-0.34433893366929147,-4.1726028694581,-0.05812995638075602,3.5993060796939367,-8.583218800446115,0.5742058351990167,0.7578656659009093,-0.6428462650034389,-1.7477673164014873,-4.012746463123784,-7.073542065269395,1.8124797999389974
95,3.099428956218281,-4.343133343630675,-0.2317157736328676,-4.024311082099055,-0.04993872845087318,3.3134314956878868,-8.29390738273373,0.0024486676551577547,0.29487100784094294,-1.3626233855371592,-1.836635161118883,-4.324165066536942,-5.870279242305925,1.9338016585521884
96,3.2953704183904375,-4.742864139192365,-0.1145276072083337,-3.8183815868523774,-0.03346907142081888,3.021390581484225,-7.936553150371113,-0.5806958289582043,-0.1776832665115904,-2.0883966580319995,-1.8876522675536946,-4.532625386555258,-4.644222528158663,2.044925621285213
97,3.5041923529455365,-5.076419939979475,0.0037783109996393197,-3.556110977272221,-0.01199205154586674,2.7205393432692913,-7.517339991443083,-1.167002799518108,-0.6470722826270562,-2.802763185816599,-1.8948795898588568,-4.6328772966865,-3.4075849793245787,2.146519712293454
98,3.7282806419449344,-5.335513095214913,0.11974042701767491,-3.2413879584680694,0.010273400866146,2.4073909926499817,-7.043581455815076,-1.7477938571509715,-1.1005928502979774,-3.4887306929707136,-1.8540386346995346,-4.623050176369351,-2.1733602473946894,2.2380694464340216
99,3.96771839317597,-5.51501946919492,0.23001171231495376,-2.880598744292853,0.02833179442998245,2.077926093325246,-6.523537533140664,-2.314103438926246,-1.525940287086278,-4.130193971839868,-1.7625465901758701,-4.504562535294264,-0.9549630808335478,2.3180209403971843
100,4.2203155178937815,-5.613160667804531,0.33148170349568784,-2.482393953896868,0.03664756833600467,1.7279528844479668,-5.966208623672268,-2.856898395411053,-1.9116053853083668,-4.71239767173626,-1.6195118138804296,-4.281944109209482,0.23412976162297586,2.383976700769508
101,4.481759178416505,-5.631494727598895,0.42138689604046076,-2.0573266378303594,0.02943804696344206,1.35349945672902,-5.381114695139521,-3.3673427672546157,-2.247276383866312,-5.222370002267683,-1.425698640511025,-3.962580914469526,1.3807168644094423,2.432929171117237
102,4.745878782650639,-5.574716961686958,0.4974052497154267,-1.6173788515371366,0.0010095952240861412,0.9512153244378758,-4.778068414344652,-3.837090890446789,-2.524223856727908,-5.649308271598873,-1.183466917836999,-3.556394174075787,2.4721740862578425,2.461518598943461
103,5.005013526651095,-5.450285805443236,0.5577312760063999,-1.1754014968729105,-0.053880761221803485,0.5187568452685838,-4.16695096474009,-4.2585855131921555,-2.7356423376791983,-5.984896392059557,-0.896688492178807,-3.0754643754747244,3.4967145010032064,2.466302972240855
104,5.2504640796934385,-5.267901030106644,0.601128992418615,-0.7444985823917101,-0.13965995090797798,0.055129740018239615,-3.5574981799106618,-4.625335315685395,-2.8769229123423843,-6.223536714140895,-0.5706402136026963,-2.533611876933272,4.443605757014273,2.4440289463520286
105,5.4730042563779895,-5.038872215834707,0.6269609412665723,-0.33739166914879964,-0.25959401435856017,-0.4390363358609155,-2.959102424162223,-4.932148690586054,-2.94583601461305,-6.362483067358598,-0.2118710405709795,-1.9459455436596111,5.30334865927741,2.391893700810053
106,5.663425088980745,-4.775422165887735,0.6351925286996131,0.0341981368559533,-0.4154884830147925,-0.9613013737212525,-2.3806327811359256,-5.175306913572775,-2.9426117289025107,-6.4018678170956695,0.17196028192274035,-1.3283909578551,6.067823183417174,2.307788169204837
107,5.813082808627688,-4.489971928547192,0.6263721604444767,0.3601153495000694,-0.607456331553381,-1.5073298763122973,-1.830273384971166,-5.352667861507664,-2.869913709366174,-6.344622253003803,0.5722804712142499,-0.697209702026481,6.730408329541753,2.190512062542724
108,5.91442279601487,-4.194451739554515,0.6015888897032778,0.6322522600144997,-0.8337711555845059,-2.070912312427758,-1.3153778300035743,-5.46369889704904,-2.732710338827546,-6.196295728424439,0.9798320049172341,-0.06852094876446994,7.286080387101627,2.039950843459814
109,5.961452431966923,-3.8996772168288754,0.5624103351168971,0.8449243646525261,-1.0908173918208819,-2.6440912969514816,-0.8423371065777825,-5.509442872410733,-2.5380519891670996,-5.964783936152344,1.3849377363218096,0.542163621546986,7.731491113212635,1.8572045911766317
110,5.950136386163321,-3.6148242561536614,0.5108043809558404,0.9951212402212948,-1.3731438540270247,-3.2173850266966433,-0.4164598298544474,-5.492424232844578,-2.2947664997821597,-5.6599804642254075,1.7777950846407948,1.1203801721392643,8.065024349875884,1.644658940501937
111,5.8786886071566755,-3.347030087068405,0.4490486777123885,1.0826199053231664,-1.6736218779346286,-3.780096490386897,-0.04186609384809107,-5.416503607391079,-2.013087073511589,-5.293368436776354,2.1487908660221318,1.6531159424344652,8.286827814803173,1.4059896407957504
112,5.747737714443084,-3.1011415690031345,0.37963228291739165,1.109952691354608,-1.9837039518879023,-4.320693868182469,0.27860140665234967,-5.286689736203578,-1.7042281593916941,-4.877570365861133,2.488824546434553,2.1291622423445626,8.398816405898822,1.146095274873175
113,5.560348496868694,-2.879623998540499,0.3051539605675251,1.0822282032445498,-2.2937722450771396,-4.827244927343444,0.5434440647513821,-5.108917681383556,-1.3799257480771026,-4.425874252165498,2.7896257427713023,2.5394045238694107,8.404643845215546,0.8709571458811756
114,5.321892145850151,-2.6826335619273944,0.22822168639826124,1.0068123037626808,-2.5935599016415227,-5.287886439168487,0.7525458059351747,-4.889802746918321,-1.0519593322418845,-3.951753212469693,3.044050984274148,2.877038492030617,8.309640190637987,0.587430401083249
115,5.03977007407176,-2.5082446115443147,0.15135769357610093,0.8928852409763848,-2.872622929164157,-5.691309075054127,0.9071753277395156,-4.636380990322937,-0.7316741997536407,-3.4683955411625305,3.2463447671503753,3.13770340883044,8.120713171114701,0.30297505132301583
116,4.723008333640851,-2.352811215365043,0.07691281369834004,0.7508998756878071,-3.120837574474302,-6.027238610724527,1.0099424195202038,-4.3558494645558286,-0.42952488748726875,-2.9882626143582782,3.39235052265096,3.319526076108909,7.8462113179072634,0.02533910883603168
117,4.3817499499192305,-2.211432991553365,0.006992901882820639,0.5919735246746751,-3.32889679562997,-6.286894816286416,1.0646991083915562,-4.055321315106041,-0.15466288142882256,-2.5226929507644957,3.4796583414769864,3.4230719741351265,7.495747046909348,-0.23779115697328757
118,4.0266800224251735,-2.0784889187820235,-0.05660102452070265,0.42725134614047927,-3.488779314659259,-6.4634094734609295,1.076380125470774,-3.7416112649060373,0.08540747589393924,-2.0815707527199225,3.5076789742367858,3.4512046185318823,7.079979389086157,-0.4791561810480387
119,3.6684231044830997,-1.9481994079119902,-0.11241826977035321,0.26728167643851575,-3.594165653782646,-6.552184348838725,1.0507835752731982,-3.4210650604380923,0.28508319173187147,-1.6730748907277138,3.4776385398237823,3.4088603468750533,6.610359582695071,-0.6922827758478235
120,3.3169545653471917,-1.815175866929016,-0.15938932718850118,0.12144304084830179,-3.6407774326198497,-6.551169078422214,0.994300338367985,-3.0994419361277346,0.4408115361710621,-1.3035189913834613,3.3924948183918016,3.302751906230178,6.098847224502115,-0.871815633927147
121,2.981067547777252,-1.6749177454736952,-0.19684181832342706,-0.0025408930875024708,-3.62661891039005,-6.461038742526059,0.9136084580016126,-2.781852248227005,0.5511275607272262,-0.9772858625960237,3.256782040032027,3.141018643212532,5.557608306986554,-1.01379697114959
122,2.6679341544710202,-1.524219686297579,-0.2245010784541838,-0.09896789464499939,-3.5521035374751078,-6.285252644279662,0.8153555498895053,-2.4727440892478416,0.6165841662697902,-0.6968517275814486,3.076395281296557,2.9328433300123002,4.998708273490631,-1.1158721274476395
123,2.382792820409213,-1.3614568800627576,-0.24247521340503733,-0.16438262705799114,-3.4200537352307547,-6.029980470391292,0.7058568934695012,-2.175925133052738,0.6395870038070111,-0.46288956071465925,2.858327856477493,2.688056108592664,4.433813372694552,-1.1774030292366537
124,2.1287836215135214,-1.1867257957559554,-0.2512250531690605,-0.1976481014963534,-3.235569442117665,-5.703889892318019,0.5908377470166043,-1.8946016368211784,0.6241516674628151,-0.2744372193527555,2.6103760465803503,2.4167449366997373,3.8739125889979222,-1.1994780120028419
125,1.9069408923818536,-1.0018296008162204,-0.2515201675869975,-0.19986120685704206,-3.0057694764263765,-5.3177999493479335,0.47524418202794516,-1.6314165179181996,0.5756027474064619,-0.12911455266536004,2.340825770828282,2.128889438671682,3.329070765297516,-1.1848148421646179
126,1.7163395782713162,-0.8101112358759701,-0.24438293328618724,-0.17412159332467586,-2.739418562226348,-4.884215633845169,0.3631371982438189,-1.3884723998075137,0.500234450945312,-0.023373289359196033,2.058135674575628,1.8340317564774928,2.8082216615292825,-1.1375625197951476
127,1.5543791204192696,-0.6161508238912539,-0.2310235524085348,-0.12517392754511644,-2.4464614298883696,-4.4167692981990365,0.25767202415530943,-1.1673327568209328,0.40495157287965594,0.04723572259455805,1.7706303320178478,1.540994388083749,2.319007504481541,-1.0630156479066448
