,AF3,F7,F3,FC5,T7,P7,O1,O2,P8,T8,FC6,F4,F8,AF4
0,31.198064684313525,33.06585143238322,29.079698592356777,24.820840610782653,25.74902246002775,33.433333777048915,31.881162508470794,25.613302729145136,37.15554389393144,36.078781796525185,34.86262016231836,18.283819486949152,31.152595391000126,34.223044800653994
1,27.678935896852877,31.635020489456014,26.384546324919484,23.758016877807314,25.430520927415632,31.692408956033127,29.60477159599431,23.39999947849278,34.86842645146604,33.2474309988095,31.356311721567316,13.481015209571119,27.740758045079126,27.445887269892037
2,24.166825169494953,30.17384534013697,23.69558086352712,22.676268215038938,25.054855308242715,29.922475391269302,27.321142518466846,21.189199458324907,32.61016139242994,30.416321209654367,27.860996901097515,8.694083987102772,24.33278768996836,20.724833097757642
3,20.70357938851446,28.694564653572357,21.052010427640766,21.58619070729635,24.61296662278235,28.137535532651167,25.05572353454709,19.005891896245355,30.409002208517855,27.612891200713864,24.415316141545304,3.996846292898539,20.967785155835514,14.141834169507584
4,17.327875446622038,27.207684215286946,18.48976887721604,20.496878476154347,24.095981156895398,26.350338741220497,22.831747513241723,16.873450641104643,28.290248724461854,24.861876200161134,21.054541923361533,-0.5408551917492631,17.68154556183306,7.773041933119244
5,14.074013508100995,25.721401065713444,16.040160544624285,19.415418961699757,23.495329032629627,24.57195616993416,20.66950042798748,14.813044999191382,26.275601602909838,22.184582141527006,17.80944026976814,-4.855156489488328,14.505431628319752,1.686603501765037
6,10.97092492918579,24.241176598654985,13.728745081870823,18.346510495662475,22.802878315974006,22.811431259387856,18.585709914841736,12.843124545005901,24.382609124608,19.598306869080236,14.705346763980778,-8.889890412064535,11.465471852640281,-4.059197385593851
7,8.041441199743419,22.769485070286915,11.574518615424811,17.292226257793036,22.011086832708582,21.075522988011823,16.59308240582068,10.979001253252271,22.624233381982204,17.11593764843692,11.76150128571831,-12.597954905724217,8.581726333544626,-9.417376521810843
8,5.301851288229384,21.305750868511783,9.589426325825952,16.25193835931613,21.113172569494456,19.36855628066534,14.700011954697956,9.23254947485556,21.008563965585626,14.745744869553915,8.990668864526342,-15.94228833869159,5.867944239266883,-14.35320886008956
9,2.761752871889117,19.84647330149912,7.77821651141354,15.22240372135053,20.103300555001773,17.692389662481137,12.910475634830064,7.612037470340595,19.538702421593836,12.491378915870513,6.399054221721993,-18.896435700195298,3.331515450695725,-18.844687059298398
10,0.42418173238949974,18.38552351588205,6.1386213670922585,14.19800159499708,18.97678026313751,16.04650383421024,11.224119582989719,6.122094749952375,18.212830161479673,10.352062827993297,3.986497571160162,-21.444716438675357,0.9736983074841582,-22.88248508933305
11,-1.7140132859434258,16.914586981127016,4.6618294191886145,13.171103147293394,17.730264276417735,14.428206731484053,9.636527803029205,4.763809679107483,17.024458169743994,8.322960598572513,1.7469228360142024,-23.582026150711965,-1.2099105593597865,-26.469460242054243
12,-3.661592286658739,15.42371867421586,3.3332018084727877,12.132547579842088,16.36193756835369,12.83294195355441,8.139654706135298,3.5349437025221913,15.96284177936366,6.395692012234166,-0.33100070016606453,-25.313317378537743,-3.228707376490813,-29.61974638924631
13,-5.432188339044686,13.90197683743754,2.133179849229171,11.072196484677303,14.871687829205415,11.25467970299892,6.722393595622636,2.430242855078884,15.013530684006302,4.558960394590928,-2.2630263935606267,-26.6528092804205,-5.096258906077346,-32.3575027100585
14,-7.043455883431865,12.338103096698847,1.038332042629684,9.979537450626658,13.261249746117981,9.686364132754855,5.37124735654735,1.441823475132074,14.159015216232273,2.7992583140489318,-4.068371858880968,-27.622974623218617,-6.829370708880491,-34.71538826103575
15,-8.516141737673852,10.72121883475205,0.02249117870165471,8.844307830464402,11.534317957148675,8.120389060421159,4.071063810142418,0.5596065019402737,13.379426097658518,1.1016163676522894,-5.768678858218366,-28.25334956639028,-8.44708804787358,-36.73283668167951
16,-9.873113960140552,9.041507846586224,-0.9420662180058236,7.657108844994991,9.69662303432024,6.549074614400691,2.805795598288245,-0.22822661212164258,12.65324671878239,-0.5496397782616196,-7.386937730546507,-28.579210811942506,-9.96967133839833,-38.45420790553928
17,-11.138382691353293,7.290853539374037,-1.8834451755063457,6.4099788053744,7.755962589412672,4.965118895907813,1.559243260031869,-0.9347828042708769,11.958003272167364,-2.1701591417958057,-8.94642424473262,-28.64016726441407,-11.417589693651669,-39.92689432722805
18,-12.336146978709216,5.4633971016746585,-2.8290083764514824,5.096893560515586,5.7221769559483695,3.3620002996590563,0.31574189017272525,-1.5740342940266654,11.27090644474883,-3.774896368343126,-10.469696681418561,-28.478717717905063,-12.810577469842706,-41.19945701110213
19,-13.489901413573207,3.5559830732354514,-3.8043466713836978,3.7141639152269827,3.6070573477667724,1.7343079358795108,-0.9392424536333981,-2.160440583052029,10.569427165500521,-5.377535356962762,-11.977698119233878,-28.138829207895636,-14.1667975612565,-42.31986342917676
20,-14.621635350818062,1.5684616311501023,-4.8323831530920485,2.260704254991848,1.424174690791434,0.07798005281446611,-2.2186316275446516,-2.7086249023696953,9.831797662746274,-6.990031485207049,-13.489003202744408,-27.66459029069748,-15.502150664587763,-43.333891859399834
21,-15.751154979220743,-0.4961771012751022,-5.932643636581583,0.7381535261056337,-0.8113802176992011,-1.6095661385380853,-3.5333852449686196,-3.233106767646822,9.037437610175099,-8.622290599206217,-15.01924044851594,-27.09898889771876,-16.82976217856078,-44.28375838727141
22,-16.89555427190705,-2.6318526274458973,-7.120718617930007,-0.8491615928435066,-3.0833496531058393,-3.3294245116813355,-4.892289013811629,-3.7480864726008063,8.167312110816061,-10.281993982715724,-16.580710929733236,-26.482855993801696,-18.15966857185416,-45.20701025469624
23,-18.06885481949182,-4.8296325896760415,-8.407933007664926,-2.4944216687882026,-5.374752046473988,-5.08131331984432,-6.301882273574709,-4.267274601410647,7.204231103348277,-11.97456980752526,-18.18221301872714,-25.85400541480561,-19.498713828818538,-46.13571510330413
24,-19.28182689955651,-7.078153446261786,-9.801230583434617,-4.1886578300446535,-7.668403396320659,-6.863805225542679,-7.766519555026219,-4.803760349432023,6.1330962411424625,-13.70330488383251,-19.829072446125124,-25.246588772783205,-20.85065510830945,-47.09596128370002
25,-20.541995265731554,-9.364204975074692,-11.303270542802906,-5.921224174780824,-9.947496949782346,-8.6746580672081,-9.288556062300277,-5.3699156845481335,4.9410919002309726,-15.469586804236926,-21.52336862795259,-24.690673584455453,-22.21646613127396,-48.10767130176416
26,-21.853823619895522,-11.673450110964604,-12.912723949450388,-7.680372430335917,-12.196215201087416,-10.511223962498704,-10.868643074973848,-5.977335950539978,3.617805964303253,-17.273264690261946,-23.264341767321344,-24.212043118510266,-23.59481757960844,-49.18471867480855
27,-23.219062159360686,-13.99124359704654,-14.624748390845888,-9.453897052182478,-14.400345125547258,-12.370911728952736,-12.506115736216163,-6.636818826196819,2.1552595997769237,-19.113114033371556,-25.0489587886235,-23.83220717530262,-24.982705756914147,-50.335326666281404
28,-24.63723363684759,-16.30350741301494,-16.431610374973847,-11.229816686585918,-16.547866677434605,-14.251677147469225,-14.199451435544518,-7.3583811368518965,0.5478279149493249,-20.987385457777687,-26.87260807539536,-23.56860354862649,-26.376193562229552,-51.562714621932976
29,-26.106225936072565,-18.5976182760771,-18.32341817765146,-12.997057872840356,-18.629485648713516,-16.152515359744303,-15.946771812140469,-8.151307643364348,-1.2079547858383868,-22.894408950720468,-28.729883845646018,-23.434961211966048,-27.77122160487418,-52.865945024684656
30,-27.622954161916375,-20.86326279927001,-20.28892432844792,-14.746108515445439,-20.639085327075673,-18.07392921172995,-17.746356913103547,-9.024220351700409,-3.1136950844056197,-24.833216968074034,-30.615413449502107,-23.441790188975933,-29.164442763111964,-54.240914433428415
31,-29.184052947526048,-23.093218623100057,-22.316356740908823,-16.46961167399262,-22.57407701237614,-20.01834730138659,-19.597138592393478,-9.985153952049629,-5.169521258926188,-26.804145063875268,-32.52467731607972,-23.596960160658345,-30.554031433233728,-55.681425936581235
32,-30.786559453732238,-25.284024078074353,-24.394239127375993,-18.16287417523172,-24.43563608915549,-21.99046639293382,-21.499142695194234,-11.041623648532795,-7.374511744793,-28.809368762191454,-34.45477207152443,-23.906328720105474,-31.94041949378486,-57.180279425048376
33,-32.428548581848936,-27.436503951139766,-26.512163204766136,-19.824268904506805,-26.22881602056206,-23.997494753940753,-23.45385461098995,-12.200674529648627,-9.727135687279747,-30.853339348026314,-36.40507133858497,-24.374379407236106,-33.32691446642288,-58.73031758666504
34,-34.10968438915998,-29.5561244893858,-28.661477307230957,-21.45551409533205,-27.962536297283183,-26.049275812173928,-25.464488436345192,-13.468904735295858,-12.225670354272374,-32.94308720376817,-38.377744965137836,-25.0048295073703,-34.72016112167393,-60.32536960967362
35,-35.831656521149846,-31.653156960585918,-30.835859565664293,-23.061817527357867,-29.649442635234752,-28.158275463844678,-27.536145298708593,-14.852457082038512,-14.868560824710288,-35.088368082534195,-40.378105720890275,-25.80116934746833,-36.13041569372746,-61.96104211768361
36,-37.59847771384949,-33.74263574613898,-33.031749272722394,-24.651878014583048,-31.305639573828437,-30.339421507120964,-29.675851245567873,-16.356975690637064,-17.654688872329555,-37.301634922480595,-42.414762174904084,-26.76709909212601,-37.57161155190061,-63.63531814767611
37,-39.416626429526666,-35.844103377995495,-35.248616534580606,-26.237740198682808,-32.95029730090529,-32.6097896688295,-31.892469374228327,-17.987525652602184,-20.583522503804538,-39.5978251298065,-44.49956575298376,-27.90683528639091,-39.061205286304165,-65.34893780487457
38,-41.295025752624234,-37.98114052223002,-37.48905682778993,-27.8345011653547,-34.60513584117073,-34.98813679244888,-34.19648452396176,-19.74847478119831,-23.6551265168958,-41.99396051284727,-46.64734772811435,-29.225266820684286,-40.61980134886117,-67.10554563378034
39,-43.24485576111931,-40.180683951249335,-39.75870360179355,-29.459869645009555,-36.293791037898615,-37.49428747012344,-36.599662273731546,-21.643337305408142,-26.87002714895577,-44.508564695902884,-48.87544903614227,-30.727948383795244,-42.270561907019015,-68.91159921536355
40,-45.27920260779901,-42.47214105606975,-42.065958981164066,-31.13358182303234,-38.041068777656896,-40.14838567448851,-39.11458738447451,-23.674580469428417,-30.228937767663616,-47.16091124501498,-51.203053693243696,-32.42092876985654,-44.03841745804415,-70.77604262740587
41,-47.41255369339315,-44.88631616902291,-44.421549820904836,-32.87668255557396,-39.87209710067926,-42.970027756375,-41.75408977422338,-25.84339648905838,-33.732363872498546,-49.97012417739674,-53.6503448607278,-34.3104208683576,-45.94910273621138,-72.70975813562497
42,-49.66015406436263,-47.454171871867,-46.83792332558247,-34.710686667975565,-41.81139025472569,-45.97729764887494,-44.53056853435208,-28.149444133841275,-37.3801121425078,-52.95415981371504,-56.23750986473082,-36.402328411137184,-48.028050191467855,-74.72481930534478
43,-52.037244056063386,-50.20545705596344,-49.32850271342857,-36.656641336515634,-43.881844278089446,-49.18573000307096,-47.45522727640252,-30.590566575920214,-41.17073066009216,-56.12870471315403,-58.98362627691781,-38.70165054766084,-50.299179187406565,-76.83357766155389
44,-54.558201907188085,-53.16724201063912,-51.90682866195502,-38.734116660999916,-46.10368994280181,-52.60723307528913,-50.53723815105864,-33.16249519072159,-45.10090800306403,-59.506029116855544,-61.90546619345947,-41.211789113186725,-52.783623231553506,-79.04762200910285
45,-57.23561738766206,-56.362408176080486,-54.58561616496667,-40.96015680109666,-48.49343501623854,-56.24900994771083,-53.78285716896237,-35.858552153490386,-49.16485882865731,-63.09383906256758,-65.01626071386907,-43.93378581852977,-55.498440135095755,-81.37665367177789
46,-60.07932369341225,-59.8081453977314,-57.375758855106255,-43.3482279888144,-51.06283283526756,-60.11252205613168,-57.194519321430654,-38.66936694297891,-53.353722596687675,-66.89417269247977,-68.32447098242444,-46.865518337753315,-58.45535111383429,-83.82732258627874
47,-63.095415751428,-63.51451220524482,-60.28531418559606,-45.90720208019303,-53.81791745694335,-64.19254125355289,-60.76994788919381,-41.582622578939755,-57.6549997568823,-70.90238679801267,-71.83261495712507,-50.0008860837254,-61.659554780051614,-86.40207003597813
48,-66.28528418763032,-67.48311510518575,-63.318503597895926,-48.640415021643996,-56.75814684833876,-68.47633579277422,-64.50131784085777,-44.582846750976586,-62.052046647268575,-75.10627823359334,-75.53619930828548,-53.32901856046933,-65.1086607241598,-89.09802485316196
49,-69.64469534235727,-71.70596146631706,-66.47476191778,-51.54483879714609,-59.875694526382084,-72.9430329012346,-68.37451767235176,-47.65126166302933,-66.52364812520409,-79.48538164509122,-79.42280327571198,-56.83354062889998,-68.79178454855432,-91.90600036284388
50,-73.16294854938575,-76.16453736819844,-69.74786938379108,-54.610403260556545,-63.154926523944425,-77.56319674092657,-72.36855615367325,-50.765705036688004,-71.04368696198509,-84.01048023500333,-83.47135670188777,-60.49192845204995,-72.68884181844645,-94.80963797428781
51,-76.82214273837829,-80.82915683373805,-73.12519800920727,-57.81950083213312,-66.57209439540628,-82.29865490998513,-76.45515868645839,-53.900633386845,-75.58093087239449,-88.64336029387638,-87.65164904016741,-64.27498749850874,-76.77007332702145,-97.78474028961838
52,-80.59658590739186,-85.6586225133617,-76.5871023162231,-61.146702381893746,-70.09526649867048,-87.10259820221503,-80.59859135501699,-57.02721699543199,-80.09895932026535,-93.33683313676055,-91.92410056848489,-68.14648171909894,-80.9958294217642,-100.79883302345408
53,-84.45238319643934,-90.60023070014043,-80.10648397852391,-64.55870687534649,-73.68450999969554,-91.91996684083988,-84.75573963233461,-60.113533352290865,-84.55625035006449,-98.03503985757796,-96.23982108650522,-72.06294236347594,-85.31663721559899,-103.81099165943934
54,-88.34724124353524,-95.59014577965934,-83.6485605372574,-68.01454080027669,-77.29232638140195,-96.68812294990855,-88.87645485249587,-63.124861950065196,-88.90644202313698,-102.67404501715225,-100.54097458518437,-75.97368546680025,-89.67357058402929,-106.77196537401733
55,-92.23052647291408,-100.55416030851723,-87.17086827605594,-71.46601625598697,-80.86433495919441,-101.33779583206501,-92.90416745389133,-66.02407879533831,-93.09877525963661,-107.18271570053919,-104.761460609552,-79.82106715688762,-93.99893767070742,-109.62462606355442
56,-96.04361108245621,-105.40884603179104,-90.62352621235364,-74.85844892394447,-84.34019245654106,-105.79427603652097,-96.77675375735056,-68.7721449392999,-97.07871727673822,-111.48387346765443,-108.82791424858362,-83.54100373549043,-98.21729307723821,-112.30476239225248
57,-99.72053180262412,-110.06308811477076,-93.94978101026396,-78.13162891559176,-87.65473152652001,-109.97882719703516,-100.42763353967844,-71.32868029426278,-100.78875825270217,-115.49569916839204,-112.66101661921404,-87.06377728489562,-102.24677145363867,-114.74222622891986
58,-103.18897342856177,-114.41998014759001,-97.08684199870258,-81.22102869724954,-90.73929616258746,-113.81028009180282,-103.78706830656886,-73.65261158666924,-104.16936770928213,-119.133363854876,-116.17709607376152,-90.31513637063973,-106.00072606835587,-116.86242175592643
59,-106.37157304370238,-118.3790415249318,-99.96700247091881,-84.05922302587979,-93.52324644865706,-117.20676955446,-106.78362390654658,-75.70288114402143,-107.16009113657361,-122.31085221716816,-119.28998735957211,-93.21768577451176,-109.389641125335,-118.58810738700319
60,-109.18752326019687,-121.83870200715945,-102.51902914978967,-86.57748637519512,-95.93559887923362,-120.08757113129477,-109.3457557815447,-77.43920173996601,-109.70076243959156,-124.94293774495341,-121.91310235397252,-95.69254091732978,-112.3232713647449,-119.84145956102955
61,-111.55443499804817,-124.6989815622034,-104.669787132438,-88.70752410893752,-97.90676172356446,-122.37499111565893,-111.4034714116723,-78.8228422056273,-111.73280397175833,-126.94726103794966,-123.96165257416563,-97.6612036602707,-114.71294770841078,-120.54632759913646
62,-113.39040377723173,-126.86427874401295,-106.34605381226619,-90.38328529079351,-99.37031818369353,-123.9962610463962,-112.89002289754882,-79.81742819147624,-113.20058180518045,-128.24645434285316,-125.35495140594627,-99.0475983607924,-116.47397429832532,-120.6305920674615
63,-114.61621036919216,-128.24617021058532,-107.47646396628026,-91.54279866483127,-100.2648047256611,-124.88538609009343,-113.74358318185249,-80.38974150780604,-114.0527788719034,-128.77024790651635,-126.01871507282564,-99.78019315091593,-117.52803230872654,-120.02852792245977
64,-115.15757929522964,-128.76611938794085,-107.99352180344987,-92.12997052105214,-100.53542960727114,-124.98489656209247,-113.90886210396674,-80.51050038368408,-114.24374457968814,-128.45749022091636,-125.88727870686611,-99.79412461568582,-117.80550223972104,-118.6830709695756
65,-114.94741800807819,-128.3579941208689,-107.83561553336371,-92.09628454823857,-100.13567792042937,-124.24745384705406,-113.33862294462224,-80.15510304534988,-113.7347789599912,-127.25801687697562,-124.90564873675864,-99.0332455883878,-117.24762024781009,-116.54789302475795
66,-113.92796434434905,-126.97030051573739,-106.94897449660024,-91.40234826340645,-99.02875340901578,-122.63726607153959,-111.99506524348077,-79.30431852777873,-112.4953127475191,-125.13431025593675,-123.03132328488475,-97.45202359734003,-115.80839368965783,-113.58920559258623
67,-112.0527774660062,-124.5680519997087,-105.28951500429659,-90.01923628725515,-97.1888124259064,-120.13127430110254,-109.85104409858508,-77.94491034230445,-110.5039497985517,-122.06290086465518,-120.23582470312222,-95.01722813355171,-113.45621323412672,-109.78722979358035
68,-109.28851577095372,-121.13420800807727,-102.82452618035458,-87.929586735428,-94.60195112591848,-116.72007609930374,-106.89109910288427,-76.07017892534037,-107.74934181019877,-118.03546754326527,-116.50589962592763,-91.70935583300134,-110.17511107215061,-105.13728778543684
69,-105.61645266965184,-116.67063450931208,-99.53415021265172,-85.12841386691665,-91.26691375207542,-112.40855981347329,-103.11226752490393,-73.68040734812334,-104.23086614653892,-113.0595975784428,-111.84435065473973,-87.52375261286024,-105.96562580162275,-99.6504855833615
70,-101.03368696503097,-111.19855730737645,-95.41261269574474,-81.6236086657942,-87.19549795332307,-107.21623006519236,-98.52465688996135,-70.78319306386635,-99.95907806388867,-107.15917151456763,-106.27047105595601,-82.47140018151305,-100.84524496514722,-93.35396886897465
71,-95.5540089841682,-104.75849737650142,-90.46915914891423,-77.4361091725658,-82.41264221786679,-101.17721269728891,-93.1517529868382,-67.393648822394,-94.95591320674536,-100.37434513015273,-99.82006250004655,-76.57934134916366,-94.84840769287545,-86.29074423111045
72,-89.20838747133901,-97.40969439891323,-84.72865468886226,-72.59973317052241,-76.9561901634908,-94.33993569072311,-87.03044205579191,-63.534459490967,-89.25462741543562,-92.76111501095666,-92.54502831188537,-69.89072518520787,-88.0260637469109,-78.51907058629094
73,-82.0450466188567,-89.22903965774111,-78.23180679716071,-67.16067616138257,-70.87633589110426,-86.76649078941668,-80.21073145825852,-59.235787295357554,-82.89947669360606,-84.39047331364023,-84.51255083565282,-62.464460405282715,-80.4448009014361,-70.111439375449
74,-74.12910834526416,-80.30955245658494,-71.03497746547848,-61.17668689827454,-64.23476319835581,-78.53168799477001,-72.75516117783243,-54.535023415217694,-75.94515563627971,-75.34717803493908,-75.80387882769288,-54.374474023960495,-72.18556818996706,-61.153175651820774
75,-65.54178262392799,-70.75844534259396,-63.20956087976039,-54.715941116970114,-57.10349888072862,-69.72182111161425,-64.73790772434903,-49.47638690599433,-68.45602285715701,-65.72818318985087,-66.51276602033579,-45.70858206812531,-63.34203637737037,-51.74070354279827
76,-56.37909875738417,-60.694832395242976,-54.840915129838514,-47.85564167658363,-49.56350683436942,-60.433167093017516,-56.24359096867475,-44.11037221005415,-60.50514448525394,-55.64078530944071,-56.743612706264614,-36.56698912176938,-54.01864787775511,-41.97952828705723
77,-46.75018364658113,-50.24714194272541,-46.02685056872967,-40.680380337908694,-41.70305579744428,-50.77024577364563,-47.36580260706158,-38.49304532967529,-52.173182505765084,-45.20054721918379,-46.609367854577734,-27.060443216031818,-44.32841587032666,-31.981993694611738
78,-36.77511023348238,-39.55030151046678,-36.87569448096449,-33.28030335231059,-33.61590002281394,-40.84387109112497,-38.20538302009091,-32.68518830770257,-43.54714744603707,-34.52905903620552,-36.22925149713778,-17.308083062848528,-34.390537408092705,-21.864879364672028
79,-26.58236044497468,-28.742769622484957,-27.503972761278092,-25.74913006267074,-25.399319040323398,-30.76903119070928,-28.86848213032672,-26.751294102159182,-34.71902899945244,-23.75159355185396,-25.726358147553448,-7.435027049068391,-24.32788902872228,-11.746906940445973
80,-16.305969966337756,-17.963495535589825,-18.033772733617848,-18.18207998747963,-17.152068842226107,-20.662642612721957,-19.46444932855045,-20.758419945444075,-25.784315638197334,-12.994710868320029,-15.225202521759337,2.4302331164333983,-14.26447552358021,-1.7462285934732555
81,-6.082442972637919,-7.348892014740618,-8.589872817182282,-10.673768069512485,-8.972300885337262,-10.64123163146127,-10.103606522948088,-14.774915788920614,-16.840414614967788,-2.383864385795188,-4.8492675996551435,12.158559734132977,-4.322901420933896,8.022028154147872
82,3.9524602814225385,2.9700937750665286,0.7032595739035219,-3.3161293293944873,-0.9555067635228653,-0.818602510995514,-0.8949658365800883,-8.869053688844822,-7.984986408021876,7.9589446776105905,5.281389150252449,21.622936493824625,5.3780707841640005,17.448089418204535
83,13.666953084437473,12.870730489798134,9.724492629880555,3.803566692129401,6.807454338359897,8.696442473531203,8.056041023028714,-3.1075927154606595,0.6857867224839612,17.917423410375484,15.052422196809717,30.701194195577283,14.725820729939235,26.429677765146337
84,22.936359379439047,22.24100083660493,18.35896795034689,10.604554249889103,14.232190763462972,17.802263249361744,16.649751477935745,2.445678560213543,9.078969244563297,27.383118134170854,24.35733467368306,39.278617090560154,23.615983968459606,34.873922613848265
85,31.646054540421762,30.98178449183191,26.500849174458487,17.01420987328628,21.242425362635316,26.40635402609148,24.794308333357826,7.731374366589259,17.106637677398687,36.257385742108404,33.09942796836547,47.2503592300898,31.954343817622405,42.699006691973906
86,39.69411596725354,39.008673244648506,34.05579114084657,22.969445052669563,27.771408949987627,34.4270624437878,32.40747654401968,12.695867995172717,24.68759169292854,44.453169171908364,41.1935289432817,54.523608945945504,39.65847225731031,49.83552930403727
87,46.993601920602295,46.253376873656926,40.94305373434521,28.417815186415513,33.76306148394355,41.7949990523167,39.41818126228286,17.29252047338991,31.74895259574647,51.89653712424301,48.567459477325066,61.019448375529926,46.6590946200325,56.22757413225545
88,53.4743897034222,52.66468833424227,47.09719833163534,33.31831550889365,39.17280979826208,48.454092293759864,45.76771935110009,21.482731591118092,38.22758794030751,58.527944380956626,55.163211582412345,66.67436214684945,52.90115356490981,61.83347008723353
89,59.0845166110058,58.20898582305317,52.469316459115674,37.64184358802202,43.9680989354752,54.362258723338485,51.4106101277465,25.23676695308078,44.07130242539398,64.30316675378425,60.93779012715199,71.44135451932208,58.344546026316216,66.62623069702089
90,63.79098006139776,62.87025849844937,57.0277513599485,41.371317423201845,48.12856345206351,59.49167462638162,56.31506576138991,28.534321214209918,49.23974063245883,69.19386599421672,65.8636866331766,75.29063931124634,62.96450498143122,70.59365502722657
91,67.57996855429637,66.64965384436168,60.75828635629816,44.50144886691485,51.64585616355382,63.82865266058983,60.46307700764343,31.364787515642863,53.70495743786514,73.18774717194043,69.9289542071621,78.20987476836582,66.75159969525738,73.73807486651287
92,70.45651314215321,69.56455869942326,63.66379089812978,47.038184074677964,54.523144503445124,67.37314399941769,63.850125033662174,33.72721618788248,57.45162764422904,76.28828495834762,73.13686647078009,80.20392778276252,69.71133613408288,76.07574037062346
93,72.4435696697231,71.64724255704817,65.76333603494892,48.99783535999193,56.77429793917764,70.13790074590688,66.48454354267245,35.62996073892921,60.47688625287172,78.51401476747424,75.50516128843618,81.29416825452871,71.86335371819453,77.63584909950092
94,73.58056469973437,72.94310993497336,67.09081449820039,50.40594145475001,58.42280265800408,72.14734417142125,68.3865662199551,37.090024324762524,62.789811749272985,79.89740725087182,77.06489084152638,81.51731357441552,73.24023401496973,78.45923967527874
95,73.92146186750698,73.50862703779435,67.69312458138202,51.29590488555153,59.500451074673755,73.43619167452003,69.58710280036715,38.13213411322812,64.4105838866274,80.48336755758338,77.85892087817108,80.92386357422694,73.88595908360799,78.59678849938518
96,73.53242878362903,73.40900497255262,67.62799937147632,51.70746490807009,60.04586261063844,74.04789972766227,70.126293556963,38.78758363293366,65.36936332386706,80.32742217252454,77.94014208450217,79.57618630410593,73.85407952298617,78.10756379566914
97,72.48920552311,72.71573565201481,66.96158186033011,51.68507132657273,60.102898032294526,74.03298224089225,70.0518974506542,39.092893926148136,65.70495250692565,79.49367449881066,77.36947375373151,77.54633334610162,73.20567222212836,77.05680497203743
98,70.87429186617247,71.50408533411562,65.76586026431518,51.27622820116113,59.71903256786616,73.44726473342419,69.41757406229252,39.088352450664054,65.46330457503356,78.05262347663202,76.21375181069918,74.91367833885731,72.00718235315631,75.51380680364787
99,68.77407926294178,69.85065284389522,64.11608424372824,50.529876667934296,58.94375330957791,72.35013518464578,68.28112379271718,38.81649340688361,64.69594909996847,76.07894489050679,74.54359724082873,71.76248120247341,70.32825060464923,73.54979567243898
100,66.27605302037595,67.83109386161641,62.08827965507662,49.494882212186575,57.82704364951328,70.80285203734377,66.70275362269139,38.320583800214365,63.45840005703474,73.64933112245177,72.43135600618452,68.17948044559566,68.23962392433175,71.2358862749407
101,63.46618000996344,65.51809892954542,59.756966593383645,48.218683114431904,56.418010945145554,68.86696679176039,64.74343472448467,37.64317578822388,61.80860315740031,70.84047250293024,69.9491886340617,64.25160628942038,65.8112366223847,68.64120038429903
102,60.42657895796202,62.97969214229089,57.19316476702831,46.74614406556186,54.763703155798126,66.60291104751971,62.463411353520186,36.82477841825994,59.80546803858617,67.72724477139774,67.16736943355586,60.0638907016641,63.110530229317,65.83121591411529
103,57.23354769940145,60.27789318000526,54.462745779055474,45.11864429426148,52.908146917472685,64.06878566985114,59.920907945766324,35.902692664565436,57.50751874784031,64.38114670064762,64.15283528340917,55.69763132711666,60.201058202746175,62.86639809615371
104,53.95599851202941,57.467761868042466,51.6251681345511,43.37341524649553,50.891625321441246,61.31937538264388,57.171066036909224,34.9100448813327,54.971686934301495,60.8690138496538,60.968005835980094,51.22884882894785,57.14139977978502,59.80114790121684
105,50.654330827005644,54.59682461087396,48.732610264246865,41.543129831650745,48.75020030606274,58.40539867989209,54.26512780792038,33.875046454374974,52.25226795186869,57.25202098400427,57.66988324677324,46.72706312959468,53.98438912745825,56.68308665976671
106,47.37975007701291,51.70486580338376,45.82949927149843,39.65573331261645,46.51547305372496,55.3729922392452,51.24987025351463,32.82050112347114,49.400059332756875,53.58497653188275,54.309430242693004,42.25440278625342,50.7766517902268,53.552679823692316
107,44.17402145594727,48.82405329996201,42.95241676808638,37.734495041704456,44.21456629172267,52.26342068411569,48.16728264035774,31.76357458557136,46.46170007329638,49.91590505805196,50.93121841503307,37.86505115091268,47.558428881959635,50.44318730972199
108,41.06962798566377,45.979354594181245,40.13034688864458,35.79825118119218,41.870304668714056,49.11299514668637,45.05446899559372,30.715831601189326,43.479223858945105,46.28590546898189,47.57333152189791,33.605020893266605,44.36365938818156,47.38091375435843
109,38.09028430144068,43.189190202658,37.38521574081607,33.86180223559763,39.50156309795847,45.953176721004276,41.943746761822524,29.68353292474376,40.489827999218264,42.729262620032614,44.26750024667566,29.512234068688105,41.22028228277426,44.38571937577344
110,35.25174220078947,40.46626409612639,34.73265799112432,31.936425923465446,37.12374794280834,42.81083408314107,38.86290370663717,28.6681691364718,37.525844349110145,39.273779309999924,41.03943619472416,25.61686964165033,38.150713648933966,41.471740691436814
111,32.562812890084416,37.81850868547009,32.182937441365944,30.030465115589866,34.74937211111909,39.70861962406976,35.835569240041394,27.667193659440237,34.61488323072097,35.941286055381596,37.90932559639498,21.941927359594604,35.17245032538578,38.64826090591584
112,30.026525385910226,35.250083650487944,29.741946125189052,28.149951577092683,32.38868263643801,36.66542623614746,32.88165429085617,26.67490547708044,31.78011038019733,32.748279025532106,34.89243841913903,18.503948703291705,32.29875078979682,35.920664296835696
113,27.641340914423825,32.762372781098286,27.412210809339506,26.299228646547924,30.05029861779222,33.69688745614723,30.01781584483148,25.68342452895726,29.040612085497845,29.70663340015477,31.999806825589253,15.313832777126757,29.539345569898327,33.29140898831106
114,25.40234886751151,30.354929908311252,25.193845289628097,24.48153963194212,27.74181912383196,30.81588678945697,27.25790779171579,24.68369964457376,26.41180464778547,26.824340850328326,29.238928094000787,12.377686464934607,26.90113316988027,30.76095820472126
115,23.30238047745077,28.026333375140926,23.08539939643937,22.69955375741333,25.470365142438023,28.033047342370814,24.613388175779434,23.666490196473266,23.905849607566275,24.106225311774857,26.614451003179184,9.697653130331421,24.3888233859197,28.32861995318657
116,21.33299114986553,25.774918162306157,21.084569593771572,20.955808183822917,23.243026538478684,25.35717942129695,22.09366317341831,22.62326835759074,21.532044152982863,21.554599555418825,24.128811023828252,7.272672345887003,22.005497899099513,25.993256917570946
117,19.48527955045583,23.599365345062395,19.188750572243816,19.253052557048687,21.067193472838376,22.79567019640769,19.70635867898223,21.54699823206568,19.297165527987655,19.169835231355552,21.78278796151949,5.099134321468427,19.75306766700036,23.753840563645163
118,17.750528629974696,21.499139083052423,17.395421555335147,17.594490404776177,18.95076082969376,20.35480494555031,17.457519738066214,20.432759673393612,17.205758265344073,16.950830060199912,19.575969061349028,3.1714061877159554,17.632617065678296,21.60983573840635
119,16.12066893218544,19.474770798219517,15.702374448652721,15.983918185218291,16.90220303666336,18.040013699037782,15.35174513922419,19.278196668708127,15.260362947685971,14.895366697576735,17.50711013300214,1.4822223044448457,15.644635144858267,19.56141499077225
120,14.58857693357479,17.52799806176727,14.10780290237152,14.425767623466037,14.930524918049995,15.856040820024417,13.39226908821425,18.08378177962749,13.461694162567362,13.000368042141094,15.574396581022793,0.022946573677300942,13.789144114470545,17.609515658419813
121,13.148230406301957,15.661771879379797,12.610280978679707,12.925060715024804,13.045101907162241,13.807038739093375,11.581004496905726,16.852898870093526,11.808782552014527,11.262063111284235,13.775614921276674,-1.2162701425847402,12.065743581331175,15.755765957894475
122,11.794748253313287,13.880150139267974,11.208665869668412,11.487289757959546,11.255429669507576,11.896590860008224,9.918563347059862,15.59175562509659,10.29910038696054,9.67608486884335,12.108252087954055,-2.2464029801821086,10.473594794239105,14.002315728682186
123,10.524343360915026,12.18809629082227,9.901959569806111,10.118236785712197,9.570807949157334,10.127672277298336,8.404268854088347,14.30914425211729,8.92869085523804,8.237524513103299,10.569542565934283,-3.0794977541222286,9.011370503923022,12.351610268984052
124,9.3342141029185,10.591201032721509,8.68915974386474,8.82374774500356,7.999985444843195,8.502559958711085,7.036171928238697,13.016072795522083,7.692317768127536,6.94096462956901,9.156481359632068,-3.7286133817574547,7.677192456245843,10.806141582709243
125,8.222394885076639,9.095342825162238,7.56912222588485,7.609477149088642,6.5507919900587535,7.022706184695968,5.8110813558109715,11.725291364072135,6.583645483124406,5.780507577880702,7.865815925423377,-4.207739067819333,6.468572017285366,9.368202957176939
126,7.187580893610325,7.706303102460616,6.540449094899367,6.480619190746409,5.22978222039035,5.688590364658326,4.724614031938215,10.450738740293843,5.595450507911929,4.749808479412876,6.6940256146115225,-4.531675404158107,5.382363313619643,8.039663808520432
127,6.228938768790839,6.429355454879046,5.601408836358559,5.4416413561102726,4.041911976239208,4.499565030917578,3.7712688549288744,9.206936439549429,4.719858733762261,3.8421167339678397,5.637294626720648,-4.715877587733178,4.414734435235476,6.821774782140853
