,AF3,F7,F3,FC5,T7,P7,O1,O2,P8,T8,FC6,F4,F8,AF4
0,0.02087193919961872,-2.6445632872574305,0.48352339291432933,-2.0753555735822515,-5.626591250083819,2.8164774260541536,1.2294273446481176,-0.09230223139788615,-11.323471788312512,-6.760973832659357,-4.171016983618596,-2.6704223680357138,-2.7748896297059553,12.831205448830135
1,-1.3984272360029995,-3.8675169751291865,-0.9814492353760783,-2.2684021824331198,-5.313914626987118,4.371303044344195,2.1951723802575804,0.26775826268231967,-8.416099062577402,-5.160936942231713,-5.333647977196611,-3.503280603436399,-2.9909871935200103,11.983825140708486
2,-2.767707029724472,-5.060268138849735,-2.3839357195886994,-2.436788459312283,-4.974738118371885,5.92219841099061,3.153801766716287,0.6100814774847755,-5.610170088909672,-3.6081572859227684,-6.4732312666262946,-4.284289939426749,-3.1911380922175745,11.183099653458395
3,-4.0653540949633165,-6.202809156907083,-3.6999389184865636,-2.5789164074880855,-4.604257789948526,7.445693273676638,4.089963484759947,0.9292421781900538,-2.94348656958069,-2.122841044148932,-7.565231283764483,-4.988177510189145,-3.3659545714137327,10.447667253988255
4,-5.272380175795409,-7.276356325013182,-4.9082373040725,-2.693771748731043,-4.1984109190656,8.919346328422312,4.989084370055012,1.2208601494917326,-0.4487673336576891,-0.7225896479897185,-8.586614723114707,-5.592246298077974,-3.506871660712096,9.793624126193214
5,-6.3730287345095595,-8.263833416202964,-5.991003346536572,-2.780893264790751,-3.75404992910847,10.322374559668107,5.837729045075933,1.4817346928994368,1.8468854198063367,0.5779224811466289,-9.516669119857363,-6.077143373443069,-3.6064896027085775,9.23393875415957
6,-7.355235232269306,-9.150296792053389,-6.9342876867579575,-2.840346906327113,-3.2691067349648133,11.6361738908498,6.623912830572699,1.7099447032888744,3.922310740933018,1.767144595860386,-10.337709411402617,-6.4274851723519335,-3.658876055337391,8.777987195579243
7,-8.210922764028318,-9.923290056660157,-7.728351402090362,-2.8727078576302425,-2.7427422584234686,12.844712457654802,7.3373581953406255,1.9049094866618494,5.762398171981501,2.8367127584649183,-11.035647570656183,-6.63231946616602,-3.65981884668751,8.431225988640222
8,-8.936126832131698,-10.573119921089251,-8.367838740967558,-2.879051694690759,-2.175474755664669,13.93478719036216,7.969686418485065,2.0674052889216767,7.357988433889328,3.7813805052156453,-11.60040954066679,-6.685416210328335,-3.607022073505033,8.195010847091412
9,-9.530953319110816,-11.093047383279652,-8.851791012491695,-2.8609531320679333,-1.5692795993108464,14.896143140447906,8.51453957378041,2.199533042254306,8.705582803707939,4.598827456518779,-12.02619076034953,-6.585389357332709,-3.500238854078974,8.066562882328748
10,-9.999382199653052,-11.479390572306666,-9.183508910811751,-2.820488561693882,-0.9276522769990524,15.721462728640956,8.96763164112018,2.304634118499047,9.806885188631325,5.289364605947455,-12.311546925377998,-6.335658208657631,-3.3413337254670457,8.039078514454133
11,-10.348936253013253,-11.73153864695773,-9.370275939365863,-2.7602374080785,-0.2556260124520104,16.40623874088117,9.326730257898305,2.3871527301320468,10.668204140055723,5.85556055985308,-12.459321598394562,-5.944260289079112,-3.1342679404257465,8.10197337229041
12,-10.590238749758283,-11.851879688934345,-9.422960046260371,-2.6832769116498563,0.4402640596907032,16.94855088641164,9.591572471392745,2.4524459746720852,11.299744170977345,6.301815565482013,-12.476417662508169,-5.423529123436616,-2.8850026420400123,8.241245258549656
13,-10.736486663891476,-11.845648585726407,-9.355513974082935,-2.5931643808312663,1.1520768563816672,17.348771235416734,9.763719965217087,2.5065454343601146,11.71481978856475,6.633911155595362,-12.37342505698302,-4.789650901723126,-2.6013179995454134,8.439938524567333
14,-10.802866362408805,-11.720702871031081,-9.184396776544943,-2.4938998875601612,1.8706261388335577,17.6092281217281,9.846362081148788,2.555877644112819,11.929032106417079,6.858563664445003,-12.164121911740926,-4.06211466996505,-2.2925504116773134,8.678692394738924
15,-10.805936666761722,-11.487235331939587,-8.927938884582836,-2.3898613253363212,2.5857082984455877,17.73385976519105,9.844077804730595,2.6069542143663025,11.959453686108091,6.98300904942405,-11.864869691840857,-3.2630714402138583,-1.9692542381230589,8.936357695922624
16,-10.76299965776921,-11.157432071509973,-8.605670836119963,-2.28570365710323,3.2863960870902784,17.72788666521024,9.762569745435421,2.6660453107649573,11.82386810912942,7.014642881518763,-11.493925631459499,-2.4166180380910136,-1.642798645106394,9.190668433922795
17,-10.691473843802571,-10.74508427926781,-8.23763240029797,-2.186216193107116,3.961393142650624,17.597525249703622,9.608383817817183,2.738851991026557,11.540104242739247,6.960732341139948,-11.070698380708501,-1.5480216276171537,-1.3249140167094662,9.418955122737687
18,-10.608279599345888,-10.265162282714163,-7.843676250760403,-2.096136502770437,4.599439235137468,17.349755474468022,9.388628472155629,2.8301933152903853,11.125491853179627,6.828207468805184,-10.614975805378316,-0.6829014568627071,-1.027206367133445,9.59888478564095
19,-10.529244862059413,-9.733361978568654,-7.442779672661507,-2.019926177037657,5.189750996009112,16.992144936386225,9.1107075434923,2.9437232570956886,10.596448332031194,6.6235290654052035,-10.146156724584424,0.15361384158957986,-0.7606621216181935,9.70920887141754
20,-10.46854007767737,-9.165635744261731,-7.052378716214674,-1.9615199052516221,5.7224785705836965,16.532724537390397,8.782080636930127,3.081690518985495,9.968190236836373,6.35262310977995,-9.682519953583526,0.9377321083770239,-0.5351685546013059,9.730496760682758
21,-10.438154235120747,-8.57772139634389,-6.687741051015703,-1.9240634378448525,6.189156227078622,15.979906840198588,8.410063170135029,3.2447517930300807,9.254552168894218,6.020867940358124,-9.240563276732185,1.6478217757958695,-0.3590760973676628,9.645830085607624
22,-10.447427355956089,-7.984683361352597,-6.36139616163614,-1.9096577623905306,6.5831247083705104,15.342437065773133,8.001674099562091,3.431846410056114,8.467891728161288,5.633120896418117,-8.834441091895416,2.2651857212184487,-0.23882709852656675,9.44143176787121
23,-10.502658151885635,-7.400480238564917,-6.082644115142811,-1.91912701688135,6.899904097194204,14.629366809759354,7.563533725342705,3.6401382742289554,7.619063039342701,5.193774810933538,-8.475522371464864,2.7747534261229863,-0.17867132735799715,9.107203595566542
24,-10.606807959083538,-6.8375726894003135,-5.8571664352247,-1.9518270368153376,7.137497093649871,13.850041060396139,7.101808283952092,3.8650295609355645,6.717450296508547,4.706840281972789,-8.172081417385094,3.1656586872481904,-0.18048205145432747,8.637147664321622
25,-10.759322396858202,-6.306584959214962,-5.686764038227926,-2.0055101856828847,7.29660397945205,13.014089374360555,6.622193515816679,4.100249493499602,5.771063280535456,4.176055394437009,-7.929124312524313,3.4316713291380174,-0.24367883063543827,8.02965025562546
26,-10.95608932907482,-5.8160317232520695,-5.569246764696981,-2.076260007992541,7.380733253605185,12.131411752219732,6.129926545006461,4.338020129762984,4.786705440033342,3.6050289776433257,-7.748345183647702,3.5714558728308496,-0.36525513650697944,7.287611701071129
27,-11.189545399944963,-5.372119115735078,-5.498495529081949,-2.1585060129328064,7.396196578044993,11.21214903983231,5.629813912260663,4.569298797598751,3.770228745349591,2.997424898431366,-7.628199379156663,3.5886378964964285,-0.5399015951777302,6.418412286983657
28,-11.448934784370525,-4.978625574177972,-5.464710839917706,-2.2451246729599137,7.351982720181535,10.266627350168461,5.126262625998054,4.784092768802632,2.7268846342969715,2.3571914456744505,-7.564076741622494,3.491668831908518,-0.7602105612196807,5.433711731152739
29,-11.720714328999946,-4.636865517347665,-5.454850908195742,-2.327627891679191,7.259511597268921,9.305266977966374,4.62330028802589,4.9718358546656525,1.6617646304193299,1.688830660700529,-7.548558151306175,3.293490799466977,-1.0169458006300485,4.3490876770359135
30,-11.989089859761252,-4.345736782550111,-5.453250003114694,-2.3964350770712426,7.132275709253569,8.338449186350132,4.124570720088754,5.121810178051977,0.5802998844112778,0.9976890227449512,-7.571741718421143,3.0110138102469555,-1.2993617144331704,3.183526713374919
31,-12.236659779665384,-4.101850354876802,-5.442394512007313,-2.441219878213868,6.985382167478326,7.376339318861571,3.6332948962764426,5.223591396975869,-0.5112358805059626,0.29023712497281245,-7.621629532294334,2.664427662268091,-1.5955584832908243,1.958788913720909
32,-12.445135225702536,-3.899737847582841,-5.403821668915879,-2.4513179931738316,6.835014291608232,6.428671848324258,3.1521943806799726,5.267493480954092,-1.6052901165618696,-0.4257032250158528,-7.6845696860361965,2.2763796925013624,-1.8928618988608292,0.698672547205741
33,-12.596101904600923,-3.7321286894920003,-5.319095444277963,-2.4161783007683035,6.697837199467591,5.504511680170915,2.6833850093299376,5.244990298123118,-2.6927290120813883,-1.1408264906963035,-7.745749565420077,1.8710569418564054,-2.178218810374867,-0.5717911186156492
34,-12.671787555397353,-3.590285693989373,-5.170806903506157,-2.3258357896440827,6.5903763921268,4.612014890026346,2.228259724854538,5.149095571686464,-3.7627151608023897,-1.8443375398781994,-7.789734058337884,1.4732169856895583,-2.4386001356149807,-1.827181521951913
35,-12.655800710456319,-3.464385538193201,-4.94354350929991,-2.1713818407909233,6.528401016988239,3.758218441452195,1.7873879257939533,4.974688844445575,-4.802779622355133,-2.5240865568835322,-7.801036929012627,1.1072149676509715,-2.6614027383562147,-3.0425393442702524
36,-12.533810584304444,-3.343929924782291,-4.624773637856586,-1.9454063298852382,6.5263432293843655,2.9488889862436847,1.360461339974054,4.718780562972834,-5.799069500583833,-3.166838597551984,-7.764706978405697,0.7960741490744545,-2.834839656892611,-4.194193282448924
37,-12.294143367471651,-3.2181727679352052,-4.20559823583044,-1.6423870822971993,6.59678172715271,2.188453696798036,0.9463117468195155,4.380712406518894,-6.736726757354317,-3.758654679979316,-7.666904853690826,0.5606429685698056,-2.948306226726089,-5.260534975722895
38,-11.928275775561799,-3.076547657550037,-3.6813299752239863,-1.2590049911075618,6.750012070085961,1.480022620149434,0.5430147438702899,3.96228935733585,-7.600341580761658,-4.285350806277575,-7.495443185144039,0.4188737411364326,-2.992708583172069,-6.222717436871426
39,-11.43121197969451,-2.9090787359224395,-3.0518706793823602,-0.7943672441390561,6.993720043774951,0.8254965857674667,0.1480792794515678,3.4678386337461187,-8.374425796578345,-4.732998085421838,-7.240263236586305,0.3852479515634167,-2.9607417424156863,-7.0652561104336895
40,-10.80173484178348,-2.706758240263408,-2.3218694556112935,-0.2501263887898431,7.332767881351025,0.22574202522633824,-0.24129114354009848,2.9041885313765246,-9.043866469509645,-5.088430298756683,-6.893825404199547,0.4703619517520902,-2.847107260917977,-7.776515749244951
41,-10.042526384567104,-2.4618757013275485,-1.500656104194525,0.36951110555120464,7.769096904162623,-0.3191929881522085,-0.6278898799050466,2.280558606100688,-9.594341311438392,-5.3397324943759745,-6.451397461819916,0.6806759720233638,-2.6486645531350983,-8.349070690889505
42,-9.160156009390375,-2.168286942129765,-0.6019565998880767,1.057886842962037,8.301743958203083,-0.8098483213968773,-1.0141810093208128,1.6083529004513415,-10.012698145059366,-5.476692443073871,-5.911231949075832,1.0184196211836558,-2.3645139751040665,-8.779930476431016
43,-8.164939186227127,-1.8216154951617816,0.3565904622773189,1.8060961997724687,8.926962756515456,-1.247130154758024,-1.4019863238510835,0.9008513704723791,-10.287313477328546,-5.4912033040349675,-5.2746313703642445,1.4816392490053352,-1.9960130375204599,-9.07062674759187
44,-7.070674338950572,-1.4193843404934208,1.354086574105855,2.6032835436663655,9.638435212747643,-1.6321141981689673,-1.7922120497689338,0.1728019569037494,-10.408446050261112,-5.377608874776464,-4.545905836669733,2.0643677536121214,-1.5467295120236835,-9.227160921134109
45,-5.894270024977153,-0.9610805698124677,2.3671571937369693,3.4370065448240976,10.427552764486046,-1.9658814113464578,-2.184633669152753,-0.5600737642493153,-10.368590132712615,-5.132981954705269,-3.732231307889188,2.756896636638839,-1.0223366200495165,-9.259814978963588
46,-4.655276732545704,-0.44815813163394164,3.3708250292943576,4.293645723672537,11.283744238164685,-2.2493873899134473,-2.5777473472547023,-1.2816370027393196,-10.162814814356606,-4.757322928620337,-2.843417138496732,3.5461330890712937,-0.4304557660984594,-9.182829341694013
47,-3.3753376928639995,0.11601631952246556,4.339431403686608,5.1588352037922585,12.19482571762804,-2.4833643798330423,-2.9686884864876597,-1.9759168031633,-9.789056954994557,-4.253662344787959,-1.8915902593678633,4.416029813610303,0.21954837710920524,-9.013952617296717
48,-2.077572612082985,0.7262711147103759,5.247567540091912,6.017892832943459,13.147349723694843,-2.6682568446259496,-3.353214162687386,-2.627686137767627,-9.248324362704848,-3.628051167118519,-0.8908026883749053,5.348079815251429,0.916816415296715,-8.773869848945793
49,-0.785908969718379,1.3757885838758637,6.070981563702717,6.856231323201216,14.126935636726579,-2.8041954143096643,-3.7257468833902223,-3.222993279365454,-8.544768046696623,-2.889427913925348,0.1434284866063728,6.321870866652538,1.6492823136536756,-8.48552080502995
50,0.4756219087925837,2.0563125915888087,6.787430525167331,7.65973624210217,15.118569737852798,-2.89101715562041,-4.079480639932602,-3.7496198200535336,-7.685599624839933,-2.049363246409059,1.1946338450681346,7.315694303759635,2.4039954163985717,-8.173328228394
51,1.6836032785940955,2.7584001062968193,7.37744970201414,8.415101265055812,16.106870430277564,-2.928340249341927,-4.406554032609779,-4.1974471068147405,-6.680857687048858,-1.1216969180580585,2.245935475750502,8.307200572602996,3.167468328322747,-7.86236536619534
52,2.8159419911373296,3.4717106511372218,7.825014403319431,9.110115709363622,17.076321241936878,-2.9156974738684873,-4.698296905255104,-4.558723777479077,-5.543055913035016,-0.12209469224704246,3.2805950223796305,9.274089820933664,3.9260401956421993,-7.5774987859622
53,3.852542058834613,4.185325768774205,8.118072893283449,9.73390342296453,18.01147994127932,-2.852726190176324,-4.945555101653641,-4.82823616543959,-4.2867666038070515,0.9324398245884795,4.282537087310243,10.194819827918769,4.66624336429723,-7.342544597261309
54,4.7759159497846655,4.888088084645564,8.248932951167001,10.277114982086974,18.897175141570898,-2.7394046665252847,-5.139092511154056,-5.003389358444684,-2.928200198265569,2.0240626096557963,5.236821079153422,11.049306600817921,5.375160723674266,-7.1794747838970805
55,5.571708094689175,5.5689467332403915,8.214489572590853,10.732076675046557,19.71870172105576,-2.5763172192556882,-5.270060825650046,-5.0842090546514624,-1.4848328417159433,3.1345651078217815,6.130040208363591,11.819587756896226,6.04076148935622,-7.107706787141598
56,6.229109417811455,6.2172947353491015,8.016288407209066,11.092900283587413,20.46202432618695,-2.364924679865935,-5.330515881920623,-5.073272868824576,0.024887338852054477,4.245807575465179,6.950634992160798,12.490418359232347,6.652205447329253,-7.143503679098454
57,6.7411488947409675,6.823285364378607,7.660428602216487,11.355557689568869,21.113995279618628,-2.1078128938047533,-5.313946781500464,-4.975575425239468,1.5817524346528393,5.340101087485724,7.689118538208588,13.049773661145759,7.200109606771784,-7.299504073402267
58,7.104856669262101,7.378117740675236,7.157317916836131,11.5179240335592,21.662589252506745,-1.808891447770805,-5.21577377408134,-4.798327076101799,3.1659479366649497,6.400540106423955,8.338219185449546,13.489240576879002,7.676774932893616,-7.584391374043118
59,7.321301672506216,7.874285583550342,6.5213004261671825,11.579792561842282,22.097151670244145,-1.4735184946964142,-5.03376739399435,-4.550684350650143,4.757184613481649,7.411293547525467,8.892950729198619,13.804286369238723,8.076372598748057,-8.002702328417774
60,7.395514287888042,8.305786663678532,5.77018239210745,11.542863450139317,22.40865192060191,-1.1085351731304387,-4.768346945949976,-4.243412675312773,6.334848550920631,8.357863274218667,9.350621560220304,13.99439789911524,8.395089310198923,-8.55476584957802
61,7.33631052446007,8.668293623077119,4.924684975386192,11.410707858290467,22.58992789190097,-0.7222033726424751,-4.422730343446574,-3.888487949591484,7.878197947368756,9.227316458342118,9.710793075603643,14.063088906695812,8.631231107156713,-9.236755687915936
62,7.156036799305249,8.959288553697553,4.007852710936143,11.188707357462569,22.63590631788255,-0.32405142397984665,-4.002925881893799,-3.498651536859743,9.366615694475604,10.00849373594204,9.975195850032263,14.017777197029186,8.785284830629658,-10.040836657491027
63,6.870252460275132,9.178162830115923,3.044443260457346,10.88396769651563,22.5437836320217,0.07535881829114857,-3.517574854729617,-3.0869409339394123,10.779905244703405,10.692189686140146,10.147609577168511,13.8695374492398,8.859935076379033,-10.955385509897807
64,6.4973607662640145,9.326279574697804,2.0603171404638805,10.505204471265564,22.313153740898798,0.46472517950093184,-2.9776678019204756,-2.666223253414708,12.098602027123754,11.271297353275935,10.233709748116746,13.632736907009953,8.860031331749306,-11.965273914412066
65,6.05818993394525,9.40698985865217,1.0818372766998934,10.062596541939747,21.946071629417986,0.8323399626215212,-2.3961645131549565,-2.2487585903717573,13.304269826120041,11.740906291997801,10.240881014314912,13.32455998646437,8.792496119225065,-13.052209676342875
66,5.575516697663553,9.425587940677735,0.13527918551899942,9.567601394510579,21.4470445000807,1.1664503984309564,-1.7875486541797407,-1.8458151387728616,14.379761487219346,12.098345219230104,10.177995145993604,12.964425384978098,8.666162408825022,-14.195140075402266
67,5.073518585344583,9.389188165982993,-0.7537546526030142,9.03272600921547,20.822944908265164,1.455632631922525,-1.167343434231163,-1.467349620063414,15.309440782075182,12.343165219181607,10.055151062215195,12.57329802329816,8.491529103325083,-15.370725720801783
68,4.577140809479084,9.306508152386758,-1.560925656154199,8.471248443097396,20.08284327506823,1.6891704364928473,-0.5516074083956586,-1.1217581033321748,16.079379773397942,12.477065527265356,9.883375880011931,12.17290046042713,8.280427831304504,-16.5538928640446
69,4.111371517592031,9.187550339927874,-2.2637611022875084,7.896890146057659,19.237761014654104,1.8574317604893813,0.043577949183609105,-0.8156956238706861,16.67755731763857,12.503769239897858,9.67428964732936,11.784836042272849,8.045602586839728,-17.718465496003763
70,3.7004346633002645,9.043186605219542,-2.842262741192297,7.3234464563106645,18.300350881021757,1.9522360114907478,0.6026221436284126,-0.5539588144871876,17.094085377126383,12.428859496668078,9.4397419585872,11.42964897941,7.800215010448086,-18.837866712431417
71,3.3669286366125015,8.884665744662954,-3.2795040851916504,6.7643903563199625,17.284517310321064,1.9672018377117668,1.1109343095480215,-0.33942432345278073,17.321478903974807,12.25958661523146,9.19143396651847,11.125861882002441,7.557299759156546,-19.885865501501822
72,3.130954873911575,8.723076369756054,-3.5621869124744183,6.232469513105325,16.204994612499057,1.898059214375414,1.555414476755027,-0.17303736938772396,17.35496442798521,12.004653040117242,8.940542102245766,10.889044226314878,7.329202927079225,-20.837334777112307
73,3.00928973673032,8.568804119632954,-3.6811215952899663,5.7393174355788945,15.076903222082494,1.7429032702857261,1.9249067753364493,-0.053848745237393005,17.19279918456937,11.67397751658885,8.697359618370045,10.730971975313574,7.127039640996761,-21.668981773682624
74,3.0146540579976957,8.431021263058575,-3.6315961859676387,5.295096759450078,13.915303682330682,1.5023642825265917,2.2105867531704253,0.02089708753885737,16.83655568873208,11.27843557566157,8.470969966462588,10.658937640544597,6.960204892981543,-22.360013146986244
75,3.155128615175854,8.31724055538602,-3.4136051960601717,4.908187752220371,12.734765709980474,1.1796713560877832,2.406253199307005,0.05561780543387982,16.291322163798938,10.829572270234998,8.268962994856029,10.675261407033574,6.835965586142391,-22.892703397567722
76,3.4337517832928808,8.23295616273726,-3.031919443902724,4.584929885345374,11.54896694004671,0.7805966464015683,2.508499970575367,0.0561887916710708,15.565777959238188,10.3392855098868,8.097201613394269,10.777038577059578,6.759152926848654,-23.252845036383015
77,3.8483202353179573,8.181384606589466,-2.4959908713896772,4.329420370428522,10.370333631302701,0.3132803886489031,2.516754401011032,0.02967839537173639,14.672121826453457,9.819483697889297,7.959643836087969,10.956139353155574,6.731964328813605,-23.43007004490216
78,4.391397930302408,8.163309568564552,-1.8196979501634754,4.143371857599661,9.209733912104783,-0.21204899336592556,2.433183503810566,-0.015970826044299568,13.625854333676408,9.281728475581337,7.858223868464957,11.19945795291262,6.753875028580111,-23.418042061508373
79,5.050525265800311,8.177027564424138,-1.020946112223213,4.026031884872156,8.076232940957311,-0.7834343045857949,2.2624841937249083,-0.0723012966219711,12.445437373753387,8.736880296412528,7.792796110864097,11.489392614919682,6.821653565713061,-23.21452526935643
80,5.808610691083363,8.218388258088732,-0.12114272664098083,3.9741680474715,6.976918494079824,-1.3875974503567714,2.011585933576368,-0.1307200145584268,11.151867427400434,8.194768958128211,7.7611466625895655,11.804527709571703,6.929473003859244,-22.821338358579332
81,6.644482053584125,8.280923626769722,0.8554323963739674,3.982123928431158,5.916804619253317,-2.010365629173991,1.689300783933494,-0.18287498821434472,9.768201035967714,7.663911373661193,7.759077051098711,12.120483587339798,7.069110633269702,-22.24420080752883
82,7.533574176666585,8.35606279962354,1.882341225267407,4.041950793813797,4.8988193368444835,-2.637092752721741,1.3059550605362982,-0.22100594542125146,8.31906101302818,7.151294539380456,7.780563676153295,12.410897538760075,7.230231089269143,-21.49247579508945
83,8.448730822892795,8.433431925879443,2.9317687012187643,4.143618678831342,3.923879139907172,-3.2530637845011254,0.8730286786848157,-0.2382522251654662,6.830134938310683,6.6622342156455785,7.817993413520017,12.648498632913995,7.400749164714654,-20.578811593296596
84,9.36110042291603,8.501238870650734,3.9753535749399833,4.27530769089125,2.9910482018023297,-3.843880579278374,0.4028152021289103,-0.22890878288183658,5.327660571812207,6.200311286977,7.8624710316656765,12.806238729763388,7.567267410801055,-19.51868339305324
85,10.241103136318474,8.546739465978009,4.985048743095154,4.423775976862148,2.0977745047691148,-4.395835029405279,-0.09189790808128206,-0.18862905701730787,3.8378824253740214,5.767379846070346,7.904188007464418,12.8584400422027,7.715579300244746,-18.32984161319986
86,11.05944086656108,8.55677484985746,5.933984667599201,4.574794903169212,1.2401894834692204,-4.896276218084543,-0.5981386461580867,-0.11457883016787042,2.386463241388592,5.363634885595257,7.9328354504731236,12.78191500618018,7.831221759720601,-17.031681439440778
87,11.788112956678685,8.518358932963649,6.797301331021571,4.713635211067653,0.4134530520902863,-5.333972405672474,-1.10306147246808,-0.0055469755134541455,0.9978435642167616,4.987723916799924,7.9380368720470145,12.557007478277209,7.900052661465461,-15.644560546789595
88,12.401391760030922,8.41928402222391,7.552907613756515,4.825581498124083,-0.3878770248723259,-5.699458285298124,-1.5942670406819957,0.1379830734368498,-0.30544064663996745,4.636886685101248,7.909771264046037,12.16849865000586,7.908821725500617,-14.18910381469735
89,12.876707980153618,8.24870495907915,8.18212554619669,4.896447930565775,-1.1694728173108937,-5.985347163687356,-2.0601275167031687,0.31380228332615817,-1.5034526169956488,4.307110777110736,7.838755901702128,11.606320946229756,7.845699949458802,-12.685540263480824
90,13.195397773684661,7.997660515521024,8.670181958348905,4.913066969456264,-1.9368803439848723,-6.186580818253371,-2.4901027800506825,0.517992621385374,-2.579514136289564,3.9932972765657304,7.716762819767719,10.86603131963061,7.700734671751134,-11.153115953356693
91,13.3432718479272,7.659495474474881,9.006520504155546,4.863725661708958,-2.6951960612771155,-6.30058959070984,-2.875024098451601,0.745003210277672,-3.5207716274616194,3.6894372932012454,7.536852079884498,9.949011281998184,7.466204071941504,-9.609618667564225
92,13.310979747553848,7.230156454849954,9.184921052008967,4.738530236970255,-3.4487877066675137,-6.327342334319906,-3.207319135758244,0.9877991214606433,-4.31861096557688,3.3888045737048302,7.293516302857838,8.862381809278874,7.1368546153190495,-8.07103854704618
93,13.094158875905007,6.70834763530672,9.203429561960832,4.529688164128641,-4.201067176190635,-6.26927816049595,-3.481156250437087,1.2380923797225762,-4.968875651510183,3.084170195237897,6.982742099784871,7.61864367541174,6.710016318497724,-6.551374915466751
94,12.69337602571201,6.095547528678488,9.064118224972423,4.231706040755137,-4.95431835191413,-6.131125830788941,-3.692495672790476,1.4866569897671573,-5.471865936485247,2.7680432651326567,6.60200356636074,6.235075559837449,6.18560296295555,-5.062584187415799
95,12.113886783056046,5.395902572213254,8.772710447113727,3.8415101621951138,-5.709577872225427,-5.919628524785083,-3.8390476800855855,1.7237196241133235,-5.832123720718405,2.4329388661803133,6.150210275719915,4.732941641856064,5.566016457375536,-3.614648744037325
96,11.36525166881146,4.616024694735898,8.338115436419983,3.3585025553670103,-6.466562820979342,-5.643199590215774,-3.9201505067400926,1.9394073603907342,-6.058031501776974,2.07167292090523,5.627636533579823,3.1365748075809132,4.855984299850946,-2.215734651623892
97,10.460854285455543,3.7647258485384514,7.771920522126763,2.7845672381806086,-7.223637438005154,-5.311538123944747,-3.9365910087533846,2.124225493111697,-6.161267814577761,1.6776825452944644,5.035858728854328,1.472408027209206,4.062363474942649,-0.8723997399487275
98,9.417365019547074,2.852721625911671,7.087885146706606,2.124039281848511,-7.97781161441286,-4.935231684469666,-3.8903967459548228,2.269533400911533,-6.156165528355497,1.245367613571456,4.37772218009802,-0.23197687209151918,3.1939408071697337,0.410185464182411
99,8.254185282632125,1.8923288153147089,6.301469567313771,1.3836439049841032,-8.724766530952087,-4.525367628913462,-3.784627408317959,2.367985581394946,-6.05901531839919,0.7704434666394512,3.6573481957609952,-1.9487261875898,2.2612489026638394,1.628033347760723
100,6.992894577895443,0.8971699688878557,5.429416022556959,0.5724058318936102,-9.45890651270441,-4.093166440949308,-3.623186729388565,2.4139081922190253,-5.8873480351036145,0.25028695905156406,2.880178382516315,-3.6504786283803137,1.276401226398058,2.7781679437975737
101,5.656709157861728,-0.11811486299912607,4.489383951772116,-0.2984777651401454,-10.17344029639669,-3.6496426817138667,-3.410665998548077,2.4035877027252393,-5.659219958334971,-0.31574928579101763,2.0530399256863388,-5.310998714953187,0.2529341623016182,3.8584894405098353
102,4.269949952368712,-1.1381592608672944,3.499627561250376,-1.215812369934418,-10.860498385972031,-3.2052937922275806,-3.1522205681878592,2.335456208536662,-5.392516898336166,-0.9260839055182937,1.1842058413845318,-6.905679296876703,-0.7943672740099499,4.867665479336617
103,2.8575113433996178,-2.147179088969741,2.4786965548516267,-2.164642213099914,-11.511294602797957,-2.769814729333247,-2.853473849846544,2.210166467842405,-5.104289049808138,-1.57674428939473,0.2834201431347064,-8.411926721157672,-1.8496869825713727,5.805033235781843
104,1.4443225851398698,-3.1293112721595784,1.4451406465629608,-3.1285570200896546,-12.116338240185316,-2.351837709021175,-2.5204400310556125,2.030557688050124,-4.810130128898444,-2.2613185463790413,-0.6381399703226833,-9.809449670804518,-2.8964607357519623,6.670495081655071
105,0.054800055503738405,-4.068987013519148,0.41720515014593446,-4.090071571000104,-12.665698206726777,-1.9587007882116159,-2.1594564900280235,1.8015193642888487,-4.523621513757291,-2.9710370014130154,-1.567985093234642,-11.080473590382859,-3.917734758471097,7.464395368614833
106,-1.2877010958457755,-4.951331575248235,-0.5874841624098492,-5.031070363704307,-13.149313136179302,-1.596254743375428,-1.7771183279400662,1.5297645238435769,-4.255871216741481,-3.6949867855160545,-2.492526171703515,-12.209897662819756,-4.896593716717237,8.187375401845545
107,-2.5614171026658825,-5.762570847916368,-1.5522380841543284,-5.933300416432962,-13.557333818919936,-1.2687221073201072,-1.3802096091025757,1.223526223199289,-4.015182228597113,-4.420450500378773,-3.397373615644696,-13.185403384653922,-5.8166351972858115,8.840215068378665
108,-3.746662780539814,-6.490417716435238,-2.4616077367519806,-6.778889128660098,-13.880479042220584,-0.9786235172744001,-0.9756283329710548,0.8921932615169698,-3.8068799629845453,-5.133348118441883,-4.267706059417144,-13.997517095950718,-6.6624557003614955,9.423678609727116
109,-4.826250904991375,-7.124410633319751,-3.3016593750107384,-7.550861979543536,-14.110384408020558,-0.7267838734509451,-0.5703042275591125,0.5459033909139677,-3.633313518593431,-5.818752221018861,-5.088684329463539,-14.63962617201894,-7.420109136125465,9.93838542887913
110,-5.785823539014516,-7.656181696238473,-4.060208185413835,-8.233636149960867,-14.239925550425033,-0.5124240580052991,-0.17110937500113257,0.19511450463524038,-3.494024225783341,-6.461441931518853,-5.845883946909302,-15.107949794905728,-8.077503095454727,10.38472429135282
111,-6.614082658392213,-8.079639592746844,-4.727004648294549,-8.813470202844096,-14.26350132691839,-0.3333343305378923,0.2152385445511359,-0.14982427424158679,-3.38605397089637,-7.046461235210716,-6.525721922470635,-15.401468410867546,-8.624708523704944,10.762822763561912
112,-7.3029165506829985,-8.391062260693559,-5.293873093843747,-9.278855982174079,-14.17726819612449,-0.18611578814418173,0.5822809767529107,-0.4790795516680611,-3.3043516025669475,-7.559652497885372,-7.115859364170085,-15.521819603711295,-9.054171859812023,11.072575384146678
113,-7.847427574850139,-8.589103654161475,-5.7548072183613765,-9.620845339511188,-13.979323158580188,-0.06646943234371741,0.923931310188065,-0.7836983098967649,-3.242232627883008,-7.988144585918153,-7.605568775345301,-15.473171107949776,-9.360832397757571,11.31372536328206
114,-8.24587410078708,-8.674726968947766,-6.106029891302058,-9.833309142327675,-13.669837669348912,0.03049006553665336,1.2345946509191663,-1.0559137185036536,-3.1918559149027623,-8.320785181070146,-7.9860616953299814,-15.262082639382596,-9.542158940519903,11.485986829553495
115,-8.499543405584191,-8.651081422182699,-6.346023628843553,-9.91312798969677,-13.251147138731422,0.10991722516463497,1.5092922811073328,-1.2893811793359145,-3.1446974217188686,-8.54851650002095,-8.250776484872103,-14.897365832999906,-9.598126463947409,11.589189335486592
116,-8.612572487341193,-8.523340350485846,-6.475534217542182,-9.860313155098224,-12.72779942915444,0.17693245261672,1.743788272538921,-1.4793398950949725,-3.092018124780776,-8.66470012112415,-8.39562650315351,-14.38994596630915,-9.531154388830762,11.623424776438894
117,-8.591730540013861,-8.298515399703112,-6.497544839605165,-9.67805344840031,-12.106561973669255,0.2363448852013925,1.934715973542297,-1.622700836447989,-3.025333972381375,-8.665397571402368,-8.419205822217524,-13.752722031752711,-9.34602364058004,11.589179208902838
118,-8.446171531261689,-7.98525629637204,-6.417213679014316,-9.372680546412555,-11.396382501600007,0.2924095777995396,2.0797014336361626,-1.718066114615314,-2.936895280781508,-8.549607818946592,-8.322944139740674,-13.000415356068272,-9.04978144095871,11.487437272000173
119,-8.187159990741014,-7.5936396757179985,-6.241766029126349,-8.95354374219644,-10.60829466966012,0.34862484875307853,2.177478099237216,-1.7656872027432269,-2.820171930000752,-8.31945257082526,-8.11119664643989,-12.14939316635677,-8.65163267640712,11.319753520600978
120,-7.827769525751964,-7.134945012897875,-5.980332884855444,-8.43278630131317,-9.755258438196769,0.40757498980503565,2.22798277254428,-1.7673703403797292,-2.670323976054643,-7.980289183747798,-7.791250606032595,-11.217453093569194,-8.16280700736602,11.088291320003801
121,-7.382552228878246,-6.621412126382094,-5.6437308920886045,-7.825019761664059,-8.851926214938935,0.47082395142175165,2.232419072815619,-1.7263370118327017,-2.4846213273766242,-7.540723173408855,-7.3732299506973495,-10.223556972029487,-7.596383943590717,10.795834729593695
122,-6.867177483462754,-6.065974145271699,-5.244182019745185,-7.146898675742838,-7.914329237605813,0.5388661496031124,2.1932736905783847,-1.6470459006359912,-2.2627658190549105,-7.012490474502841,-6.869882567409989,-9.187505973989841,-6.9670557354988905,10.445781667446195
123,-6.298040218793452,-5.481962456656484,-4.79497527889068,-6.416605405668354,-6.959483640928716,0.6111402285660357,2.1142731017951,-1.5349809562015333,-2.007066980218529,-6.4101847316374085,-6.296241597610885,-8.1295534285639,-6.290811008049704,10.042127707080365
124,-5.691841367105678,-4.882784632799309,-4.3100777940520025,-5.653261681820155,-6.004921525859291,0.6861094630013402,2.0002732731109245,-1.3964093264372042,-1.7224299847577673,-5.750816315886151,-5.669161264508439,-7.069957219717284,-5.5845301958101325,9.589448834880677
125,-5.065147012231283,-4.281580754647322,-3.803708038955367,-4.876289619051694,-5.0681588057446865,0.7614082435715456,1.8570814181845945,-1.2381137106695121,-1.4161302568913299,-5.053205339962591,-5.006738530746445,-6.028480864895947,-4.865495330140851,9.092888291478062
126,-4.433937053639859,-3.690867167558615,-3.289888490698062,-4.104748854918507,-4.166118490087494,0.8340485019896514,1.6912163391342259,-1.0671061046539367,-1.0973723272230025,-4.3372282470794525,-4.3276430455510395,-5.023860305870891,-4.150829269285288,8.558148146481914
127,-3.813158626900348,-3.1221802723518026,-2.7819973464038643,-3.3566785436796875,-3.314535056791226,0.9006738782178099,1.5096209746632503,-0.8903332546242438,-0.7766581375327962,-3.622954984315456,-3.6503881108313396,-4.073260438730794,-3.4568910467738156,7.991481745851364
