,AF3,F7,F3,FC5,T7,P7,O1,O2,P8,T8,FC6,F4,F8,AF4
0,-2.665551123082917,-4.747421328755955,-5.791968000266707,-3.0827438511127516,-1.9146555965414567,-1.441092835973293,-2.3115530326319123,-2.1993852271588312,-3.741972459182788,-5.331320532559655,-3.8415065915340803,-2.350889358701259,-6.362308213058387,-4.75841752365682
1,-2.718502170598119,-3.981545812171197,-4.77574093340656,-2.5498163973685735,-1.4940232664342947,-0.3510543761912705,-1.942750635022132,-0.3354376434675442,-1.3869543601068317,-2.8350427811220884,-2.2004448186605745,-0.4460562402136361,-4.770249411354167,-4.079065094980861
2,-2.7340794147460747,-3.2169452090590833,-3.7402303200611153,-2.0078790701410223,-1.0824706475416213,0.7356891624385734,-1.5493082768011708,1.5152430924658313,0.9438048751602082,-0.3579183159568997,-0.5489949683020001,1.4727353055110781,-3.1750828161468156,-3.382153397559408
3,-2.713391005384697,-2.4793557183627786,-2.7043966472426333,-1.4750514419398593,-0.697859879152939,1.7951486081388188,-1.1406959245795356,3.3195829521428757,3.2085890965856687,2.0604314195913225,1.0796860527419658,3.3724770935565216,-1.6043850985305126,-2.692894708387169
4,-2.658542271827078,-1.7932727475053678,-1.6871776936995655,-0.9687232856335303,-0.3569682152480947,2.8044008027083747,-0.7267469808208593,5.04606689534901,5.367651732864111,4.382091578475409,2.6533441416709747,5.220517628698966,-0.08460676751772543,-2.035752699196491
5,-2.572551839109561,-1.1809310771188892,-0.7069223499883651,-0.5048303829843809,-0.0748381667662606,3.7423477000849354,-0.3173511719965067,6.66567681736153,7.384427098210992,6.571882972551248,4.141736356192552,6.985413564848918,1.3598614141240797,-1.433398916106314
6,-2.4592678529770606,-0.6614291552483748,0.2191091239290722,-0.09723608534898229,0.13578616452269635,4.590357117397809,0.07781502426668188,8.15269122961644,9.226582327611016,8.598268892302999,5.517609464779143,8.637707650726188,2.707495610097641,-0.9058025380575367
7,-2.3232871385214073,-0.2500361237865881,1.0751606531604752,0.24275434877786137,0.26491186988036297,5.332759400297923,0.44951191329277584,9.485317185572715,10.866872898815709,10.434107065963454,6.757510895090614,10.150610286949611,3.940286860852531,-0.469494746771466
8,-2.1698780231275725,0.042292660407131984,1.8473017177095932,0.5067301272799871,0.3056202338271191,5.957185510910463,0.7891117711178078,10.646137084756912,12.283777843247085,12.057222813494768,7.842406401352074,11.50056832528347,5.044208347544129,-0.1370357492190886
9,-2.0049052806098606,0.2091795612303222,2.5236524634445145,0.6893559236018804,0.25424833547191683,6.4547431847033625,1.0887284150706393,11.622364659570632,13.461903187751364,13.450790146959443,8.758091423909036,12.66771115916108,6.00949170641458,0.08330222893540638
10,-1.8347536585917446,0.248869413344011,3.0945176726251655,0.7884002931754001,0.11042561178786148,6.820037785026675,1.3413070918593148,12.405914972641868,14.392153785838437,14.603519162817314,9.495394789427285,13.636170038625572,6.830712274472833,0.18763615211910484
11,-1.6662456615249779,0.16406783979209696,3.552439612418759,0.8046208624327554,-0.12303077627541795,7.051052647073176,1.5406821453097637,12.993302247025659,15.07168456656794,15.509658143304756,10.050182731265489,14.394271038770004,7.50669165039929,0.17636815312695794
12,-1.5065500141587804,-0.03840563134305725,3.892181822122201,0.7415204247820877,-0.4403515285270818,7.148910029629362,1.6816104918634904,13.38538664338673,15.503651948290495,16.16882570154942,10.423177854681821,14.934604973712538,8.04023277818283,0.05389452245780226
13,-1.363078594003524,-0.3481220387904679,4.110656432485714,0.6049924648994416,-0.8331658958929958,7.1175385409796545,1.7597891514368005,13.586996617274929,15.696793536173898,16.585692496302325,10.619612731485056,15.253979954492559,8.437708653178273,-0.17184715522459507
14,-1.2433701790643996,-0.7516715806065919,4.206808477044588,0.4028795698108461,-1.2909464443244258,6.963275789396031,1.7718648926609317,13.606457022874046,15.664868052773798,16.76953505998373,10.648743042088542,15.353265915434156,8.708531677988683,-0.4899601777298791
15,-1.1549586450845648,-1.2333772197444275,4.181472238835328,0.14447329526530003,-1.8015222396126997,6.69443520804894,1.7154429912547957,13.455054224302009,15.425987617598455,16.733687221629847,10.523251264843099,15.23714574775729,8.864536696915666,-0.8872602803625259
16,-1.1052221751196545,-1.7760502938871614,4.03721574585389,-0.16001204704872002,-2.3516313596109883,6.320863377112155,1.5891001188471874,13.146467964699847,15.00187204361334,16.494917453815024,10.25857743939484,14.913793251651486,8.919315478606206,-1.348990967869321
17,-1.1012099915529492,-2.3617447846139368,3.778188723850963,-0.49995799963052406,-2.9274820775176664,5.853509988106372,1.3924040947536958,12.696196509063508,14.417051505413804,16.072762439381314,9.872216269803076,14.394501636002511,8.887542283181054,-1.8595350465444807
18,-1.1494448376806154,-2.972470630198564,3.409986336934352,-0.8648215032259416,-3.5152929904992245,5.304028495442915,1.1259413856606992,12.120998218541144,13.698041725126723,15.48884740724145,9.38301889147177,13.693286435897702,8.784328648001054,-2.403077919054105
19,-1.2557026084526026,-3.5908333509548163,2.939536618426018,-1.2445492467143455,-4.101785966418352,4.684422083185156,0.7913522090185303,11.438370148370492,12.872515961092823,14.766222115788004,8.810533881428917,12.826484071940527,8.624641302423408,-2.964186287675948
20,-1.4247740656107766,-4.2005758548938195,2.3750148042319976,-1.6299079584046545,-4.674611301531442,4.006746575589916,0.3913728785466061,10.666082091882233,11.968499966683876,13.9287381157201,8.174416798696058,11.81236336415884,8.422811018579965,-3.528276686359248
21,-1.660216428011106,-4.787007301595025,1.7257839260129861,-2.012719581306986,-5.222690617302948,3.282878988096542,-0.0701148550587991,9.821781673904088,11.013617383991411,13.00048820469039,7.493931192157501,10.670762998938459,8.192152637858811,-4.081958901162251
22,-1.9641046276498142,-5.33731248947799,1.002358225190416,-2.385997789137688,-5.736468991544722,2.5243570492993115,-0.5880283366125765,8.922681602153562,10.034411405327921,12.005322380538402,6.787556345832858,9.422763085981234,7.94470736275488,-4.613248911387124
23,-2.33679389442192,-5.840743193830904,0.21638317820097372,-2.743989480158699,-6.208073734376416,1.7422903413056645,-1.1560257057456014,7.9853334603700725,9.055763311129152,10.966446127325808,6.072707638018221,8.090393184287636,7.691107460040073,-5.111655779751069
24,-2.776707793544261,-6.288700304297603,-0.6193779850822897,-3.082131907728117,-6.6313833509667,0.947337251729166,-1.7664522896703618,7.0254841839038455,8.100420798575305,9.906097883092372,5.365564578147084,6.696372639131925,7.440551609299538,-5.568157859272486
25,-3.2801685121233084,-6.674722117867494,-1.4910659594542732,-3.396942471840779,-7.002016196088703,0.149734742602496,-2.4103039314558186,6.0580036852861765,7.1886406246083,8.845295269199037,4.6809909656354165,5.263872577033193,7.200868661871085,-5.975094090437949
26,-3.8412875475808175,-6.994398711789438,-2.3837729261046476,-3.6858626088796704,-7.317253015883266,-0.6406378709985922,-3.077222967544492,5.096866955770773,6.3379424523534675,7.803635794662607,4.032523413236371,3.8162839549634646,6.978641201220019,-6.326002873019547
27,-4.451933519118055,-7.245233881791339,-3.2816329670052866,-3.9470784752411614,-7.575909774568128,-1.4141829039942198,-3.755543743667181,4.155171715499056,5.562964765919666,6.799137402074013,3.432400042282214,2.3769742467846546,6.779359017163669,-6.61544228047503
28,-5.101789268444597,-7.42647413249255,-4.167967457887354,-4.179338951992042,-7.778176419978991,-2.1615179113600003,-4.43240320483685,3.2451724950529557,4.875409752160265,5.848106210444435,2.8916007350119393,0.9690174931706211,6.6075756571742925,-6.838821814706901
29,-5.778503287720716,-7.5389188293829505,-5.025489750565304,-4.381786421183303,-7.9254342615242255,-2.87343852415645,-5.093928160817786,2.3783133653878545,4.284062499912112,4.965021899477277,2.4198741637481005,-0.38511162034216295,6.467047457192931,-6.992268596656455
30,-6.467931609510804,-7.584718076694667,-5.836564376659587,-4.553808607240566,-8.020060811180253,-3.5409256118232517,-5.725504160448274,1.5652446056647273,3.794870874801557,4.1624350314352885,2.0257351702665125,-1.6638800812344465,6.360843105112742,-7.072540409871069
31,-7.154456905632501,-7.567157401867023,-6.5835075295409755,-4.6949118425480885,-8.065227531352631,-4.155205228761159,-6.312121905194801,0.8158135991826456,3.411075364094926,3.4508755551750907,1.716427785083289,-2.847065271048605,6.291421858502545,-7.076985545631682
32,-7.8213637864297,-7.490423188168114,-7.248909670636306,-4.8046094487216235,-8.064693658098138,-4.707861713874506,-6.838787317242891,0.13902665714194606,3.1333817632904957,2.838777755250587,1.4978613039850737,-3.9161303985295057,6.2606881971951625,-7.003537724764302
33,-8.451245330296569,-7.359341295064156,-7.815959279829972,-4.8823156150551945,-8.022598297811367,-5.190996095507607,-7.290972863882602,-0.4570148822197169,2.960172619107104,2.3324327230626114,1.3745361173493544,-4.854580511948539,6.270037537931972,-6.850726635844015
34,-9.026416649208468,-7.179083751644761,-8.26874939972585,-4.927236183523917,-7.943253107678237,-5.597415251195042,-7.655082260646586,-0.9651955896915256,2.887755058343589,1.9359825900065115,1.3494802458084434,-5.648271726537186,6.320409514005676,-6.617682578799723
35,-9.529316160565722,-6.954844506121337,-8.592554713471825,-4.938252487087845,-7.830938664821379,-5.920833510290294,-7.918899159578723,-1.3794727192207976,2.910642410220567,1.6514690685349909,1.4242160538209985,-6.285650878052569,6.412361377123158,-6.304117275217394
36,-9.942882586255172,-6.691493792352396,-8.774074524950683,-4.913801026052877,-7.689708733801839,-6.1560678600213405,-8.071992933054265,-1.6949586112935022,3.02186473122905,1.4789422488441604,1.5987701342098988,-6.757912143154256,6.546165655257708,-5.910270835173437
37,-10.25090376233311,-6.39322953803438,-8.801644257905453,-4.851758396367486,-7.523207822255781,-6.299209515543088,-8.106060310403526,-1.9079921963731543,3.2132996569883088,1.4166265830909046,1.8717298275434093,-7.059068872692377,6.721926326035179,-5.436825478716403
38,-10.43834050530923,-6.06325108802586,-8.665423747498693,-4.749346349695029,-7.33450856077962,-6.347757097225267,-8.0151887164919,-2.016197693227983,3.476011074747348,1.4611327191005956,2.2403397740404016,-7.185950075726076,6.9396992664414014,-4.884798013861937
39,-10.49163359851853,-5.703483961939977,-8.357574032964651,-4.603075446544056,-7.125976429812866,-6.300699859088205,-7.796033683390527,-2.0185324043486057,3.800580015680414,1.607698244522829,2.7006239582757887,-7.138139172712938,7.199597307957118,-4.255432555554686
40,-10.399003236489193,-5.314383816726565,-7.872435013465392,-4.4087464880911975,-6.899169912916649,-6.15854380703685,-7.447907392431758,-1.91532717344329,4.177411002727106,1.850438080747404,3.247515330746948,-6.91787625645497,7.501859135902571,-3.5501191636247365
41,-10.150747438819247,-4.894842896098297,-7.206713655901184,-4.161525896885742,-6.654783901098549,-5.923279198520296,-6.972778694433366,-1.7083220266636872,4.596998907632795,2.182586350861593,3.8749773628097386,-6.529943670987479,7.84686538380372,-2.7703609310139004
42,-9.739539596428514,-4.442213187576452,-6.35968630447615,-3.85610441894885,-6.392642717187955,-5.5982941159030135,-6.375188307059933,-1.4006962564188865,5.050146493018874,2.596715837481895,4.576108536061268,-5.98154870548295,8.23509379199851,-1.9178024418212374
43,-9.160717243929337,-3.952448646351598,-5.333409798890042,-3.486938913644161,-6.1117462379958925,-5.18824416474203,-5.6620868719595725,-0.9970879175132231,5.5281302814965985,3.0849276288849885,5.3432287830343315,-5.282207989890247,8.667015694316314,-0.9943196954564184
44,-8.412546831849506,-3.4203566728870265,-4.132926549471662,-3.0485664965299977,-5.81036850416908,-4.698891466223913,-4.842607341833941,-0.5035937590273889,6.022820067632924,3.6390101992125246,6.167953489555591,-4.443628193696386,9.142945583630244,-0.0021595904760229392
45,-7.496444853842094,-2.8399391515916346,-2.7664411852878175,-2.5359712460193187,-5.4862037733794216,-4.136926760282755,-3.927785787669421,0.07226153298585915,6.526762621654787,4.250571722628383,7.041264506953258,-3.479569974210292,9.662862074272862,1.0558908193692282
46,-6.417135081001449,-2.2047973192938874,-1.2454429295875047,-1.9449775956283957,-5.136551199675238,-3.509787591732987,-2.930245842250269,0.72159701122669,7.033241003221867,4.911150741575675,7.9535885287903705,-2.4056792035908496,10.22622117762569,2.1763276500382087
47,-5.182724387060421,-1.508572540718895,0.41525127631630165,-1.272641569805765,-4.75852676344915,-2.8254840194384827,-1.863861696045679,1.434294119955816,7.536317436559913,5.612308950816331,8.894891373447066,-1.2392716244553783,10.831781523632166,3.3547668890827795
48,-3.8046845658179116,-0.7453957296810592,2.1975537422680427,-0.5176109430316447,-4.349289779419612,-2.092441090333554,-0.7434131902036011,2.1991620958584863,8.030861919717346,6.345707444273136,9.854792693641995,0.0009373733400597296,11.477457038605827,4.585811568081881
49,-2.2977335256220575,0.08967939300317296,4.080277753096874,0.31957180712531075,-3.9062711578529163,-1.319364430184641,0.415755339563117,3.004143564981608,8.512563534803919,7.103166076321757,10.822700503991555,1.2951592948269532,12.160206955710239,5.862961701189036
50,-0.6796153736750447,1.0002804108389445,6.039431375991051,1.236244603968535,-3.427391453868299,-0.5151319563226077,1.5980629458287103,3.83654946102085,8.97791901813071,7.8767056992320885,11.787960070115624,2.622910156705554,12.875967169684486,7.178573682431438
51,1.0292153984658454,1.988374407421692,8.048632734788734,2.227492930305211,-2.911258424716589,0.31128892659155605,2.7879994798648666,4.683310844585969,9.424193718316527,8.658574396411387,12.740007966564473,3.963428057587385,13.619622022142844,8.523870048489362
52,2.8059953947866636,3.053991973731121,10.079637997192375,3.286115480098603,-2.3573360474066214,1.1509029989585924,3.970407511910941,5.53123552756772,9.849351729696894,9.441259401483507,13.668519541521174,5.2961146301422035,14.385012342350471,9.888995706150572
53,4.626125464956429,4.1950243870661135,12.102965896277423,4.402687469119623,-1.7660792075054883,1.9947353109090609,5.130735463919149,6.367258280151312,10.251953068365447,10.217485003166168,14.563537026102578,6.600980921759023,15.164974263401305,11.263114122012798
54,6.463700143167102,5.407098983255678,14.088597348375725,5.565715277503902,-1.139029818688715,2.833875255950619,6.25526025046447,7.178674638961993,10.631017041311608,10.980195106727665,15.415567605733978,7.859077946449388,15.951404332315532,12.634537405988409
55,8.292079489384658,6.683537702020532,16.00672657020869,6.761873493651116,-0.4788706377492196,3.6595267116924854,7.331279705230964,7.953350761028951,10.985854747214317,11.722520374466425,16.21564717649605,9.052895911864923,16.735349932055964,13.990887620320112
56,10.084492869329678,8.015404733643454,17.828540598956895,7.976315417199222,0.2105669184518877,4.46307309209033,8.347277295646837,8.679905765385287,11.315880763641518,12.437735055355132,16.95537532986114,10.16672302415038,17.507129296682148,15.319291852708103
57,11.81466773684524,9.39164931161545,19.52700575673483,9.193049210719558,0.924344038480019,5.236163083201673,9.293063407789608,9.347867592739904,11.620422266279485,13.11921541783064,17.62693729909807,11.186962333053312,18.25649055652876,16.60661863986646
58,13.457478108057735,10.799347414142858,21.07764049822355,10.395372331082672,1.6565061425512657,5.970818110376744,10.159898087124752,9.947806754256987,11.898548826968813,13.760416125369975,18.223135394443894,12.102410473324273,18.972821695852062,17.83976569225445
59,14.989605186209003,12.224040277578197,22.45925279117395,11.56635503744707,2.4002231353650467,6.659556919113362,10.940599018037524,10.471453167640403,12.148944515747555,14.354879974266284,18.737452902877287,12.904503190166869,19.645420677842097,19.006006074303595
60,16.390195536703477,13.65015809205328,23.654616450047016,12.689359086452901,3.1479726666734638,7.295527367379304,11.62963569948831,10.911799725941309,12.369835763642005,14.896290006402028,19.164166784827373,13.587528529851518,20.26382678393733,20.09339104662855
61,17.64149158468857,15.061505844083658,24.65105569617265,13.748571081488985,3.891756616033435,7.872632253091158,12.22320694678097,11.263193293560095,12.5589773770466,15.378563649586036,19.49851358526517,14.148800741189186,20.818202403726644,21.091194190941657
62,18.72939851742198,16.441778338647005,25.440902581160298,14.729523519457041,4.623337658888968,8.385635906249002,12.719295313346182,11.521410587902254,12.71368971064969,15.795979886159127,19.73689926410554,14.588778967164695,21.29974232054747,21.99036677278587
63,19.64394525741066,17.775066510176714,26.02179042039553,15.61957307008078,5.33448170696296,8.83024142437953,13.117690185058525,11.68371418584287,12.830935225792668,16.14332573258294,19.877132193970052,14.91110830352543,21.7010782207115,22.783962924032764
64,20.379598124974247,19.046319212239727,26.396750504134403,16.40830677487361,6.017194090379984,9.203133812504372,13.419971787055525,11.748883900266655,12.907422832688876,16.4160487636509,19.918652547281773,15.122559973273843,22.016642513651885,23.467488903905924
65,20.935394284796715,20.241732807602165,26.57408951415105,17.087852171969526,6.663941542697031,9.501990245742213,13.62945033112116,11.717220892672392,12.939731582297432,16.610406154876372,19.86273096939051,15.232852882818458,22.24295868308187,24.039134936092857
66,21.31487544236758,21.34905150573924,26.567039068019906,17.65307460834557,7.267855835581946,9.72546332480019,13.751056526573613,11.59052430061122,12.924448503055178,16.723604058625618,19.71261221219213,15.254348216606854,22.378833440857726,24.499859337503835
67,21.525817284938423,22.357770788904155,26.393183744137357,18.101652160987637,7.822916232363243,9.873145232295323,13.791181172433271,11.372041019510187,12.858316746830793,16.75392183515414,19.47358283319857,15.201618704927826,22.425435351383072,24.853309343042167
68,21.57976499941308,23.259243013369385,26.073688363533964,18.434025138995615,8.324106789550669,9.945520265248971,13.757463358743514,11.066388704105684,12.738389733369466,16.700814438510623,19.15294601848902,15.090903168837569,22.386252935240794,25.10557814625878
69,21.491399278116926,24.046689431896798,25.632359021489854,18.653223745875813,8.767542629141921,9.943911480323795,13.65852980116413,10.679451868869602,12.562185711720282,16.564985096168755,18.75989210299422,14.939465040060195,22.266932465754685,25.2648117500173
70,21.27776981116236,24.715127992794038,25.094584800288512,18.764584707856926,9.150558352608426,9.870424849068911,13.503691840546015,10.218252437231351,12.327835808632079,16.348420369007815,18.305260670310197,14.764881190285733,22.07500251111031,25.340691409434868
71,20.957442965507326,25.26123162423561,24.486216832345875,18.775375152514577,9.471752411205532,9.727891435020625,13.3026106649318,9.690798505638437,12.03421731822501,16.054380580227093,17.80119856689801,14.58429448388962,21.819498852403665,25.343826768806796
72,20.549616080418797,25.683136597976343,23.832447098798013,18.694348729704878,9.730983331115471,9.51980527221058,13.064944625727282,9.105916902554139,11.681063055377384,15.687340366034782,17.260727222186237,14.413669446046171,21.510509400076845,25.28510089198593
73,20.07325242289188,25.98022416246755,23.156750408730915,18.531263816161267,9.92931688411067,9.250253125784766,12.799995261806552,8.473075786628328,11.26903823355331,15.25287744808423,16.697241914385298,14.267094350187966,21.15866409680916,25.175011802632294
74,19.546288447667834,26.152900025374358,22.479949112080927,18.296395671819056,10.068927127146296,8.92383287831484,12.516371106286101,7.802203470825205,10.799779617441292,14.757513295577503,16.123973914715293,14.156173390766526,20.77459938443099,25.023055957657483
75,18.984958320072966,26.20239446758196,21.819451042210524,18.000072968693104,10.152957982629959,8.545559487789516,12.221689768075198,7.103509020052671,10.275896870749639,14.208516074874938,15.553451725490982,14.0895478599505,20.368429581123795,24.837196152808907
76,18.403269581560565,26.130600693776906,21.18869718713404,17.65226424100729,10.185354875857122,8.120760303251771,11.922337453980528,6.387308521184041,9.70094029226788,13.613681196791802,14.996997884520223,14.072574766904516,19.94925685329242,24.62344860698253
77,17.812649300835478,25.939961472841734,20.59683788216632,17.26223235059461,10.170677295405754,7.654964145379035,11.623300087488696,5.6638581763663485,9.079340101900327,12.981105134534637,14.464292354966972,14.107176291418947,19.524746585338804,24.385611686629385
78,17.221764038644185,25.633405618098394,20.04863732716066,16.838266355490493,10.113902884728434,7.1537904809288495,11.328072502696465,4.9431923582647626,8.416320480962758,12.318964029113038,13.963023708321392,14.19185670415716,19.10078678341125,24.125143687413868
79,16.636501620099192,25.214327462558085,19.544588823662654,16.387491563251025,10.020232016218605,6.6228458780680235,11.038643938820456,4.234962742636966,7.717789275183212,11.635302537197829,13.498637773205541,14.321868141285755,18.681240688908446,23.841181773985774
80,16.06008968709874,24.68659500473361,19.08120934900961,15.9157509882696,9.894898917884658,6.067634440523025,10.755550864332541,3.5482743587223764,6.990203790335053,10.937833261530734,13.074182502786629,14.489495124236813,18.267792814073317,23.53068099421879
81,15.493316766287933,24.05456697817811,18.651472931084584,15.4275455855363,9.742991835841517,5.493487448891251,10.477983095587186,2.8915158793028315,6.240414946313032,10.233744699784493,12.690239257456904,14.684421306794718,17.859881583264237,23.188643293443512
82,14.934818004515579,23.323097363609893,18.245338596031214,14.926017555491326,9.569281954814489,4.9055159671034785,10.203927394144156,2.2721843899206347,5.4754957288482276,9.529516748435809,12.344926421278945,14.894141809434258,17.454708236647665,22.80840340609361
83,14.381391103203462,22.497509077302883,17.85033113101314,14.412961968851674,9.378060677007483,4.308589070393924,9.930334788401188,1.6967088425262342,4.70256423102905,8.830746876865456,12.033962561401799,15.104391024750973,17.047312525282553,22.38194213795245
84,13.82831725669795,21.583526352813795,17.45214068619802,13.888856911751748,9.172987602898582,3.7073388242847334,9.653302396560925,1.170280732849699,3.9286145364111604,8.141994864105158,11.750781918231477,15.299566939500789,16.630709731262247,21.900206501699365
85,13.269673555778715,20.587165419330308,17.03521749171058,13.352909106856814,8.956955223431953,3.106190374947955,9.368264702510732,0.6967040738063492,3.1603682518998815,7.466656686445804,11.486701249982234,15.463144724401417,16.196087696932253,21.35342719276783
86,12.698633491314247,19.514592530927235,16.58334760335839,12.803117626750522,8.731978506806296,2.5094117700937044,9.070191052118775,0.2782781779269251,2.4041553485249554,6.8068775462082245,11.231140731986658,15.578080836324846,15.733064480472942,20.731433578522484
87,12.107758604412926,18.371965172757857,16.08020302577288,12.23636149131591,8.499117432073401,1.9211745604463326,8.753785763612564,-0.08427446855097774,1.66582671462485,6.16351102681506,10.97190193896487,15.627212814848185,15.230006558590311,20.023972461815973
88,11.489286681843627,17.165275795618555,15.509864565723126,11.648518028963018,8.258439019391682,1.3456139785064072,8.413686119688487,-0.391826316306216,0.9506946220878056,5.536127603905343,10.695503953932196,15.593660292250451,14.674404878614494,19.22103852414333
89,10.835421250167864,15.900217890800525,14.857318513755423,11.034618467217506,8.009023582346316,0.7868769801840185,8.044652788760038,-0.6468043637186085,0.2634926134893115,4.923072199217065,10.38757549346748,15.461231039876331,14.053302187885897,18.31322200197629
90,10.138624962663322,14.582091737600706,14.108928912024554,10.389045239405718,7.749017899376121,0.24914733417107038,7.641747322648933,-0.8530914643017016,-0.39165614205402643,4.32156737676842,10.033297083385587,15.214832979359915,13.353760538650306,17.292074202357913
91,9.391916970308252,13.215762195103556,13.252886041016993,9.705772249002449,7.475735626224035,-0.26336102935892597,7.200492443572502,-1.0158736574304794,-1.0112725110935612,3.7278567390199013,9.617883028936133,14.84088927285791,12.563353701295387,16.15048561170888
92,8.589172027101968,11.805674751570557,12.279629285907705,8.978645938431999,7.18580288663859,-0.7464477350749784,6.717013008525904,-1.1414405476118752,-1.592563565957247,3.137382996615158,9.127088869051956,14.3277494129173,11.67066658098455,14.883065984760663
93,7.725416598835385,10.355929887327582,11.182238969877513,8.201701940528766,6.875344914342509,-1.1960069595705725,6.188158538562509,-1.2369468682054923,-2.1334730569438802,2.544996587583796,8.547727044638322,13.666085430044799,10.665783025279937,13.486511720549764
94,6.797114021554493,8.870409950248197,9.956787180402783,7.369508551603044,6.540207661914434,-1.6081399101143785,5.611610980333862,-1.3101438411348922,-2.6327333306592293,1.9451913864944124,7.868172101320373,12.84925940908663,9.540744168146876,11.95994333850839
95,5.802427142965414,7.3529474629531375,8.602632918422588,6.4775239306136525,6.1762060975688895,-1.9792874877007236,4.985982767120283,-1.3690897122136056,-3.0899077913419517,1.332362659011855,7.078836951089312,11.873646818850283,8.289961325541576,10.305195206591728
96,4.741444487398051,5.807520053754173,7.1226439344321575,5.522450021159357,5.779388512260411,-2.306368172916373,4.310909912856697,-1.421849792035531,-3.50541182946598,0.7010804899171224,6.172603625524594,10.738900283758623,6.910570669644726,8.5270412505555
97,3.616356194510391,4.238455805392972,5.523327971724699,4.50256416205102,5.346303968305064,-2.58690514209032,3.5871431638178723,-1.4761968600660937,-3.880500786225945,0.04637158605795172,5.145195463313833,9.448140735947652,5.402721452245033,6.633344210692404
98,2.431568611438079,2.65063355724438,3.8148598810555336,3.418009614479587,4.874258664272828,-2.8191285335419694,2.816637454363546,-1.539322715459982,-4.217215760714291,-0.63599659904304,3.9954818104774428,8.008067021298523,3.7697943964640146,4.635121094257622
99,1.193750091528261,1.0496648835513138,2.0109969287035416,2.271028371890953,4.361547003160408,-3.0020436109,2.002636203007017,-1.6175712367146067,-4.518282390994012,-1.3492351152121649,2.72570946814728,6.428979896019105,2.018550499051566,2.54652204939911
100,-0.08819605061252021,-0.5579525851192471,0.128880942759773,1.0661229471867548,3.8076446419788486,-3.1354626404559602,1.149742829243022,-1.7162027596906508,-4.7869636827518685,-2.0952633826867766,1.341656443893274,4.724720556629556,0.159212027641517,0.38472286682225526
101,-1.403232700155595,-2.164717648652225,-1.811268376986937,-0.18986209163493112,3.2133536248576915,-3.220005719291985,0.26396829544912087,-1.8391988401439137,-5.026873898295947,-2.874459614701963,-0.14729622005073392,2.9125265993813576,-1.7945227610532288,-1.8302666119072797
102,-2.7383626919744244,-3.762047708415395,-3.7865597394056696,-1.4877431358224749,2.580893676174523,-3.2570809798542477,-0.6472583109286713,-1.989115287156501,-5.241765135272201,-3.6854438151215807,-1.7281782276177269,1.012809994272528,-3.8255308684884914,-4.075873197074544
103,-4.078870288566339,-5.340241194346404,-5.77192245430644,-2.816083670313411,1.9139382067262074,-3.2488559583067467,-1.5751283654239305,-2.1669896067454055,-5.435301341344953,-4.524905654587364,-3.3845317573957594,-0.9511370496759222,-5.9133830139277235,-6.327301885156163
104,-5.408622370671904,-6.888478286023537,-7.740667364234296,-4.161356771417235,1.2175972534543458,-3.1982296105154675,-2.509550532320008,-2.372306856567728,-5.610836443513607,-5.387488431040961,-5.096602281249638,-2.9535020493475894,-8.034532511528036,-8.557938259150232
105,-6.710419708338524,-8.394857590632125,-9.665097859254072,-5.508174048009207,0.4983514137138851,-3.1088096284087197,-3.439310408420602,-2.603025602248674,-5.771213867808318,-6.265739333512268,-6.841619735534781,-4.966373403988577,-10.162580578172447,-10.739803476061965
106,-7.96638904844732,-9.846468897904778,-11.517153204444275,-6.839570930002923,-0.23605897632751008,-2.984893674678386,-4.352292813309169,-2.8556631246304303,-5.9186032982521075,-7.150136281383624,-8.594172689974252,-6.9602217368967665,-12.268627775078388,-12.844057580500085
107,-9.158408407005178,-11.229506698431232,-13.269068810281613,-8.137340674119379,-0.9767857897831386,-2.8314473957181123,-5.235762299733722,-3.125436310688935,-6.054386800656283,-8.029202172429404,-10.326679732280084,-8.904444462781218,-14.321724954880201,-14.84155058786004
108,-10.268559856109942,-12.529434181492146,-14.894040793808971,-9.38241366667591,-1.714063442576368,-2.654068192909784,-6.076694191956966,-3.4064524742171614,-6.179101538295281,-8.889716912487893,-12.009962981752125,-10.767979091656699,-16.289439007491143,-16.70342252925169
109,-11.279604860334734,-13.731210684502196,-16.366884209431927,-10.555282775721423,-2.4374356928600514,-2.4589228784372543,-6.862145968292753,-3.691943360570494,-6.292442203074918,-9.717034447058,-13.613927286597834,-12.519989695548439,-18.138546403127673,-18.401752890456955
110,-12.175475188377892,-14.819594603997253,-17.66467470315698,-11.636476975712922,-3.1360170872721747,-2.252649529080505,-7.579656049909671,-3.9745352680398205,-6.393323807124928,-10.495505311579976,-15.108343621441948,-14.130624757754074,-19.835858680540348,-19.91025581874916
111,-12.941767361158101,-15.779527596412317,-18.767361566196332,-12.607082670550817,-3.798786022992642,-2.042218029293825,-8.21765355843415,-4.246547315928201,-6.480003335027116,-11.2089958372599,-16.463725664368415,-15.571833705280952,-21.349168873885926,-21.20500979260232
112,-13.566222598554448,-16.59659624511689,-19.658336842536134,-13.449306105961215,-4.41490403004158,-1.8347486981927226,-8.765859496570469,-4.500307852489759,-6.550254931340108,-11.841485301703068,-17.652275835545737,-16.818216692851173,-22.64829035463801,-22.265200790756737
113,-14.039169816063978,-17.257557275214594,-20.324941586237355,-14.1470631718076,-4.974052968079459,-1.6372931190727495,-9.21565857947017,-4.7284761036636835,-6.601586886486376,-12.37771377334322,-18.648864024717902,-17.84787103805453,-23.70614453414024,-23.07384898884826
114,-14.353907317634697,-17.75090363031566,-20.758887796204696,-14.686576033087741,-5.466778694772743,-1.4565851916653223,-9.560421724320493,-4.9243528549735425,-6.6314803720075925,-12.80384665560469,-19.431991496787724,-18.64319006707565,-24.499843631066206,-23.618482258065526
115,-14.506999296070024,-18.067441660597616,-20.956573945998816,-15.056949954564402,-5.884826609285033,-1.2987731934268718,-9.795761193340235,-5.08216108163653,-6.637621967515635,-13.108117218232461,-19.984685961257618,-19.191566825180747,-25.011709038775436,-23.89171597227897
116,-14.498466266629302,-18.200844949799937,-20.919273978273093,-15.250699384087081,-6.221452100552221,-1.1691456159906275,-9.91970336464152,-5.197276655640661,-6.618098475989288,-13.281406761044286,-20.295272751814686,-19.485956624889802,-25.230164381502213,-23.89169906941076
117,-14.331854478829694,-18.148149045401805,-20.65318410765053,-15.26419103833045,-6.471688493761263,-1.0718654522832771,-9.93276855936197,-5.266392133820433,-6.571527265894701,-13.31772500488091,-20.35797190182197,-19.52525881021325,-25.150445668025824,-23.622392245694332
118,-14.01417762618744,-17.91015356352743,-20.169318105812177,-15.097973636132892,-6.632557008499469,-1.0097296929506605,-9.8379533791088,-5.287603273393644,-6.497108841544002,-13.214561331703814,-20.173280856820217,-19.314488536768252,-24.775079239807386,-23.09365485404129
119,-13.55573300529544,-17.4917022504459,-19.483248925001494,-14.756968165520146,-6.703206709429841,-0.9839724534190241,-9.64061776219042,-5.260416689314784,-6.3946059038630105,-12.973088780530645,-19.748115624183527,-18.864722053613196,-24.114090261261307,-22.321129246790715
120,-12.969801630018601,-16.90181617263903,-18.614701554542403,-14.250498271813639,-6.684976236411426,-0.9941303941218593,-9.348285160162222,-5.185685544277567,-6.26426800760535,-12.598213750277429,-19.09569696571625,-18.192812056050798,-23.18491853996529,-21.325921645978728
121,-12.272246818383763,-16.153660419745712,-17.587008339044875,-13.592147316875028,-6.581372743118382,-1.0379872678333455,-8.970368967043672,-5.065486574554309,-6.106728656539349,-12.09847260419498,-18.23518163723603,-17.320882026415816,-22.012033446002288,-20.13408639179695
122,-11.48102895071374,-15.264331501566655,-16.426443669794008,-12.79943681698978,-6.3979672420080345,-1.1116106629810683,-8.517841492314126,-4.902955668156279,-5.9229021238888455,-11.485781919816432,-17.19105191577375,-16.275619717285558,-20.626255063989724,-18.77592683517484
123,-10.615656241578138,-14.254461360776084,-15.161460189354337,-11.89332988912919,-6.142209695953937,-1.2094888467440854,-8.002863616153046,-4.702100751460296,-5.713902609343185,-10.77505340184791,-15.992289475599982,-15.087399634307843,-19.063803379177948,-17.285132221454127
124,-9.696592704077645,-13.147644112801334,-13.821853135133663,-10.89757252006278,-5.823171354226502,-1.3247692725168803,-7.43839372135584,-4.46760960399333,-5.481000662346926,-9.983688124588419,-14.671370249158928,-13.789271706817406,-17.365109833891083,-15.697775876349501
125,-8.7446449239757,-11.969702541484558,-12.437882563324486,-9.837894646879162,-5.451225401866668,-1.4495927383693228,-6.837793224780641,-4.204666308448143,-5.225622747237102,-9.130968041853501,-13.263123772033804,-12.415857833025152,-15.573435632769813,-14.051206054886253
126,-7.7803489795529845,-10.747822498007247,-11.039384797399379,-8.741102040127661,-5.037679748767893,-1.5755086608783928,-6.2144432517317805,-3.9187846020094965,-4.949391176300911,-8.237366654021733,-11.803504537586614,-11.002200275689365,-13.733350173058781,-12.382867348019612
127,-6.823378295957392,-9.50959416114285,-9.654905071215548,-7.634098603991723,-4.594377867273915,-1.6939483438762195,-5.5813837400171185,-3.6156613097102612,-4.6541949259353235,-7.323806218565256,-10.328326016915275,-9.582607042504222,-11.889132616368624,-10.729097547671708
