,AF3,F7,F3,FC5,T7,P7,O1,O2,P8,T8,FC6,F4,F8,AF4
0,14.227631311093715,2.4562649158726795,0.5515265786942464,-1.880337604836045,5.412818415592429,6.192812627015894,-3.843774928354237,0.7878347397592889,0.458171637629349,1.124362906791429,0.6044850641874411,1.2703637770769456,0.6729182679167848,9.96931638529166
1,13.761066667887679,1.3057815748729364,0.38258637511951993,-2.0147677226203524,5.448491920883096,5.8101111212911105,-4.000143308221419,1.458584362096513,0.5651219707050483,-1.1976419142951,-0.7932400163548011,-0.2539705141037769,-1.4493291546913916,8.674804413556695
2,13.300237837592132,0.15300974011709664,0.2206583490895893,-2.1523090538642484,5.484702662081884,5.435842334888516,-4.155812686361337,2.132311463243579,0.6790682922083064,-3.497938787148832,-2.153258173913458,-1.7380540836160152,-3.5511923963798497,7.41209973199449
3,12.86017289953369,-0.9958506985203354,0.06802223473051737,-2.290749213494794,5.508179548424696,5.064172230736743,-4.313649932013315,2.7940457119125743,0.7972298929099341,-5.75021518666329,-3.447983031009661,-3.151351978856716,-5.607682620320706,6.201721470859054
4,12.455571159473397,-2.1342131780386233,-0.07330920276486982,-2.4275949401257364,5.50614568595906,4.68930309112029,-4.476055592675949,3.429280496809065,0.9167656917308032,-7.929127013081722,-4.651563450861273,-4.465441117833785,-7.594890855584003,5.062804790233906
5,12.100313601244787,-3.255126068423271,-0.20162502376905314,-2.560057887621446,5.466685417345984,4.305692430896321,-4.644635070847372,4.024531380210161,1.0349545662434965,-10.01087706934373,-5.740613095033088,-5.654876860319341,-9.490617101309727,4.012528267921907
6,11.806963857949762,-4.351333919298812,-0.31554335422214674,-2.685073770957943,5.379058711522055,3.908247437363663,-4.819931490893598,4.567794773766212,1.149322955510561,-11.973781512820356,-6.694881125069699,-6.697958408771716,-11.274937533825874,3.065591639424901
7,11.586274011927676,-5.415381302000857,-0.41403090505214896,-2.799357685886247,5.233953091892398,3.492490632104461,-5.0012357760455375,5.048892445594916,1.2577180043347098,-13.798805696312307,-7.497841334119852,-7.5773649695772285,-12.930687604438264,2.2337633722905625
8,11.446709513114946,-6.439758926527866,-0.49641504454267366,-2.8994948817716093,5.023666901130917,3.0546937884205443,-5.1864828937436345,5.459700778011955,1.3583334447557918,-15.47004598749835,-8.137179209071407,-8.280642112975988,-14.443841823587585,1.5255144133377072
9,11.394007272504457,-7.41708804005888,-0.562388814321478,-2.9820627480627255,4.74222175541815,2.591978148763846,-5.372236185026036,5.794274498540377,1.4497016853921703,-16.97513130866736,-8.605158972386766,-8.800525886294489,-15.803774918245347,0.9457506130768396
10,11.430781848551746,-8.340334821487495,-0.6120091717085987,-3.0437760323171608,4.385406371931247,2.1023799446324984,-5.553754805672158,6.048882333969136,1.530669358448248,-18.305517499524292,-8.89885420122841,-9.135099168516271,-17.003393052540705,0.49565326036283125
11,11.556196776714556,-9.203042018618605,-0.6456884510644272,-3.0816436529890643,3.95075809514397,1.5848811127751679,-5.725133894346494,6.22197542691763,1.6003739480740071,-19.456650318384586,-9.020227049735613,-9.287779685210582,-18.039128483852366,0.17263508027651622
12,11.765720225283468,-9.99956166309559,-0.6641785884256134,-3.0931227441521867,3.4374919580554977,1.0394059036633572,-5.879503988441022,6.31410765921418,1.658234942866956,-20.427980368712188,-8.97604451177801,-9.267142445199905,-18.91079750740602,-0.02958324994249499
13,12.050984326569466,-10.725271740492655,-0.6685472572989728,-3.076254949228143,2.8463894446773828,0.4667847768312276,-6.009275163745206,6.3278212714362185,1.7039647187285807,-21.222825439905023,-8.777627031230264,-9.0865824458868,-19.621330282185582,-0.12077515750900943
14,12.399764832200237,-11.37676152363705,-0.6601451554936332,-3.0297721965464324,2.1796598471073514,-0.13131228927976993,-6.106411584866844,6.2675039666012795,1.737594941226433,-21.848090244599987,-8.4404345845593,-8.763827363598423,-20.176391007613255,-0.11389407740524957
15,12.796093116069333,-11.951973732464737,-0.6405644998318493,-2.9531635187019023,1.440786475730976,-0.7524697143028488,-6.162722944245392,6.139218037139846,1.7595075371094298,-22.31386612072572,-7.983505525357255,-8.320314318079456,-20.58391513487892,-0.024654652310464868
16,13.220507476082727,-12.450295131596752,-0.6115899839353617,-2.846699060012829,0.6343685738057544,-1.3936420498762483,-6.170160189790663,5.9504998927938955,1.7704576171628041,-22.632940208932535,-7.428770956980152,-7.780448647429209,-20.853593991087376,0.12897568473205726
17,13.65044562103241,-12.872589920362898,-0.5751443850431943,-2.711410982304038,-0.23403226003985897,-2.0512837491571347,-6.1211037831742106,5.710129675569487,1.7715787512753407,-22.820244077009875,-6.800271087109894,-7.170765589966361,-20.996335827251972,0.32735894909093305
18,14.06077461009735,-13.221172957310984,-0.5332313156188276,-2.5490337965681724,-1.1580351392767965,-2.7214835241351336,-6.008633537239314,5.42787400183512,1.7643664488188642,-22.89226800857017,-6.123301369648797,-6.519018508365504,-21.02372809755189,0.5498269495610978
19,14.424447809200892,-13.499723513436843,-0.4878774270402933,-2.36190950871556,-2.1305694744225243,-3.4000933913387965,-5.8267699287096635,5.1142088573566555,1.7506413493730169,-22.866462270779863,-5.423517454184989,-5.853220569168188,-20.94752161636882,0.775362491897354
20,14.713270776991815,-13.713144948965805,-0.44107599425293337,-2.1528659265204357,-3.1439903710582526,-4.082843039338436,-5.570677623260607,4.780033377404557,1.7324980846951186,-22.760642647951165,-4.726030100575663,-5.200670646110933,-20.779154556808113,0.9833004778021629
21,14.898749989344886,-13.867380623461193,-0.39473345720822556,-1.9250790472224188,-4.190180361395635,-4.765431563908493,-5.236823024610778,4.436387517386872,1.7122479434080848,-22.59241555071178,-4.05452412898121,-4.5869981423922495,-20.52933315970607,1.1540231120880682
22,14.95299084613676,-13.96920062209959,-0.3506202333060627,-1.681932289962997,-5.260638853147077,-5.4435913198408485,-4.823079877408956,4.0941858645831095,1.6923623493566213,-22.37863857806053,-3.4304384020636918,-4.035264801251561,-20.20768626013176,1.2696189515038445
23,14.849606167660596,-14.025976400742465,-0.3103269431824986,-1.426885886620333,-6.346561648720664,-6.113122751539248,-4.328781073348867,3.7639754090287654,1.6754199503808391,-22.13493432045718,-2.872245155157575,-3.5651633303467,-19.822511059489333,1.3144731179355074
24,14.56459575648526,-14.045459411046261,-0.27522714464921205,-1.1633678044512055,-7.4389134464016236,-6.769903734550148,-3.7547201249988436,3.4557186537769704,1.664055057595352,-21.875275624582784,-2.3948643451544083,-3.192350970690645,-19.3806250677649,1.2757579314324594
25,14.077162717488715,-14.035574314034042,-0.24644776805968796,-0.8946925865303271,-8.528495679158599,-7.4098808913879175,-3.1031104429618033,3.1785981537574624,1.6609021474700274,-21.61165730539364,-2.0092407743957557,-2.9279495457047044,-18.887331608956075,1.143800809241208
26,13.37044123030842,-14.004229510702793,-0.224848523598321,-0.6240080173822317,-9.606010650152975,-8.029052772201434,-2.377513365562792,2.940836560274112,1.6685312594229655,-21.353862631733822,-1.7220998274054296,-2.7782326940864306,-18.346495162072245,0.9123178678742957
27,12.432119490630367,-13.959141109947167,-0.21101130383488453,-0.3542643329918378,-10.662121983584127,-8.623455711201709,-1.582746881432473,2.749527439007575,1.6893714960118669,-21.10932491825076,-1.535884592748097,-2.7445085801144216,-17.76071197233579,0.5785133848756447
28,11.254947526645442,-13.907663708871848,-0.20523989304972118,-0.0881984622339568,-11.687512097316638,-9.18916284676438,-0.7247864320384697,2.6104754460990685,1.725623259635552,-20.88307760908209,-1.448865320028656,-2.823195102190416,-17.131553572975708,0.14305403177372109
29,9.837121875996628,-13.85662265713456,-0.20756926283901964,0.1716737993302077,-12.672939555056663,-9.722305337724327,0.1893329013623907,2.5280490233841997,1.7791637761528525,-20.67778196256568,-1.4554028774475933,-3.0060758539572996,-16.45985689276941,-0.3900681478025093
30,8.182538731492631,-13.812146306463024,-0.21778270336512423,0.4230629276341834,-13.60930141152908,-10.219122246301314,1.1516067216537402,2.5050534535040057,1.8514543015583962,-20.49382014602331,-1.546341872942541,-3.28071901826535,-15.746034626235396,-1.0137680724103935
31,6.300905541827871,-13.77950130852057,-0.23543440150917255,0.6639109569464072,-14.487706878854976,-10.676042068428304,2.153141374147821,2.5426349789333917,1.9434599275151194,-20.329442413764827,-1.7095067855579997,-3.6310377644194705,-14.990383253160813,-1.7181800347966938
32,4.2076993534662765,-13.762938089837938,-0.25987509689284227,0.8923971658225757,-15.299568645544078,-11.089794803607845,3.1842237531405506,2.6402262825853984,2.055592541654673,-20.180959166110867,-1.9302755915871173,-4.037969321897455,-14.19337238737513,-2.491038084281293
33,1.923959511254132,-13.765556500466198,-0.29027902176881193,1.1069419858380019,-16.036717111012706,-11.457549115316855,4.234383295961334,2.795540260415339,2.1876836339168504,-20.042971619666993,-2.1922089263017153,-4.480250280319976,-13.355906431742607,-3.3181167224952723
34,-0.5240961414309855,-13.789202739468575,-0.32567105651630024,1.3062052865803948,-16.691540521338805,-11.777065002960546,5.2924509899245225,3.0046142198805517,2.338987477895862,-19.90863797020913,-2.4777171639343516,-4.935266805504534,-12.479556312913884,-4.183727969876994
35,-3.105637677318595,-13.834407487625736,-0.36495355104432675,1.4890749531926242,-17.257150454692724,-12.046849199913416,6.346622320207796,3.2619019534648164,2.508209365531983,-19.769973974249346,-2.768751058271509,-5.3799586811990325,-11.566763803864662,-5.071271916721932
36,-5.785969663426896,-13.90037162310936,-0.40693246384045234,1.6546432251920034,-17.727567746488944,-12.266298889343961,7.3845323787138275,3.5604078561960586,2.6935504591310298,-19.61818627752215,-3.0475020421625665,-5.7917536372545415,-10.621022177391874,-5.963835391647455
37,-8.5274435002736,-13.985000826228061,-0.4503424424149756,1.8021712148164155,-18.097919637037677,-12.435819473920407,8.393351640989493,3.8918563159511974,2.8927612010433705,-19.444033224088063,-3.2970951679147955,-6.1495027792264665,-9.647034330148943,-6.844827566338594
38,-11.290507621785409,-14.084985521458647,-0.49387040814374666,1.9310452172827417,-18.36463579044633,-12.556903800503434,9.359910344104,4.246890920274631,3.1031980170963873,-19.23820278729918,-3.5022521737257883,-6.4343806621793105,-8.650844355181004,-7.698633261535497
39,-14.034855061664674,-14.19591938949246,-0.53617732164416,2.0407308006498037,-18.525629718027723,-12.632163000535952,10.270858179184868,4.615300573027735,3.3218815897328957,-18.991692856875833,-3.649897052767176,-6.630707488315793,-7.639932952556333,-8.511256239123593
40,-16.720618125171438,-14.312448304976108,-0.5759181330920642,2.130731992712518,-18.58045282117136,-12.665302452699267,11.1128643885609,4.986272443719643,3.5455581721777105,-18.696176609533115,-3.7296741174145427,-6.726648298299059,-6.623262948277467,-9.27091795766593
41,-19.309554276727077,-14.428441424997079,-0.6117602899769443,2.2005632888510425,-18.53040968505178,-12.661039945616228,11.872861401093392,5.348673939705265,3.770767659840417,-18.34433520403843,-3.7343496125312816,-6.714745859263671,-5.611259775771833,-9.968573892632504
42,-21.76616686494082,-14.53717683019048,-0.6424014284898801,2.249741469821242,-18.378624773165747,-12.624966886403262,12.538332475929526,5.691366112080561,3.9939226004219943,-17.93014153136017,-3.6600723674631035,-6.592250692956058,-4.615713524376353,-10.598310558906578
43,-24.05870917269199,-14.631535435664716,-0.6665870650534365,2.277802176087672,-18.130052451552107,-12.563357284721313,13.097640034180627,6.003547626846267,4.211400262868334,-17.44908227278166,-3.506476694665333,-6.361223366987551,-3.6495937231285827,-11.157591961943394
44,-26.16002947293839,-14.704198568966747,-0.6831292932212176,2.2843431983290157,-17.791424427576633,-12.48293275170702,13.540386682852821,6.2751219072359925,4.4196458012729165,-16.89831069421463,-3.2766211419590396,-6.028399597617886,-2.7267745841391164,-11.647333812301897
45,-28.04822668246541,-14.747846333616229,-0.6909275405239182,2.2690929242246565,-17.371131135330828,-12.390594399755917,13.85779609778877,6.497072331270066,4.615280341014967,-16.276728354588855,-2.9767684081239634,-5.604825688138073,-1.861676111791897,-12.07179640452306
46,-29.707099602485286,-14.755355574350348,-0.6889921805152941,2.231998353204106,-16.87903662836441,-12.293134278081718,14.043096357345123,6.661823849907451,4.79520530171226,-15.58499893293965,-2.6160232162860075,-5.105288364056033,-1.0688344506156784,-12.438301152475336
47,-31.12638667560266,-14.719997986601786,-0.6764712500313557,2.1733226428406485,-16.32623058796725,-12.196940034125172,14.091884110327165,6.763565848779006,4.956693921439609,-14.825500895207655,-2.205854884450365,-4.547577645150168,-0.362422233453906,-12.756789824469942
48,-32.3018062769452,-14.6356403400576,-0.6526798331922449,2.0937380124078024,-15.724725870190742,-12.10770700609443,14.002444643148717,6.798511358366975,5.097462155579558,-14.00222773844713,-1.7595384076146996,-3.95163230274506,0.24425450496072712,-13.03925785159663
49,-33.234917818103376,-14.496949075133266,-0.617130998469961,1.9943973370197206,-15.08711453006262,-12.030172095769982,13.776001694868675,6.765071490335849,5.215713172056594,-13.120645580606034,-1.291550821473162,-3.338622869015685,0.7392534043786264,-13.29910176430507
50,-33.93282952553611,-14.299599816841807,-0.5695667197758243,1.8769683793354905,-14.42619830595285,-11.967883690320132,13.416872902105743,6.663930069037624,5.310152126884908,-12.187518345741365,-0.816957791813874,-2.7300261702568425,1.1124585874640731,-13.550424172084126
51,-34.4077787528111,-14.040488297692857,-0.5099871142847486,1.7436192201881033,-13.754610608741372,-11.923021407221388,12.93251218577859,6.498010796177656,5.379970602624757,-11.2107105957346,-0.3508192075326224,-2.1467385943710218,1.3559860256047611,-13.807337348964538
52,-34.67660566268958,-13.71793314708421,-0.43867640799199553,1.5969517662816854,-13.084446350156936,-11.896277837489208,12.33342836211121,6.272337411312581,5.424803026087493,-10.198976511042005,0.09236625793039122,-1.6082646627994945,1.4645157187914801,-14.083299566931673
53,-34.760133245539635,-13.331854113650014,-0.3562238992795842,1.4398905563847564,-12.426913875209229,-11.886811032681239,11.632978599304828,5.993795703161993,5.444660541614888,-9.16174019676816,0.49916671112866323,-1.1320053000632853,1.4355429357224807,-14.390508800025753
54,-34.68245921359667,-12.883903615585794,-0.2635376668541862,1.275543731419616,-11.792020396977119,-11.892271372582487,10.847044775800246,5.670813968715214,5.439850830839188,-8.108868182538327,0.8576688214613826,-0.7326589078409649,1.2695477719513657,-14.739368669760214
55,-34.47016149918735,-12.377527632159122,-0.16184816421720818,1.1070589929942551,-11.188299735811123,-11.908900918859718,9.993608784468062,5.312984288359121,5.410894333623992,-7.050431841278656,1.1578750761525807,-0.42174029050285383,0.9700866778788937,-15.138034076024113
56,-34.15142058029471,-11.817935480013075,-0.0526987151934494,0.9374976746407873,-10.622589801248141,-11.931698732292682,9.092248089958602,4.930649565252715,5.3584472099836225,-5.996457693998759,1.392044426604675,-0.2072189962325565,0.5438101121515303,-15.592040507593596
57,-33.755068331021675,-11.211966471992037,0.06207933512625255,0.7697448752667225,-10.09986682209922,-11.954642334412037,8.16357524065428,4.53448036024422,5.283238914459509,-4.956667635427566,1.5549697126445117,-0.09327910524074723,0.0004074511011705798,-16.10402109893551
58,-33.309582692964774,-10.567852529328185,0.18040751094912,0.6064652518329481,-9.62314251684007,-11.970953283017762,7.228645404054061,4.135062128871566,5.186028405523856,-3.9402170278947066,1.644180410649738,-0.08020469512619532,-0.6475240737102068,-16.67351706769526
59,-32.842057695797465,-9.894886669135223,0.3000159339570414,0.45010549938485517,-9.193428335107225,-11.973393432321208,6.308355158899795,3.7425091409772424,5.067579345348642,-2.9554434540100534,1.6600566460979096,-0.1643968089974262,-1.384692684295489,-17.296888330828033
60,-32.377187059158096,-9.203015852589724,0.4185110227180696,0.302937696163774,-8.809767882495764,-11.954577747021743,5.422854051321274,3.3661172808942026,4.9286520746896345,-2.0096410942066374,1.6058407391935348,-0.33852735058047784,-2.193414080091047,-17.967330975239822
61,-31.93630587721858,-8.502382622309955,0.5334513427536758,0.16713284192379052,-8.469335614979297,-11.907289532322235,4.59098792636181,3.014064427220818,4.770008568594759,-1.1088755564968855,1.4875350987081322,-0.5918325536098434,-3.054005942557041,-18.675006789639912
62,-31.536539064873,-7.802844560288874,0.6424276592004031,0.04485035105741873,-8.167597594323047,-11.824784639357123,3.8297900916714327,2.693164249873913,4.592425662545928,-0.25785237162740277,1.313679459355643,-0.9105436283201247,-3.945273686754199,-19.407287499202944
63,-31.190107241460833,-7.113504788552058,0.7431436085592452,-0.061673413267281145,-7.898528454312301,-11.701072444406858,3.154033491797516,2.408677279464086,4.3967117370897215,0.5401507813308812,1.0950067226802143,-1.2784449878926463,-4.8450791749100715,-20.149112526933138
64,-30.903838411524767,-6.442288974243617,0.8334937608675421,-0.15005533068173507,-7.654877028656961,-11.531162866308437,2.575854823413805,2.164182145086096,4.183723019327218,1.283283100248714,0.8439856716760634,-1.6775413930861565,-5.730975094195416,-20.88345316860825
65,-30.678924379861883,-5.795601592902742,0.9116359950912284,-0.21772967836582532,-7.428470961984416,-11.311270173832392,2.1044602009659603,1.9615094700916353,3.9543773104870974,1.9710521843232864,0.5742696979544878,-2.0888054642264375,-6.580878001058083,-21.591867708801097
66,-30.510944220382292,-5.178085604571386,0.9760552810409067,-0.2619555030852349,-7.2105485940397696,-11.038965852164852,1.7459214007833879,1.8007402088600375,3.7096643942779486,2.604195203428787,0.3000806669536091,-2.492968160180964,-7.3737455056503975,-22.255122984062332
67,-30.39015659090876,-4.592497548559313,1.0256164329673707,-0.27986908489770573,-6.9921052084868744,-10.713274478082946,1.5030711088877464,1.6802687240796181,3.450653132630224,3.184501122387683,0.03556349840798631,-2.8713090431898185,-8.090220266586124,-22.853850976395528
68,-30.302042134068355,-4.039697575387816,1.0596041646129766,-0.2685768025174965,-6.7642404463258545,-10.334708577980882,1.3755038633019616,1.5969288008336042,3.178495577788964,3.7145976945351347,-0.20585071860787474,-3.2064016830546667,-8.713205509099286,-23.369205415355637
69,-30.228059174336927,-3.5187431259752797,1.0777495767580154,-0.225278760483782,-6.518493969397631,-9.905240954369724,1.3596857322681533,1.5461785184729595,2.8944288781666727,4.1977177695875465,-0.41203612253183,-3.4827722690098413,-9.228341727632142,-23.78348256385954
70,-30.14656214668131,-3.0270670860031745,1.0802428309002847,-0.14741034456933613,-6.247157263058152,-9.428215931562985,1.449170390076298,1.5223378264080794,2.5997766700905984,4.6374598342580695,-0.5726837096895296,-3.687435330266307,-9.624360251087685,-24.08067206960125
71,-30.033824079231042,-2.5607173374102734,1.0677321467089453,-0.032787874317961894,-5.943550895770862,-8.90820414386108,1.6349130748245808,1.5188709135275509,2.295952938191372,5.037558438465616,-0.6797031203148333,-3.810278680772268,-9.893296020036539,-24.24690852650385
72,-29.865102633444867,-2.11463489157503,1.0413094025763105,0.12025396432266763,-5.602258425146246,-8.350808572583837,1.9056677529419888,1.5287038653300915,1.9844724662833284,5.401680924601151,-0.7274909319292807,-3.844280409509213,-10.030549927997102,-24.270802516370225
73,-29.61569331579128,-1.6829512316034207,1.0024825514735929,0.3127416574387066,-5.21931010317816,-7.762432375379599,2.248447047199998,1.544566397907047,1.666972235565155,5.733266274119819,-0.7130511157769022,-3.7855539731874837,-10.034801045503396,-24.143640936458443
74,-29.26192217525317,-1.2592906632830434,0.9531349273210061,0.5449636937279593,-4.792311449308584,-7.1500215741400375,2.6490195768193465,1.5593444995533072,1.3452467687667449,6.035418681301424,-0.6359650811584758,-3.633232090872307,-9.907780414287032,-23.859459203346297
75,-28.782041287617574,-0.8370689231287664,0.8954715148250044,0.8163931578600293,-4.320513654975583,-6.520797583382151,3.0924163200466612,1.566428729211931,1.0212971893427838,6.310862561653547,-0.4982213972051339,-3.3892138776101564,-9.653928867102929,-23.4150002705931
76,-28.157001007090315,-0.40978345087754947,0.8319525511770642,1.1256303757913133,-3.8048245624703028,-5.881995139870777,3.563417674143451,1.5600411527996558,0.6973893293021514,6.56195814614202,-0.3039266632537675,-3.05780984327974,-9.27996922133394,-22.809584427474352
77,-27.371081750143187,0.028707550452560238,0.7652154537073772,1.470363671630357,-3.2477604854465807,-5.240619632683863,4.046996715866239,1.5355230534755695,0.3761121829467635,6.790769167143135,-0.05892716796850696,-2.6453242252010023,-8.794427220783856,-22.044917723422987
78,-26.41237507910916,0.4839206242746987,0.6979868697499533,1.8473475010122804,-2.6533406229364105,-4.603234168267409,4.52870117137084,1.4895660198327336,0.060425676776584766,6.999167532118458,0.2296247440419604,-2.159613630366552,-8.207136426389697,-21.124866185652625
79,-25.273110206567452,0.9605017822088596,0.6329873787707425,2.2523989159059474,-2.0269278567639066,-3.975782344119423,4.994964948485622,1.4203706322447658,-0.24631397504183,7.188954534644199,0.5537245111716786,-1.6096568254384767,-7.528761173041608,-20.0552200172184
80,-23.949828433950042,1.4620060375473953,0.5728319105887281,2.680414623896302,-1.3750226953459246,-3.363449579222523,5.4333474970487226,1.3277192733165564,-0.5403629151065587,7.361974293322046,0.9049551878046409,-1.0051647084818731,-6.770369334416513,-18.843468489423422
81,-22.443413902903046,1.9907077675526275,0.5199293145357392,3.1254114864639746,-0.7050206742299155,-2.770564783611431,5.83270412189512,1.2129524932971736,-0.8176429913225649,7.520193903699482,1.2748818065640986,-0.3562529693686094,-5.943082472068692,-17.49860249840213
82,-20.758993228797937,2.5474480296603397,0.47638483550232297,3.5805933161071253,-0.024946637153426536,-2.200544243150363,6.183292389898585,1.0788424956301068,-1.0738482296458924,7.665727710813742,1.6553740065831115,0.3268075133282574,-5.057823970135084,-16.03095691369733
83,-18.905718693917283,3.1315249165405366,0.44390960395277207,4.038446455647479,0.6568191039125053,-1.6558792782656901,6.476820070895136,0.9293637286153703,-1.304608476072558,7.800790622209474,2.0388387617674613,1.0337563491268333,-4.125175557466344,-14.452098235162449
84,-16.896450493530978,3.7406327246158297,0.42374153705818196,4.490865656754701,1.331808222499408,-1.1381676426734353,6.706440399970237,0.7693697919007979,-1.5057076236701326,7.927576471254712,2.4183555079465893,1.754429049870096,-3.1553403252965175,-12.774755157508151
85,-14.747354321955605,4.370854714207227,0.41658202768573643,4.929309873893499,1.9917130954049191,-0.64818588702442,6.866701956550215,0.6041967439333991,-1.6733457525816824,8.048069948454831,2.787716968758747,2.478775065530398,-2.158198583939803,-11.012782214531123
86,-12.477432053021918,5.016712269351466,0.42255234976842015,5.3449848637709785,2.628607414447976,-0.18599656072693588,6.953463025959708,0.439222755689292,-1.8044267093104795,8.163811840472858,3.141388308324475,3.196828128599507,-1.1434343190281044,-9.181141694270936
87,-10.108004972823796,5.671270596629519,0.44117295292134723,5.729046691102747,3.235132648894367,0.24891931005765988,6.963783241333915,0.2794204304776158,-1.896846767569941,8.27564489894151,3.474403888079445,3.898652407487213,-0.12070554296458083,-7.295886947882924
88,-7.6621698787845824,6.326298317879574,0.47136781999159916,6.072818185911708,3.8046478835968354,0.6575169748227113,6.8958078132458445,0.128940067144674,-1.949756690222284,8.383470568257465,3.782225055300141,4.574289273286089,0.9001693944031444,-5.374130048893908
89,-5.164247914668601,6.972475708265571,0.5114947172937627,6.36800914465125,4.331343975297621,1.0410441494129494,6.748660654304585,-0.009240191876822486,-1.9637690392708531,8.486045531313785,4.060583972442361,5.213728567781875,1.9090367441274112,-3.4339776792162313
90,-2.639244859721396,7.599643884543087,0.5594004946871901,6.606930217759805,4.810325433980007,1.4009125635080304,6.522360877868413,-0.13356775110808616,-1.9410856043572295,8.580842711384758,4.305337122458863,5.8069249353812795,2.8952688308679377,-1.4944212248433648
91,-0.11234008212700791,8.1970852462023,0.6124988634305858,6.782690195093926,5.23766434637873,1.738596207151379,6.2177719672140475,-0.24405269618729367,-1.8855265029974313,8.663994863842383,4.512348446513685,6.343874250609015,3.8476846423817332,0.4248296465880658
92,2.3915812681983355,8.75382476432448,0.66786664526518,6.889367720256208,5.610430111667639,2.055563202579011,5.836585540627913,-0.34228043004355097,-1.802451514624569,8.73033107724567,4.677417713688275,6.814758360877981,4.754548597991359,2.3035767849616415
93,4.848342574100082,9.258942656948715,0.722353591223983,6.922151569400757,5.92669745059397,2.3532429725126227,5.381334412316998,-0.4313025591917213,-1.6985734802697499,8.77350880451685,4.796265605552805,7.21015911501681,5.603661531112524,4.121429405576266
94,7.234831306925511,9.70189043123735,0.7727005796223467,6.87744727649213,6.1855338903207056,2.633025260380168,4.855424555762765,-0.5154176629091417,-1.5816720476296882,8.786237833880387,4.86458270148713,7.521335093686495,6.382550996715611,5.858163808432669
95,9.529294659446768,10.072802678767255,0.8156612135486918,6.752950612931915,6.386967220092841,2.8962830891707876,4.263173337537269,-0.599860476385617,-1.4602239154032646,8.76058801853465,4.878144355140468,7.740546590355413,7.078760105599785,7.494139410850017
96,11.71157684581652,10.362796332815783,0.8481223168937088,6.547689878825741,6.531933307113699,3.1444081688416534,3.6098416178986117,-0.6904236087878958,-1.3429731923873713,8.688368415630553,4.83298717894319,7.861406957671111,7.680226408132118,9.01075837057994
97,13.76330134047998,10.564248286958254,0.8672192966978031,6.262039380846294,6.62220481616502,3.378845108354626,2.9016489616677976,-0.7930400163016139,-1.2384715811716722,8.561560517869038,4.725635848063068,7.879232734053746,8.175734753124543,10.390951215354841
98,15.668002079694055,10.671041706866125,0.8704426682038818,5.89770595886485,6.660301407056539,3.601110808081,2.145763140012038,-0.9133564318552077,-1.154621545902112,8.372782570858341,4.5533621151344805,7.791361992272016,8.555419751510792,11.619665846659874
99,17.411208033178852,10.678771306918518,0.8557323970562614,5.457689669476101,6.649382106196291,3.8127879251081764,1.350257104189807,-1.0563276266135522,-1.098255782411653,8.115757089434211,4.314452953399904,7.597410779354096,8.811285366355985,12.68433285973892
100,18.980486964094496,10.584899520949897,0.8215573304532321,4.946220412658547,6.593121703949898,4.01548594154791,0.5240296532395005,-1.225858448619659,-1.074782750794389,7.785751794224491,4.008463494264317,7.299442166215235,8.937703934254337,13.57527867452724
101,20.365457466167193,10.388859756012858,0.7669777697828454,4.368675368439162,6.495575908924159,4.210769253182178,-0.32330921751648567,-1.4245144978646633,-1.0879204458799787,7.3799667970990255,3.636433641376039,6.902031523363651,8.931856678448671,14.286060950178005
102,21.557782304843652,10.092108473162153,0.6916899053541284,3.7314862199032723,6.361043903552017,4.400057651154156,-1.1815820449538041,-1.6533138450520408,-1.1395301290521356,6.897847327914028,3.201053517006657,6.412223366373176,8.794082239983432,14.813706999433544
103,22.551158173729714,9.698131981568354,0.596051420822513,3.0420475139072845,6.193939952243631,4.584509426760495,-2.040207090046011,-1.9116040093294424,-1.2295514026721575,6.341308676131296,2.7067693724109168,5.839385916022459,8.528107085633456,15.15884294404353
104,23.341315547321102,9.212415015538808,0.4810883108977521,2.3086364249513323,5.998686133759491,4.764900484928146,-2.8883710645216625,-2.197022644933599,-1.3560324165778241,5.714865480365458,2.159826116550456,5.194976555072367,8.141140048319832,15.32570755704833
105,23.926037814672814,8.642376982831665,0.3484836504323314,1.5403500298215067,5.779636017632108,4.941514314086801,-3.715203330514666,-2.505536968410225,-1.5152445773479353,5.025660674984593,1.5682449837248469,4.492234354380435,7.643821597827747,15.322049962286808
106,24.305203009363762,7.997279459250398,0.2005491448805935,0.7470604736876073,5.541035158352182,5.114057385158433,-4.509946037032076,-2.8315547533297014,-1.7018688734073655,4.283391524084376,0.9417359514188391,3.745816305692775,7.050026049966557,15.15891492361894
107,24.480845415358583,7.288105427430143,0.04017965828303805,-0.06061768412425843,5.287019161441226,5.281612091802379,-5.262117178622557,-3.168098351014008,-1.9092400669378353,3.500131840742869,0.2915449814990753,2.971393239791655,6.376521458172035,14.850323345525261
108,24.457228319005292,6.527406928813173,-0.1292098804097725,-0.8713594756731516,5.021643877985013,5.44263453701863,-5.961666232889508,-3.5070329371498086,-2.129635261976083,2.690050859251882,-0.36976371102213346,2.185220163072419,5.642497544513382,14.412858642390317
109,24.240913373359806,5.729114015468119,-0.3037661532739511,-1.6731773178456724,4.748935971919034,5.594998241914579,-6.599124807440461,-3.839340889724939,-2.354594364647841,1.8690312875546884,-1.028589965543646,1.4036941122577868,4.868977191370725,13.86517191282378
110,23.84080740278112,4.908295470683553,-0.4792984131161789,-2.453504143012929,4.472947467167863,5.736078827248867,-7.165756837763334,-4.1554350332725,-2.5752611956908082,1.0541929330665696,-1.6706433754573342,0.6429109610547917,4.078132020122076,13.22742072596943
111,23.268165221729696,4.080861613517234,-0.6513985736856458,-3.1993319020611337,4.197796151068334,5.862870168473412,-7.653713344679656,-4.445503484814572,-2.782735099536963,0.2633338104817757,-2.281349181060249,-0.08176859874372287,3.2925273051967228,12.520658140509592
112,22.536527909282828,3.2632020514526796,-0.815578922858901,-3.8974227479678394,3.927674950184913,5.972120085698402,-8.056195188616261,-4.699877597883408,-2.968423430631331,-0.4856932723982935,-2.84630728890351,-0.756134047478268,2.5343255974281287,11.766190697619487
113,21.661580317067244,2.4717567878915636,-0.9674243457869477,-4.534603923525487,3.6668171044250384,6.060473712032376,-8.36762401012729,-4.90941233585128,-3.124384787089689,-1.1756449045372728,-3.351791567596635,-1.3675106429250667,1.8244817317884976,10.984926866087141
114,20.660919324918112,1.7225273429354808,-1.1027543375481743,-5.098147688219745,3.4194097835648067,6.124615349073655,-8.58381732889658,-5.06586601771576,-3.243651121951965,-1.7905634981210388,-3.7852698602452355,-1.9051043692786054,1.181964212705029,10.196740497683335
115,19.553734183962696,1.0305440399679864,-1.2177884782200454,-5.5762257596851645,3.1894564170209634,6.1614039203205895,-8.702159491793854,-5.162264466669196,-3.3205147347251502,-2.3164342231878408,-4.135919222143119,-2.3602943892966852,0.6230389299636641,9.419876065428062
116,18.360409510343413,0.4093140779156775,-1.3093073823637642,-5.958416070691771,2.9805963940731854,6.168001140799431,-8.721757082714808,-5.193233694658954,-3.3507654225935535,-2.7417897459014253,-4.395107425994277,-2.726861688728751,0.16065005860244502,8.67042231000593
117,17.102067757293124,-0.12971930201641432,-1.3747997579787385,-6.236230456678254,2.79589795243298,6.141993417235778,-8.6435665852893,-5.155285619496611,-3.3318651586727106,-3.05823155165691,-4.556811754537361,-3.00114464623307,-0.19607068789899038,7.961877838770815
118,15.800071142834256,-0.577673597182158,-1.4125857977030032,-6.403626033891096,2.6376444234892324,6.081507748072321,-8.470483125082096,-5.047042641908153,-3.2630521746970995,-3.2608400811658824,-4.6179491496389415,-3.1821154768703956,-0.4421412150680406,7.3048270756897775
119,14.475504671222696,-0.9286464426699184,-1.4219080311716277,-6.45746005814406,2.5071355325087428,5.985319446514514,-8.207380221608295,-4.869388424964988,-3.1453712151906714,-3.348450179352041,-4.578596338654423,-3.2713747548891434,-0.5768944650830522,6.706739274078524
120,13.148663174248446,-1.1800258112518556,-1.4029826297605243,-6.397847809840098,2.404524991638039,5.852946873676485,-7.861090476148393,-4.625533309927922,-2.9816300557685222,-3.3237728129209594,-4.442083331495727,-3.273063524203598,-0.6039613161090555,6.171897907615695
121,11.838565687433201,-1.3326631031036864,-1.3570063983030642,-6.228386249571789,2.328713566786897,5.684726531964448,-7.4403169733500505,-4.3209838463537045,-2.776283988024111,-3.193349355463122,-4.214948877054129,-3.1936939943011686,-0.5310679417748599,5.7014623268538305
122,10.562519289061058,-1.3908878700497227,-1.286117184306115,-5.956213138948616,2.2773132357863743,5.48186109549306,-6.955466955238106,-3.9634081661401233,-2.5352513615995687,-2.967331927954336,-3.9067528180125097,-3.041901406283786,-0.36965317419119004,5.293657699554548
123,9.335752492881278,-1.3623514699269923,-1.1933083002227785,-5.591881020364766,2.2466934905650313,5.246433409170122,-6.41840400516393,-3.562393375318652,-2.2656657744826365,-2.6590919334049863,-3.5297472631924407,-2.8281216611800675,-0.13432024959945346,4.944083655700838
124,8.17113637136418,-1.257696127819728,-1.0823005105264745,-5.149036666806596,2.2321158583666603,4.981381420317385,-5.842121699752891,-3.1290976425644956,-1.9755740648311622,-2.2846678050907885,-3.098414636736263,-2.564201226901603,0.1578549227209618,4.646127998366027
125,7.07900892679769,-1.09005567463143,-0.9573776396528009,-4.643909192586657,2.2279571253755632,4.690432168998147,-5.2403488033063095,-2.675807335837451,-1.6735929874726787,-1.8620716898790501,-2.6288857685514406,-2.262947704807392,0.4881306263609099,4.391469288443233
126,6.06711263900136,-0.8744058201626869,-0.8231937945326936,-4.094624458171625,2.228014663169439,4.377996506346631,-4.62710227887823,-2.21541748170706,-1.3685405471690277,-1.4104838018898107,-2.1382571734648383,-1.9376325196694286,0.8369873288538944,4.170649176446587
127,5.140645674991798,-0.6267956507319512,-0.6845618714459468,-3.520379542334625,2.2258782678859084,4.0490294158540046,-4.016209071441672,-1.7608613092589378,-1.0690599080948335,-0.9493726539559604,-1.6438355529543327,-1.6014627440154534,1.1850565061579021,3.9736900628808427
