,AF3,F7,F3,FC5,T7,P7,O1,O2,P8,T8,FC6,F4,F8,AF4
0,4200.0,4204.102539,4187.692383,4220.0,4223.077148,4218.461426,4212.820313,4202.563965,4207.179688,4198.461426,4164.615234,4187.179688,4183.077148,4210.769043
1,4201.538574,4203.077148,4187.179688,4217.436035,4217.436035,4211.794922,4207.692383,4202.563965,4202.05127,4196.922852,4169.230957,4185.128418,4184.615234,4213.333496
2,4204.102539,4207.179688,4193.846191,4221.538574,4217.94873,4210.769043,4211.794922,4206.153809,4203.077148,4201.025879,4181.025879,4190.769043,4189.230957,4217.94873
3,4206.153809,4210.256348,4198.461426,4224.615234,4221.538574,4212.307617,4214.358887,4206.666504,4202.05127,4205.128418,4187.692383,4202.05127,4197.94873,4216.410156
4,4206.153809,4205.641113,4194.358887,4221.538574,4218.974121,4205.641113,4205.641113,4204.615234,4203.077148,4206.153809,4184.102539,4203.077148,4198.974121,4215.897461
5,4202.05127,4200.512695,4193.846191,4219.487305,4216.410156,4199.487305,4198.974121,4205.641113,4204.615234,4203.589844,4176.410156,4193.846191,4189.743652,4215.384766
6,4195.897461,4198.461426,4190.769043,4218.461426,4216.410156,4204.615234,4199.487305,4205.128418,4201.538574,4197.436035,4176.410156,4185.641113,4181.538574,4207.692383
7,4197.94873,4198.461426,4185.128418,4217.94873,4218.461426,4212.307617,4203.589844,4205.641113,4205.641113,4194.871582,4183.589844,4185.128418,4180.512695,4197.436035
8,4203.077148,4203.077148,4192.820313,4220.0,4223.589844,4217.436035,4214.358887,4207.692383,4217.436035,4201.025879,4189.230957,4191.794922,4187.179688,4203.589844
9,4203.589844,4203.077148,4202.563965,4219.487305,4222.563965,4215.897461,4220.0,4206.153809,4213.333496,4201.538574,4186.153809,4198.461426,4186.153809,4215.897461
10,4207.692383,4201.025879,4202.563965,4215.897461,4214.358887,4205.641113,4208.205078,4206.153809,4199.487305,4195.897461,4190.769043,4205.641113,4183.077148,4222.05127
11,4218.974121,4208.205078,4212.307617,4222.563965,4215.897461,4197.94873,4200.0,4208.717773,4205.128418,4210.769043,4212.307617,4217.94873,4194.871582,4243.077148
12,4223.589844,4212.820313,4221.538574,4229.743652,4227.179688,4200.0,4207.179688,4204.102539,4219.487305,4231.794922,4219.487305,4217.436035,4198.461426,4267.692383
13,4213.846191,4205.128418,4211.794922,4226.153809,4229.743652,4209.230957,4213.846191,4200.512695,4220.0,4226.153809,4205.641113,4204.102539,4180.0,4262.563965
14,4202.05127,4201.025879,4200.0,4219.487305,4223.589844,4218.974121,4213.333496,4206.153809,4212.307617,4214.358887,4192.820313,4196.410156,4165.641113,4246.666504
15,4199.487305,4203.077148,4201.538574,4219.487305,4219.487305,4216.922852,4212.307617,4208.717773,4207.179688,4212.820313,4197.436035,4193.333496,4168.717773,4248.205078
16,4202.563965,4200.512695,4203.589844,4218.974121,4218.974121,4206.153809,4213.846191,4205.641113,4202.05127,4206.153809,4204.102539,4190.256348,4172.307617,4254.358887
17,4201.538574,4197.94873,4201.538574,4217.94873,4220.0,4205.641113,4213.846191,4204.615234,4201.025879,4202.05127,4200.512695,4187.179688,4179.487305,4246.153809
18,4197.436035,4200.0,4200.512695,4219.487305,4220.0,4211.282227,4212.820313,4206.153809,4209.743652,4208.205078,4199.487305,4181.538574,4191.794922,4230.769043
19,4198.974121,4202.563965,4201.025879,4220.512695,4220.512695,4211.794922,4213.333496,4206.153809,4216.410156,4210.256348,4206.666504,4187.692383,4200.512695,4229.743652
20,4200.0,4201.025879,4202.563965,4216.922852,4219.487305,4212.820313,4216.410156,4207.179688,4217.436035,4208.717773,4212.820313,4203.077148,4203.589844,4236.410156
21,4196.922852,4196.410156,4203.077148,4216.410156,4218.461426,4215.384766,4219.487305,4207.692383,4217.94873,4210.256348,4211.794922,4199.487305,4199.487305,4237.94873
22,4196.922852,4201.025879,4210.256348,4223.077148,4222.05127,4217.436035,4219.487305,4208.205078,4215.897461,4208.205078,4212.820313,4185.641113,4196.922852,4236.410156
23,4203.077148,4211.794922,4215.384766,4229.230957,4226.666504,4218.461426,4217.94873,4207.179688,4205.128418,4200.512695,4215.384766,4192.307617,4199.487305,4232.820313
24,4207.692383,4214.358887,4214.358887,4228.717773,4228.205078,4217.94873,4217.436035,4206.666504,4197.94873,4198.974121,4213.846191,4202.05127,4201.538574,4228.717773
25,4213.333496,4215.384766,4223.589844,4226.666504,4229.743652,4214.358887,4218.461426,4207.692383,4207.692383,4210.769043,4221.538574,4203.077148,4208.205078,4246.153809
26,4220.512695,4220.512695,4233.846191,4228.205078,4232.307617,4211.794922,4220.0,4207.692383,4218.974121,4222.563965,4234.871582,4206.666504,4220.512695,4268.205078
27,4216.922852,4218.461426,4223.589844,4230.256348,4226.153809,4212.307617,4219.487305,4206.153809,4220.0,4221.025879,4229.230957,4201.025879,4217.94873,4252.820313
28,4204.615234,4212.820313,4211.282227,4226.153809,4221.025879,4212.820313,4218.461426,4205.641113,4219.487305,4214.871582,4215.897461,4186.153809,4202.563965,4230.769043
29,4201.538574,4212.820313,4214.358887,4221.025879,4223.077148,4218.974121,4223.077148,4206.153809,4221.538574,4213.333496,4215.384766,4183.589844,4200.512695,4235.384766
30,4202.563965,4213.846191,4216.410156,4219.487305,4221.025879,4226.153809,4225.128418,4206.666504,4218.461426,4207.179688,4217.94873,4187.179688,4202.05127,4233.846191
31,4200.512695,4215.897461,4214.358887,4218.461426,4217.94873,4223.077148,4220.0,4206.666504,4214.358887,4201.025879,4214.358887,4185.128418,4198.461426,4224.102539
32,4202.05127,4219.487305,4215.384766,4216.410156,4218.461426,4216.410156,4216.922852,4206.153809,4213.846191,4207.179688,4218.461426,4185.641113,4206.666504,4235.897461
33,4202.05127,4212.820313,4214.871582,4214.871582,4216.410156,4214.871582,4216.410156,4206.153809,4212.307617,4210.769043,4219.487305,4188.205078,4211.282227,4245.128418
34,4194.871582,4200.512695,4212.820313,4215.384766,4212.307617,4213.846191,4213.846191,4206.153809,4214.358887,4208.717773,4212.820313,4186.153809,4204.102539,4234.358887
35,4194.358887,4198.461426,4212.820313,4216.410156,4214.871582,4211.282227,4218.461426,4207.692383,4214.358887,4208.717773,4218.974121,4184.615234,4205.128418,4232.820313
36,4202.05127,4208.717773,4216.410156,4216.410156,4217.436035,4213.333496,4231.282227,4209.743652,4206.666504,4204.615234,4224.615234,4183.077148,4206.153809,4239.487305
37,4200.512695,4211.282227,4220.0,4215.897461,4215.897461,4216.410156,4236.410156,4207.692383,4204.615234,4199.487305,4217.436035,4185.128418,4201.025879,4236.922852
38,4192.307617,4203.589844,4211.794922,4217.94873,4215.384766,4217.94873,4236.922852,4203.589844,4213.333496,4204.102539,4213.333496,4188.205078,4198.461426,4232.820313
39,4186.153809,4198.461426,4199.487305,4215.384766,4215.384766,4216.922852,4228.717773,4204.102539,4218.461426,4202.563965,4212.307617,4181.025879,4191.282227,4224.615234
40,4182.563965,4197.94873,4195.384766,4211.794922,4214.871582,4216.922852,4215.897461,4207.179688,4217.436035,4198.461426,4211.282227,4174.358887,4185.641113,4221.025879
41,4187.692383,4197.94873,4203.077148,4214.871582,4216.410156,4224.615234,4220.512695,4207.179688,4219.487305,4208.717773,4215.897461,4181.538574,4197.436035,4229.743652
42,4198.974121,4202.563965,4214.871582,4218.974121,4217.94873,4228.717773,4232.820313,4205.641113,4219.487305,4210.769043,4219.487305,4196.410156,4204.102539,4235.384766
43,4203.589844,4207.692383,4216.410156,4218.974121,4217.94873,4220.0,4233.333496,4205.641113,4216.922852,4206.666504,4221.025879,4199.487305,4199.487305,4237.436035
44,4204.615234,4203.589844,4217.94873,4218.974121,4218.461426,4212.820313,4230.769043,4207.179688,4220.0,4217.436035,4229.743652,4200.0,4206.153809,4250.256348
45,4210.769043,4207.179688,4226.666504,4219.487305,4218.461426,4215.384766,4234.358887,4207.692383,4221.025879,4225.641113,4236.922852,4210.769043,4215.384766,4260.0
46,4216.922852,4213.333496,4225.128418,4218.461426,4217.94873,4218.461426,4234.871582,4205.128418,4216.410156,4216.922852,4228.205078,4211.794922,4210.769043,4256.922852
47,4213.333496,4207.179688,4215.897461,4214.871582,4216.410156,4216.922852,4233.846191,4205.641113,4212.820313,4212.820313,4219.487305,4201.025879,4203.077148,4252.307617
48,4206.666504,4198.974121,4213.333496,4211.794922,4213.846191,4217.436035,4233.846191,4206.153809,4213.846191,4214.871582,4222.563965,4198.461426,4201.025879,4244.102539
49,4202.05127,4197.436035,4208.717773,4211.794922,4212.307617,4219.487305,4232.820313,4205.641113,4215.897461,4208.717773,4226.153809,4199.487305,4198.974121,4238.461426
50,4201.538574,4192.307617,4198.974121,4206.666504,4207.692383,4219.487305,4231.282227,4207.179688,4215.897461,4205.128418,4217.94873,4195.384766,4197.436035,4237.94873
51,4208.205078,4191.282227,4200.0,4201.538574,4205.641113,4216.922852,4229.230957,4207.692383,4216.410156,4211.282227,4213.333496,4196.410156,4197.94873,4234.871582
52,4216.922852,4201.025879,4204.615234,4209.230957,4212.820313,4217.94873,4231.794922,4203.077148,4224.615234,4219.487305,4226.153809,4202.05127,4203.077148,4237.436035
53,4218.974121,4204.615234,4202.05127,4217.436035,4217.94873,4220.0,4235.384766,4200.512695,4234.358887,4221.538574,4236.922852,4204.102539,4213.333496,4246.153809
54,4216.922852,4198.461426,4202.05127,4215.384766,4215.384766,4219.487305,4234.358887,4203.589844,4230.256348,4220.512695,4232.820313,4201.538574,4215.384766,4246.153809
55,4209.230957,4188.205078,4198.461426,4213.333496,4213.846191,4218.461426,4232.307617,4206.666504,4219.487305,4214.358887,4220.512695,4191.282227,4205.128418,4230.256348
56,4198.461426,4181.025879,4189.743652,4214.358887,4213.846191,4220.0,4232.307617,4205.641113,4216.410156,4202.563965,4213.333496,4183.589844,4195.897461,4217.94873
57,4196.922852,4182.563965,4186.666504,4214.871582,4213.846191,4220.0,4230.769043,4204.102539,4217.436035,4198.974121,4213.846191,4185.641113,4197.94873,4217.94873
58,4204.102539,4187.692383,4192.820313,4215.384766,4216.922852,4217.94873,4229.743652,4205.128418,4217.436035,4203.077148,4212.307617,4189.230957,4199.487305,4216.922852
59,4202.563965,4187.692383,4193.333496,4215.897461,4216.410156,4215.897461,4227.692383,4205.128418,4215.897461,4205.128418,4210.769043,4186.153809,4194.871582,4210.256348
60,4199.487305,4185.128418,4188.717773,4215.384766,4212.820313,4216.922852,4219.487305,4203.589844,4214.358887,4201.025879,4214.358887,4185.128418,4194.358887,4212.307617
61,4208.205078,4190.769043,4193.333496,4215.384766,4214.871582,4218.461426,4218.461426,4204.102539,4212.820313,4199.487305,4218.461426,4193.333496,4203.077148,4225.128418
62,4217.436035,4200.0,4201.538574,4216.410156,4219.487305,4218.974121,4228.205078,4206.666504,4215.384766,4208.205078,4217.436035,4199.487305,4207.692383,4225.641113
63,4218.461426,4203.077148,4203.589844,4218.974121,4220.0,4222.05127,4233.333496,4207.179688,4224.102539,4214.871582,4216.410156,4199.487305,4203.589844,4217.436035
64,4216.922852,4201.538574,4203.589844,4220.0,4220.0,4223.077148,4230.256348,4207.692383,4230.256348,4210.769043,4214.871582,4199.487305,4201.025879,4218.461426
65,4215.897461,4197.94873,4202.05127,4217.94873,4219.487305,4218.461426,4229.743652,4206.153809,4224.102539,4203.077148,4212.307617,4196.922852,4199.487305,4221.538574
66,4215.897461,4192.820313,4201.025879,4217.436035,4217.436035,4219.487305,4233.333496,4205.128418,4215.384766,4203.589844,4208.717773,4194.871582,4198.974121,4218.461426
67,4213.846191,4191.282227,4201.025879,4218.461426,4217.94873,4230.256348,4236.410156,4207.179688,4214.871582,4204.615234,4203.589844,4197.94873,4197.436035,4216.922852
68,4207.179688,4187.179688,4199.487305,4217.94873,4220.512695,4231.282227,4234.871582,4206.666504,4216.410156,4200.0,4201.025879,4191.794922,4190.769043,4214.358887
69,4207.692383,4181.538574,4195.897461,4216.410156,4217.94873,4220.0,4230.769043,4204.615234,4216.922852,4204.102539,4205.128418,4182.563965,4194.871582,4211.794922
70,4214.871582,4190.769043,4195.384766,4216.410156,4219.487305,4220.512695,4231.282227,4205.641113,4219.487305,4213.846191,4210.769043,4193.846191,4206.666504,4217.436035
71,4212.820313,4199.487305,4195.384766,4215.897461,4226.153809,4231.282227,4232.820313,4207.179688,4215.384766,4209.230957,4207.692383,4202.05127,4205.641113,4220.0
72,4211.794922,4192.820313,4194.871582,4214.358887,4223.589844,4233.846191,4232.307617,4206.666504,4211.794922,4199.487305,4201.538574,4191.794922,4200.512695,4214.871582
73,4211.794922,4186.153809,4195.897461,4212.820313,4214.871582,4228.205078,4229.743652,4205.128418,4214.871582,4205.641113,4200.512695,4184.102539,4202.05127,4216.922852
74,4202.563965,4185.128418,4196.922852,4214.358887,4214.871582,4221.025879,4222.05127,4203.589844,4217.436035,4212.820313,4198.974121,4187.179688,4201.538574,4220.512695
75,4205.641113,4187.179688,4199.487305,4216.410156,4218.461426,4216.922852,4215.897461,4204.615234,4220.0,4212.307617,4196.410156,4187.179688,4198.461426,4217.436035
76,4217.94873,4187.692383,4201.538574,4214.358887,4217.436035,4220.512695,4222.05127,4207.179688,4227.179688,4216.922852,4200.0,4186.666504,4199.487305,4217.436035
77,4208.205078,4182.05127,4201.025879,4212.820313,4214.871582,4228.205078,4231.282227,4207.692383,4229.743652,4216.410156,4206.666504,4190.769043,4203.077148,4219.487305
78,4197.94873,4181.025879,4199.487305,4214.871582,4215.897461,4226.666504,4229.230957,4206.666504,4220.512695,4205.128418,4199.487305,4190.256348,4200.512695,4216.922852
79,4207.692383,4184.102539,4195.384766,4213.846191,4216.922852,4221.025879,4220.512695,4207.692383,4212.307617,4196.410156,4184.615234,4186.153809,4190.256348,4210.769043
80,4214.358887,4184.102539,4192.820313,4213.333496,4216.410156,4217.94873,4216.410156,4206.666504,4213.846191,4200.0,4187.692383,4189.230957,4193.333496,4212.307617
81,4214.871582,4192.307617,4202.563965,4217.436035,4216.410156,4217.94873,4218.974121,4207.179688,4221.538574,4211.282227,4203.077148,4198.974121,4213.333496,4225.641113
82,4217.94873,4201.025879,4211.282227,4218.461426,4218.974121,4219.487305,4221.538574,4208.717773,4218.461426,4219.487305,4205.128418,4204.102539,4220.512695,4236.922852
83,4217.94873,4197.436035,4206.153809,4215.897461,4218.461426,4212.307617,4218.461426,4207.179688,4205.128418,4211.282227,4189.230957,4198.461426,4207.179688,4232.307617
84,4219.487305,4205.128418,4204.615234,4216.922852,4218.461426,4208.205078,4213.846191,4205.128418,4206.666504,4202.05127,4179.487305,4191.282227,4200.512695,4227.692383
85,4222.05127,4217.436035,4210.256348,4220.0,4219.487305,4215.897461,4215.384766,4207.179688,4218.461426,4204.615234,4177.94873,4186.153809,4200.0,4228.205078
86,4216.922852,4207.179688,4207.179688,4217.94873,4218.974121,4222.563965,4218.974121,4210.769043,4219.487305,4206.153809,4172.307617,4182.05127,4193.333496,4217.94873
87,4213.846191,4198.461426,4206.666504,4215.897461,4218.461426,4220.512695,4218.461426,4207.179688,4216.410156,4209.230957,4174.358887,4189.230957,4200.0,4223.077148
88,4220.0,4204.102539,4216.410156,4217.94873,4217.94873,4219.487305,4216.410156,4203.589844,4218.974121,4217.436035,4183.589844,4201.538574,4217.436035,4243.077148
89,4219.487305,4201.538574,4213.333496,4220.0,4217.94873,4220.0,4216.410156,4206.153809,4217.436035,4217.94873,4180.0,4195.384766,4218.461426,4243.077148
90,4213.846191,4196.410156,4203.589844,4216.922852,4216.922852,4214.871582,4216.922852,4205.641113,4216.410156,4212.820313,4166.153809,4182.563965,4210.769043,4232.307617
91,4222.563965,4203.589844,4212.307617,4214.871582,4215.384766,4213.333496,4218.461426,4202.563965,4221.538574,4215.384766,4166.666504,4192.307617,4214.358887,4237.436035
92,4235.384766,4209.230957,4220.512695,4216.922852,4215.384766,4214.358887,4219.487305,4204.615234,4216.922852,4220.512695,4171.794922,4205.128418,4220.0,4248.717773
93,4230.769043,4205.128418,4214.358887,4215.384766,4215.384766,4209.230957,4217.436035,4206.666504,4204.102539,4219.487305,4160.0,4201.538574,4217.94873,4249.743652
94,4224.615234,4200.512695,4210.769043,4213.333496,4215.897461,4208.205078,4217.436035,4204.615234,4204.615234,4218.974121,4153.846191,4198.461426,4215.897461,4244.102539
95,4226.153809,4201.538574,4212.820313,4214.871582,4215.897461,4215.384766,4220.0,4205.128418,4215.384766,4220.0,4162.563965,4206.666504,4217.94873,4236.922852
96,4221.025879,4200.512695,4209.230957,4214.358887,4214.358887,4220.0,4219.487305,4205.641113,4218.974121,4218.461426,4161.025879,4202.563965,4213.333496,4232.307617
97,4208.717773,4194.871582,4201.025879,4212.307617,4212.820313,4217.436035,4216.410156,4205.128418,4218.461426,4210.769043,4146.153809,4188.205078,4191.794922,4223.589844
98,4205.641113,4195.897461,4197.94873,4212.307617,4214.871582,4216.922852,4217.436035,4208.717773,4218.461426,4209.230957,4143.077148,4189.230957,4170.256348,4211.794922
99,4204.102539,4195.384766,4198.974121,4211.282227,4215.897461,4216.922852,4214.358887,4208.717773,4212.307617,4210.769043,4146.153809,4194.871582,4169.743652,4214.871582
100,4198.461426,4187.179688,4197.436035,4208.205078,4212.307617,4212.820313,4203.589844,4206.153809,4208.205078,4206.666504,4136.922852,4187.692383,4178.461426,4223.589844
101,4202.563965,4189.230957,4198.461426,4211.794922,4213.333496,4212.307617,4206.153809,4204.615234,4213.846191,4207.179688,4135.384766,4182.05127,4184.615234,4226.153809
102,4212.820313,4200.0,4204.102539,4213.333496,4216.922852,4212.820313,4219.487305,4204.615234,4214.871582,4213.846191,4143.077148,4186.153809,4192.820313,4232.307617
103,4215.384766,4203.589844,4209.230957,4209.743652,4216.922852,4212.820313,4219.487305,4205.128418,4214.358887,4218.461426,4143.589844,4192.820313,4198.974121,4246.153809
104,4215.897461,4202.05127,4214.358887,4210.769043,4214.871582,4212.820313,4215.384766,4207.179688,4212.307617,4217.436035,4143.077148,4204.102539,4202.563965,4252.820313
105,4223.589844,4203.589844,4221.025879,4213.333496,4214.871582,4215.384766,4223.589844,4207.179688,4204.615234,4216.410156,4146.666504,4209.743652,4204.102539,4250.256348
106,4226.153809,4203.589844,4223.077148,4212.820313,4214.871582,4217.436035,4229.230957,4207.692383,4205.641113,4218.974121,4143.589844,4204.615234,4207.179688,4247.692383
107,4220.0,4202.05127,4222.05127,4211.282227,4214.871582,4215.384766,4224.615234,4209.743652,4214.358887,4219.487305,4136.922852,4204.615234,4209.743652,4248.205078
108,4216.410156,4201.538574,4221.025879,4208.205078,4215.384766,4216.922852,4224.102539,4207.692383,4215.897461,4217.436035,4137.436035,4205.641113,4206.666504,4248.205078
109,4217.436035,4201.538574,4223.077148,4209.230957,4216.410156,4227.179688,4230.256348,4207.179688,4214.871582,4225.128418,4140.512695,4200.512695,4208.205078,4247.179688
110,4220.0,4205.128418,4225.641113,4213.846191,4217.436035,4228.205078,4228.205078,4208.205078,4220.0,4234.358887,4134.871582,4198.974121,4213.333496,4247.692383
111,4212.820313,4204.102539,4222.563965,4210.769043,4215.897461,4218.974121,4218.461426,4206.153809,4219.487305,4223.077148,4128.205078,4201.025879,4210.256348,4247.692383
112,4204.102539,4199.487305,4216.410156,4209.230957,4212.820313,4216.922852,4215.384766,4206.153809,4214.358887,4211.282227,4126.153809,4200.0,4200.512695,4238.461426
113,4209.230957,4202.05127,4215.384766,4213.846191,4212.820313,4213.333496,4215.897461,4206.666504,4212.820313,4213.333496,4124.102539,4195.384766,4196.410156,4227.692383
114,4217.436035,4210.256348,4218.461426,4209.743652,4212.820313,4201.538574,4214.871582,4203.589844,4211.282227,4218.974121,4125.641113,4198.461426,4205.641113,4232.820313
115,4216.922852,4215.384766,4218.974121,4205.641113,4212.307617,4202.05127,4214.358887,4204.102539,4208.205078,4221.025879,4128.717773,4203.077148,4221.025879,4242.05127
116,4212.307617,4214.358887,4214.358887,4210.769043,4213.846191,4212.820313,4212.307617,4204.615234,4202.05127,4213.333496,4118.974121,4194.871582,4214.358887,4232.820313
117,4210.256348,4205.128418,4211.282227,4209.743652,4209.743652,4215.897461,4210.256348,4203.589844,4197.94873,4204.102539,4110.256348,4187.692383,4198.461426,4220.0
118,4210.769043,4199.487305,4212.820313,4206.666504,4203.077148,4215.897461,4214.358887,4205.641113,4205.641113,4209.743652,4121.025879,4199.487305,4208.717773,4229.230957
119,4215.384766,4208.205078,4218.461426,4211.282227,4207.692383,4217.94873,4217.94873,4208.205078,4215.897461,4220.512695,4128.205078,4209.743652,4222.05127,4247.179688
120,4216.410156,4214.871582,4219.487305,4213.333496,4209.743652,4215.384766,4209.743652,4206.666504,4216.410156,4218.461426,4120.512695,4203.077148,4215.384766,4248.717773
121,4214.358887,4210.256348,4216.922852,4212.820313,4206.666504,4211.794922,4203.589844,4204.615234,4213.333496,4215.897461,4117.436035,4200.512695,4212.820313,4243.077148
122,4216.922852,4210.769043,4218.461426,4212.307617,4206.153809,4213.333496,4209.743652,4204.615234,4215.897461,4222.05127,4123.589844,4211.282227,4217.94873,4245.641113
123,4218.974121,4216.410156,4225.128418,4211.282227,4206.666504,4213.333496,4212.820313,4206.666504,4217.94873,4230.256348,4126.153809,4218.974121,4218.974121,4251.794922
124,4220.0,4215.897461,4229.743652,4213.846191,4208.717773,4211.794922,4209.743652,4207.179688,4214.358887,4230.256348,4126.153809,4221.025879,4225.641113,4255.897461
125,4220.0,4215.897461,4226.153809,4213.846191,4215.384766,4212.307617,4209.230957,4205.641113,4210.769043,4223.589844,4126.666504,4219.487305,4228.717773,4256.922852
126,4220.512695,4222.05127,4221.538574,4210.769043,4217.436035,4212.307617,4212.307617,4207.179688,4213.333496,4221.025879,4121.025879,4213.846191,4218.974121,4249.743652
127,4217.436035,4218.461426,4216.410156,4210.256348,4209.743652,4211.794922,4209.743652,4207.692383,4217.436035,4219.487305,4112.307617,4205.128418,4215.897461,4237.436035
