,AF3,F7,F3,FC5,T7,P7,O1,O2,P8,T8,FC6,F4,F8,AF4
0,4200.512695,4227.179688,4215.384766,4214.871582,4188.205078,4200.512695,4205.128418,4206.666504,4203.589844,4152.307617,4197.436035,4198.461426,4207.692383,4201.025879
1,4204.102539,4232.820313,4220.512695,4217.436035,4187.692383,4199.487305,4203.077148,4206.666504,4201.538574,4146.666504,4207.179688,4201.025879,4207.692383,4204.102539
2,4207.179688,4227.179688,4213.846191,4213.333496,4184.102539,4189.230957,4199.487305,4202.563965,4185.128418,4143.077148,4201.025879,4202.563965,4202.563965,4201.025879
3,4213.846191,4228.205078,4217.436035,4215.384766,4185.128418,4188.717773,4199.487305,4206.153809,4191.282227,4160.512695,4203.077148,4213.846191,4211.282227,4209.743652
4,4218.974121,4236.922852,4229.230957,4221.538574,4188.205078,4200.0,4205.128418,4216.410156,4209.230957,4175.384766,4208.717773,4222.05127,4222.05127,4223.077148
5,4218.461426,4233.846191,4226.153809,4219.487305,4187.179688,4200.512695,4204.615234,4217.436035,4206.666504,4168.205078,4203.077148,4214.358887,4215.384766,4216.922852
6,4213.333496,4225.128418,4214.871582,4213.333496,4184.102539,4195.897461,4200.0,4213.846191,4195.897461,4150.769043,4196.410156,4206.153809,4203.077148,4202.05127
7,4215.384766,4230.769043,4217.436035,4215.897461,4189.743652,4206.153809,4208.717773,4215.897461,4200.512695,4146.153809,4198.974121,4212.307617,4198.461426,4204.615234
8,4225.641113,4241.538574,4226.666504,4224.615234,4198.974121,4217.436035,4218.974121,4218.461426,4211.282227,4158.461426,4201.538574,4218.974121,4197.436035,4218.974121
9,4227.692383,4242.05127,4226.666504,4229.230957,4200.512695,4219.487305,4220.0,4219.487305,4211.282227,4161.538574,4203.589844,4219.487305,4204.102539,4224.615234
10,4222.563965,4241.025879,4222.563965,4229.743652,4199.487305,4217.94873,4220.0,4218.974121,4201.538574,4153.846191,4203.589844,4219.487305,4211.794922,4218.461426
11,4219.487305,4244.102539,4221.025879,4229.743652,4203.589844,4210.769043,4214.871582,4212.307617,4195.897461,4151.282227,4202.563965,4217.436035,4209.230957,4216.922852
12,4214.871582,4237.436035,4217.94873,4225.641113,4204.102539,4202.05127,4203.589844,4209.743652,4198.461426,4151.794922,4201.025879,4212.307617,4200.0,4215.897461
13,4208.717773,4231.282227,4213.846191,4221.538574,4202.05127,4201.538574,4199.487305,4214.358887,4204.102539,4157.94873,4198.974121,4210.769043,4201.025879,4208.205078
14,4206.153809,4234.358887,4208.205078,4221.025879,4202.05127,4202.563965,4193.846191,4208.717773,4198.974121,4162.563965,4200.0,4206.153809,4204.102539,4201.025879
15,4200.512695,4233.333496,4203.077148,4216.922852,4195.897461,4197.436035,4187.692383,4197.94873,4187.179688,4158.461426,4200.512695,4198.974121,4199.487305,4197.436035
16,4198.461426,4232.820313,4202.05127,4214.358887,4188.717773,4197.436035,4194.871582,4203.589844,4191.282227,4159.487305,4201.025879,4200.0,4203.077148,4198.974121
17,4199.487305,4234.358887,4201.538574,4217.436035,4189.230957,4203.589844,4203.589844,4211.282227,4197.94873,4158.461426,4200.512695,4197.94873,4203.589844,4200.0
18,4197.436035,4231.282227,4201.025879,4214.871582,4190.256348,4204.615234,4207.179688,4211.794922,4191.282227,4150.256348,4199.487305,4193.846191,4197.436035,4200.512695
19,4205.641113,4239.487305,4209.230957,4216.410156,4189.743652,4202.05127,4215.384766,4214.358887,4197.94873,4166.153809,4207.179688,4206.666504,4208.717773,4210.769043
20,4216.922852,4250.769043,4221.538574,4226.153809,4191.282227,4199.487305,4222.05127,4221.538574,4220.0,4190.256348,4219.487305,4222.563965,4225.641113,4223.077148
21,4211.794922,4240.0,4216.922852,4223.077148,4189.230957,4202.05127,4219.487305,4225.641113,4218.461426,4179.487305,4207.692383,4215.897461,4215.384766,4217.436035
22,4202.05127,4226.666504,4204.615234,4211.794922,4183.077148,4201.025879,4214.358887,4224.102539,4204.102539,4152.307617,4183.589844,4202.563965,4194.871582,4203.077148
23,4203.589844,4232.307617,4206.153809,4212.820313,4183.589844,4192.307617,4206.666504,4219.487305,4210.256348,4151.794922,4191.282227,4205.128418,4198.461426,4203.077148
24,4206.153809,4236.922852,4209.743652,4214.358887,4187.179688,4189.743652,4195.384766,4213.333496,4214.871582,4166.666504,4204.615234,4209.230957,4199.487305,4206.666504
25,4202.05127,4229.230957,4201.538574,4205.641113,4186.153809,4196.922852,4189.230957,4207.692383,4206.666504,4171.282227,4189.743652,4201.538574,4183.077148,4197.436035
26,4200.0,4228.717773,4197.94873,4207.692383,4185.641113,4200.0,4191.794922,4205.128418,4200.512695,4167.692383,4180.0,4196.922852,4180.0,4194.358887
27,4196.922852,4232.307617,4201.025879,4213.333496,4188.205078,4198.974121,4198.974121,4205.128418,4198.461426,4155.897461,4187.179688,4193.846191,4188.717773,4201.025879
28,4188.717773,4223.077148,4193.846191,4204.615234,4187.179688,4201.538574,4202.563965,4201.538574,4194.871582,4149.230957,4184.615234,4185.128418,4186.666504,4193.333496
29,4181.025879,4213.846191,4184.615234,4196.922852,4186.153809,4200.512695,4196.922852,4197.436035,4196.922852,4161.538574,4180.0,4185.128418,4182.563965,4182.05127
30,4181.025879,4223.077148,4186.666504,4201.025879,4185.128418,4191.282227,4187.692383,4201.025879,4201.538574,4174.358887,4190.256348,4192.820313,4187.692383,4189.230957
31,4183.077148,4232.820313,4186.666504,4202.05127,4182.05127,4185.641113,4186.153809,4201.025879,4198.974121,4173.846191,4197.94873,4193.846191,4194.358887,4193.333496
32,4182.563965,4227.692383,4184.615234,4200.0,4181.025879,4188.205078,4188.717773,4200.0,4204.102539,4178.974121,4195.897461,4192.307617,4200.512695,4182.563965
33,4191.794922,4230.769043,4193.846191,4209.230957,4186.153809,4189.230957,4189.743652,4209.230957,4217.94873,4189.743652,4201.538574,4195.897461,4208.717773,4190.256348
34,4203.077148,4241.538574,4202.05127,4214.871582,4190.769043,4185.641113,4189.230957,4216.410156,4217.94873,4189.743652,4211.794922,4202.05127,4211.794922,4211.794922
35,4202.563965,4238.974121,4198.461426,4208.205078,4188.205078,4186.666504,4188.205078,4206.666504,4205.641113,4184.615234,4206.666504,4202.563965,4207.692383,4212.307617
36,4195.384766,4232.307617,4193.846191,4205.128418,4184.615234,4191.282227,4189.743652,4199.487305,4202.05127,4180.512695,4191.794922,4197.94873,4197.436035,4196.922852
37,4191.794922,4235.384766,4192.307617,4205.641113,4185.128418,4191.282227,4193.846191,4204.102539,4205.128418,4184.615234,4188.205078,4198.974121,4187.692383,4189.230957
38,4188.205078,4230.769043,4188.717773,4200.0,4183.589844,4189.230957,4190.769043,4202.05127,4202.563965,4179.487305,4185.128418,4197.94873,4178.461426,4185.641113
39,4181.025879,4216.410156,4185.128418,4195.897461,4180.0,4188.205078,4185.128418,4197.94873,4197.94873,4156.922852,4179.487305,4187.692383,4173.846191,4176.410156
40,4178.461426,4213.846191,4184.102539,4199.487305,4182.563965,4189.230957,4187.179688,4201.025879,4196.410156,4152.820313,4182.563965,4182.563965,4172.820313,4170.256348
41,4182.563965,4220.0,4183.589844,4197.94873,4185.128418,4193.846191,4193.333496,4202.563965,4199.487305,4169.743652,4180.512695,4186.666504,4170.256348,4169.230957
42,4182.563965,4218.461426,4183.589844,4195.897461,4180.0,4200.0,4196.922852,4200.0,4198.461426,4174.871582,4174.358887,4189.230957,4174.871582,4170.769043
43,4175.384766,4213.846191,4182.05127,4197.94873,4179.487305,4197.94873,4197.94873,4200.0,4190.769043,4167.179688,4180.512695,4187.179688,4182.563965,4168.205078
44,4174.871582,4215.384766,4181.025879,4200.512695,4186.666504,4193.333496,4196.410156,4202.563965,4190.256348,4166.666504,4190.769043,4187.179688,4186.153809,4168.717773
45,4184.615234,4222.05127,4186.153809,4201.025879,4189.743652,4195.897461,4200.0,4203.589844,4200.0,4181.025879,4195.384766,4194.358887,4192.307617,4177.94873
46,4193.333496,4230.256348,4194.871582,4202.05127,4188.205078,4198.974121,4203.077148,4202.563965,4207.692383,4198.461426,4202.05127,4205.128418,4200.0,4186.153809
47,4200.0,4235.384766,4202.563965,4204.615234,4189.230957,4201.025879,4201.538574,4206.153809,4215.384766,4205.128418,4212.307617,4215.897461,4204.615234,4193.846191
48,4205.641113,4234.871582,4206.153809,4205.641113,4189.230957,4201.025879,4202.05127,4209.743652,4223.077148,4206.153809,4212.820313,4217.436035,4205.641113,4197.436035
49,4201.025879,4229.230957,4199.487305,4203.589844,4186.666504,4197.436035,4202.563965,4203.077148,4213.846191,4201.025879,4198.461426,4207.179688,4196.922852,4193.333496
50,4189.743652,4220.0,4189.230957,4195.897461,4186.153809,4195.384766,4197.436035,4197.94873,4197.436035,4186.153809,4181.538574,4195.384766,4177.436035,4182.563965
51,4186.153809,4216.922852,4186.666504,4188.717773,4188.205078,4198.461426,4189.230957,4198.974121,4195.384766,4182.05127,4179.487305,4188.717773,4168.205078,4173.333496
52,4188.717773,4224.102539,4187.692383,4192.307617,4188.717773,4198.461426,4185.641113,4190.769043,4192.307617,4186.153809,4182.563965,4185.128418,4172.307617,4169.230957
53,4189.743652,4229.230957,4186.153809,4201.538574,4188.205078,4197.94873,4190.256348,4182.563965,4184.615234,4180.512695,4180.512695,4188.205078,4176.922852,4172.820313
54,4188.205078,4226.666504,4187.179688,4199.487305,4186.153809,4202.563965,4199.487305,4193.846191,4193.333496,4185.641113,4184.615234,4197.94873,4183.077148,4178.461426
55,4187.179688,4221.025879,4187.692383,4189.230957,4186.153809,4202.563965,4203.077148,4201.025879,4205.128418,4197.94873,4188.205078,4196.922852,4187.692383,4172.820313
56,4182.563965,4214.871582,4182.563965,4184.615234,4185.128418,4198.974121,4199.487305,4197.94873,4204.615234,4198.974121,4187.692383,4187.179688,4188.205078,4174.871582
57,4183.589844,4217.94873,4179.487305,4188.717773,4184.102539,4197.436035,4198.461426,4206.153809,4212.820313,4206.666504,4193.333496,4189.230957,4190.769043,4187.692383
58,4195.897461,4230.256348,4185.128418,4197.436035,4191.282227,4198.974121,4202.05127,4213.333496,4221.025879,4221.538574,4203.077148,4200.0,4199.487305,4193.333496
59,4204.102539,4236.410156,4190.769043,4202.05127,4203.077148,4200.0,4203.589844,4207.692383,4209.230957,4221.538574,4200.512695,4201.538574,4203.077148,4192.820313
60,4201.538574,4233.333496,4190.256348,4201.538574,4203.589844,4200.0,4197.94873,4203.077148,4196.410156,4214.871582,4200.0,4200.512695,4203.589844,4197.94873
61,4200.0,4231.794922,4187.179688,4201.538574,4200.0,4201.538574,4196.410156,4202.563965,4200.512695,4210.256348,4207.179688,4203.589844,4204.615234,4203.589844
62,4204.615234,4233.846191,4187.692383,4200.0,4201.538574,4202.563965,4198.974121,4202.05127,4207.179688,4206.153809,4201.025879,4199.487305,4195.384766,4199.487305
63,4204.615234,4233.846191,4192.820313,4198.974121,4195.384766,4202.563965,4192.820313,4200.0,4201.538574,4203.077148,4188.205078,4193.846191,4182.05127,4189.743652
64,4203.589844,4232.307617,4194.358887,4198.974121,4184.102539,4198.974121,4184.615234,4192.820313,4189.743652,4193.333496,4186.153809,4195.897461,4185.128418,4184.615234
65,4206.153809,4231.794922,4195.384766,4200.512695,4184.102539,4188.717773,4185.641113,4185.641113,4184.615234,4192.307617,4188.717773,4200.0,4192.307617,4196.922852
66,4204.615234,4229.743652,4194.358887,4198.974121,4185.128418,4180.0,4186.666504,4185.641113,4181.025879,4200.0,4184.102539,4197.436035,4185.641113,4199.487305
67,4201.025879,4223.077148,4189.230957,4191.282227,4181.538574,4181.538574,4182.563965,4184.615234,4173.846191,4188.205078,4179.487305,4188.717773,4178.974121,4185.641113
68,4198.461426,4218.461426,4180.512695,4185.641113,4183.077148,4185.128418,4182.05127,4186.153809,4184.102539,4178.461426,4181.025879,4184.615234,4183.589844,4185.128418
69,4190.256348,4216.922852,4174.871582,4186.666504,4186.153809,4183.077148,4182.563965,4193.846191,4201.538574,4195.897461,4184.615234,4186.666504,4185.641113,4189.230957
70,4184.615234,4218.974121,4178.461426,4185.641113,4185.641113,4182.563965,4183.589844,4198.461426,4205.128418,4206.153809,4188.717773,4186.153809,4183.589844,4184.102539
71,4186.153809,4224.102539,4183.589844,4187.692383,4185.641113,4186.666504,4186.666504,4199.487305,4203.077148,4196.410156,4187.179688,4186.153809,4185.641113,4183.077148
72,4185.641113,4221.538574,4183.077148,4192.820313,4186.153809,4185.641113,4184.615234,4196.410156,4196.410156,4192.820313,4184.615234,4185.641113,4187.179688,4184.102539
73,4189.230957,4216.922852,4181.538574,4191.794922,4185.641113,4183.077148,4183.077148,4188.717773,4183.077148,4196.410156,4190.769043,4188.717773,4186.666504,4185.641113
74,4195.897461,4223.589844,4183.589844,4187.692383,4186.153809,4184.102539,4183.589844,4184.615234,4178.974121,4199.487305,4197.436035,4193.333496,4195.897461,4191.794922
75,4195.384766,4231.794922,4184.102539,4187.692383,4186.666504,4185.128418,4182.563965,4186.153809,4188.205078,4203.077148,4196.410156,4190.769043,4200.512695,4192.820313
76,4195.384766,4229.230957,4181.538574,4191.282227,4188.717773,4190.256348,4183.589844,4191.794922,4196.922852,4204.102539,4196.922852,4191.794922,4191.794922,4194.871582
77,4205.641113,4230.256348,4184.102539,4196.922852,4190.769043,4196.922852,4185.641113,4196.922852,4201.538574,4207.179688,4202.563965,4199.487305,4192.820313,4202.05127
78,4213.846191,4242.563965,4192.307617,4204.615234,4193.846191,4200.0,4186.666504,4198.974121,4207.179688,4216.410156,4200.512695,4204.102539,4205.128418,4202.563965
79,4216.922852,4249.743652,4200.512695,4207.179688,4197.94873,4198.461426,4187.692383,4199.487305,4204.615234,4220.0,4198.974121,4210.256348,4204.615234,4206.153809
80,4224.615234,4245.641113,4207.692383,4208.205078,4198.974121,4198.461426,4192.820313,4198.974121,4198.974121,4215.384766,4209.743652,4217.94873,4200.0,4217.436035
81,4231.794922,4244.615234,4212.820313,4214.358887,4196.922852,4198.974121,4198.974121,4203.589844,4208.205078,4215.384766,4213.333496,4222.05127,4205.128418,4220.512695
82,4227.692383,4242.563965,4210.769043,4213.846191,4198.461426,4200.0,4202.05127,4210.256348,4216.410156,4214.871582,4204.102539,4220.512695,4201.025879,4217.94873
83,4217.436035,4233.333496,4201.538574,4204.615234,4202.05127,4207.692383,4202.05127,4209.230957,4208.205078,4203.589844,4197.94873,4213.846191,4192.820313,4215.384766
84,4214.871582,4236.410156,4200.0,4205.641113,4204.615234,4215.384766,4202.563965,4202.563965,4207.179688,4197.94873,4200.512695,4209.743652,4198.461426,4211.794922
85,4216.410156,4246.666504,4203.589844,4215.897461,4208.205078,4212.820313,4202.563965,4202.563965,4209.230957,4203.589844,4205.641113,4215.384766,4204.615234,4212.307617
86,4215.897461,4243.077148,4201.025879,4215.897461,4212.820313,4208.717773,4201.538574,4201.025879,4200.512695,4209.230957,4204.615234,4216.410156,4202.05127,4216.410156
87,4214.871582,4241.538574,4198.461426,4211.282227,4216.410156,4212.307617,4200.0,4197.94873,4203.589844,4214.358887,4202.05127,4212.307617,4204.102539,4214.358887
88,4217.94873,4250.769043,4206.666504,4214.871582,4214.358887,4214.871582,4199.487305,4201.025879,4216.410156,4219.487305,4210.256348,4217.436035,4212.820313,4212.820313
89,4225.641113,4252.820313,4212.820313,4217.436035,4212.307617,4215.384766,4204.615234,4202.563965,4217.436035,4218.461426,4220.512695,4225.128418,4217.436035,4223.589844
90,4226.153809,4249.230957,4207.179688,4216.922852,4210.256348,4215.897461,4206.153809,4201.025879,4210.769043,4208.205078,4213.846191,4222.563965,4214.358887,4231.794922
91,4225.128418,4250.256348,4207.179688,4215.384766,4204.615234,4212.820313,4200.0,4197.436035,4206.666504,4204.615234,4206.153809,4218.461426,4210.256348,4228.205078
92,4229.743652,4250.769043,4214.871582,4213.846191,4202.563965,4212.820313,4205.641113,4200.0,4211.794922,4214.358887,4213.846191,4224.615234,4214.871582,4225.128418
93,4227.179688,4248.717773,4212.307617,4214.871582,4204.615234,4217.436035,4217.94873,4207.692383,4225.641113,4220.0,4216.410156,4229.743652,4215.384766,4225.128418
94,4221.025879,4245.641113,4207.179688,4214.358887,4203.589844,4218.461426,4215.897461,4208.717773,4227.692383,4215.897461,4211.794922,4225.641113,4204.615234,4226.153809
95,4226.666504,4245.128418,4211.794922,4212.307617,4206.666504,4215.384766,4210.256348,4210.769043,4224.102539,4216.410156,4215.384766,4225.641113,4204.615234,4231.282227
96,4234.871582,4253.846191,4218.974121,4217.436035,4214.871582,4216.410156,4214.871582,4218.461426,4230.256348,4219.487305,4221.538574,4234.358887,4215.897461,4236.922852
97,4234.871582,4263.077148,4219.487305,4226.153809,4217.94873,4221.538574,4220.512695,4220.512695,4232.820313,4217.94873,4221.538574,4235.897461,4221.538574,4233.846191
98,4233.333496,4256.922852,4217.94873,4223.077148,4216.410156,4221.025879,4221.538574,4214.871582,4223.077148,4218.974121,4217.436035,4226.666504,4215.384766,4227.692383
99,4228.717773,4246.666504,4213.846191,4214.358887,4213.846191,4214.871582,4211.282227,4204.615234,4210.769043,4216.922852,4211.794922,4217.436035,4208.717773,4223.589844
100,4227.179688,4246.153809,4208.205078,4213.846191,4212.820313,4211.282227,4201.025879,4198.461426,4209.743652,4212.820313,4209.743652,4217.94873,4208.717773,4226.666504
101,4228.717773,4248.717773,4209.743652,4216.922852,4215.897461,4216.922852,4208.205078,4208.205078,4216.922852,4215.897461,4213.333496,4219.487305,4207.179688,4228.717773
102,4222.05127,4249.743652,4211.282227,4216.410156,4217.436035,4221.538574,4211.794922,4212.820313,4220.0,4215.897461,4213.333496,4218.461426,4205.128418,4221.538574
103,4217.436035,4250.769043,4205.641113,4213.333496,4210.769043,4214.358887,4201.025879,4204.615234,4215.384766,4212.820313,4211.794922,4216.922852,4210.769043,4220.0
104,4224.615234,4246.153809,4205.128418,4210.769043,4203.077148,4206.666504,4196.410156,4207.179688,4215.897461,4217.436035,4212.820313,4217.94873,4219.487305,4228.717773
105,4230.256348,4239.487305,4212.307617,4212.307617,4208.205078,4209.743652,4202.563965,4216.410156,4218.461426,4219.487305,4215.384766,4224.102539,4221.025879,4231.794922
106,4231.282227,4243.589844,4216.410156,4217.94873,4215.897461,4214.871582,4206.153809,4213.333496,4215.384766,4214.871582,4217.94873,4231.282227,4222.05127,4231.794922
107,4230.256348,4246.153809,4214.358887,4215.384766,4209.230957,4213.846191,4204.102539,4206.666504,4212.307617,4215.384766,4217.436035,4226.666504,4220.512695,4232.820313
108,4217.94873,4232.820313,4205.641113,4206.153809,4201.025879,4212.820313,4201.025879,4207.692383,4212.307617,4213.333496,4210.769043,4213.333496,4211.794922,4227.692383
109,4212.307617,4227.692383,4199.487305,4205.641113,4209.743652,4215.384766,4206.666504,4212.820313,4217.436035,4213.333496,4208.717773,4216.922852,4215.384766,4226.666504
110,4225.641113,4245.128418,4209.230957,4219.487305,4219.487305,4219.487305,4220.512695,4214.871582,4225.641113,4222.563965,4220.512695,4229.230957,4231.282227,4235.897461
111,4236.410156,4257.436035,4217.436035,4226.153809,4217.94873,4221.025879,4218.974121,4206.153809,4222.563965,4227.692383,4232.307617,4228.717773,4238.461426,4235.384766
112,4229.743652,4250.256348,4210.769043,4221.025879,4213.846191,4211.282227,4203.077148,4196.410156,4206.666504,4217.436035,4226.153809,4218.461426,4230.256348,4225.128418
113,4226.666504,4246.666504,4210.256348,4224.615234,4213.846191,4205.128418,4199.487305,4196.922852,4203.589844,4212.307617,4225.641113,4218.974121,4226.666504,4224.102539
114,4234.358887,4252.307617,4217.436035,4229.230957,4218.974121,4214.358887,4210.256348,4202.563965,4216.410156,4228.205078,4230.256348,4226.666504,4233.333496,4226.666504
115,4231.794922,4251.282227,4213.333496,4221.025879,4220.0,4220.0,4211.282227,4202.563965,4222.05127,4237.94873,4220.0,4224.615234,4229.230957,4218.461426
116,4221.025879,4247.179688,4204.102539,4215.384766,4211.282227,4215.897461,4202.563965,4198.461426,4218.461426,4224.615234,4215.384766,4215.384766,4225.128418,4213.333496
117,4224.102539,4245.641113,4207.179688,4216.410156,4209.230957,4210.256348,4199.487305,4200.0,4217.94873,4215.384766,4228.205078,4215.384766,4231.794922,4222.05127
118,4231.794922,4248.205078,4214.871582,4215.897461,4214.871582,4203.589844,4200.512695,4200.512695,4216.410156,4224.102539,4230.769043,4223.077148,4234.358887,4230.256348
119,4234.871582,4257.436035,4218.461426,4222.05127,4212.307617,4198.461426,4200.512695,4200.0,4211.282227,4230.769043,4227.179688,4234.871582,4236.410156,4237.436035
120,4241.538574,4261.538574,4220.512695,4233.333496,4208.205078,4205.128418,4207.179688,4204.102539,4216.410156,4233.846191,4238.461426,4242.563965,4249.230957,4247.179688
121,4242.563965,4253.846191,4221.025879,4229.743652,4213.846191,4213.846191,4214.871582,4206.153809,4217.94873,4232.307617,4239.487305,4242.05127,4249.230957,4247.179688
122,4232.820313,4247.692383,4216.410156,4216.410156,4216.922852,4215.897461,4212.820313,4200.0,4204.102539,4214.871582,4223.077148,4233.846191,4230.256348,4236.410156
123,4229.743652,4248.205078,4214.871582,4219.487305,4214.871582,4217.94873,4212.820313,4198.974121,4204.102539,4205.128418,4216.922852,4230.256348,4227.179688,4232.307617
124,4233.846191,4248.717773,4217.436035,4230.769043,4217.94873,4218.974121,4214.871582,4203.589844,4214.358887,4212.820313,4220.0,4230.256348,4232.307617,4232.307617
125,4229.743652,4246.153809,4213.846191,4227.692383,4217.94873,4214.871582,4206.666504,4202.563965,4208.205078,4210.769043,4216.922852,4229.743652,4223.077148,4226.153809
126,4220.0,4245.128418,4206.666504,4218.974121,4213.333496,4204.102539,4198.461426,4199.487305,4198.974121,4205.641113,4214.871582,4231.794922,4221.025879,4219.487305
127,4215.384766,4244.102539,4201.538574,4217.94873,4215.897461,4198.974121,4196.922852,4197.436035,4200.512695,4213.333496,4217.436035,4227.179688,4227.692383,4211.794922
