,AF3,F7,F3,FC5,T7,P7,O1,O2,P8,T8,FC6,F4,F8,AF4
0,4144.102539,4167.692383,4200.0,4198.461426,4199.487305,4184.615234,4143.589844,4120.512695,4172.820313,4182.05127,4200.512695,4187.692383,4155.384766,4173.846191
1,4138.461426,4154.358887,4200.0,4191.794922,4196.922852,4183.589844,4152.307617,4121.538574,4170.256348,4181.538574,4197.436035,4184.102539,4148.205078,4169.230957
2,4158.461426,4154.358887,4201.025879,4194.358887,4196.922852,4189.743652,4155.384766,4132.307617,4180.512695,4183.589844,4197.436035,4188.205078,4142.05127,4169.230957
3,4163.077148,4163.589844,4201.025879,4201.538574,4199.487305,4196.922852,4155.897461,4137.94873,4186.153809,4184.102539,4198.461426,4190.769043,4145.128418,4171.282227
4,4156.410156,4170.769043,4197.94873,4200.0,4198.974121,4194.358887,4153.846191,4130.256348,4182.563965,4183.077148,4198.974121,4189.230957,4152.820313,4171.282227
5,4152.820313,4165.128418,4197.436035,4191.282227,4195.897461,4186.666504,4144.102539,4124.102539,4181.538574,4182.05127,4198.461426,4186.666504,4158.461426,4168.717773
6,4140.0,4152.820313,4201.538574,4186.666504,4196.922852,4186.666504,4138.461426,4127.179688,4184.102539,4184.615234,4191.794922,4184.102539,4165.128418,4167.692383
7,4137.436035,4157.436035,4204.102539,4186.153809,4200.0,4189.743652,4141.025879,4128.205078,4184.615234,4185.641113,4187.179688,4183.077148,4176.410156,4164.102539
8,4155.897461,4170.769043,4199.487305,4186.153809,4199.487305,4187.179688,4142.05127,4124.615234,4185.128418,4182.05127,4188.205078,4183.077148,4189.743652,4159.487305
9,4152.820313,4167.179688,4198.974121,4183.589844,4197.436035,4185.641113,4142.563965,4124.615234,4186.666504,4183.077148,4187.692383,4178.461426,4197.436035,4156.922852
10,4131.794922,4164.102539,4202.563965,4184.102539,4198.461426,4185.128418,4141.538574,4123.077148,4186.153809,4182.05127,4183.589844,4174.358887,4198.974121,4156.922852
11,4138.461426,4177.436035,4201.538574,4192.820313,4199.487305,4182.05127,4141.025879,4120.512695,4175.897461,4173.846191,4184.102539,4178.461426,4204.615234,4162.05127
12,4158.974121,4186.153809,4198.461426,4201.538574,4200.512695,4181.538574,4147.179688,4123.077148,4168.717773,4174.358887,4192.820313,4185.128418,4215.897461,4172.307617
13,4166.666504,4188.717773,4201.538574,4204.102539,4208.205078,4185.128418,4153.846191,4133.846191,4176.410156,4183.589844,4200.512695,4192.820313,4220.512695,4181.538574
14,4161.538574,4195.897461,4201.538574,4203.077148,4213.333496,4187.692383,4158.461426,4148.717773,4187.179688,4188.717773,4202.563965,4201.025879,4218.974121,4184.615234
15,4163.589844,4200.0,4197.436035,4202.05127,4206.666504,4190.256348,4162.05127,4149.743652,4186.153809,4186.666504,4202.05127,4200.0,4216.922852,4183.589844
16,4174.871582,4198.974121,4197.436035,4201.025879,4200.0,4197.436035,4160.0,4145.128418,4186.153809,4186.666504,4202.563965,4194.358887,4217.436035,4182.563965
17,4176.410156,4194.358887,4203.077148,4196.410156,4201.538574,4203.589844,4155.897461,4150.256348,4195.897461,4192.820313,4202.05127,4198.974121,4218.461426,4184.102539
18,4167.179688,4194.358887,4203.077148,4191.794922,4202.05127,4204.102539,4158.461426,4155.897461,4201.538574,4200.0,4202.563965,4200.512695,4217.94873,4184.615234
19,4167.179688,4194.871582,4197.436035,4189.230957,4200.512695,4203.589844,4165.641113,4152.820313,4199.487305,4201.025879,4202.563965,4190.769043,4217.436035,4183.077148
20,4171.794922,4190.256348,4196.410156,4188.205078,4201.538574,4204.615234,4168.717773,4149.743652,4200.512695,4199.487305,4201.025879,4185.128418,4216.410156,4182.05127
21,4153.846191,4184.615234,4199.487305,4187.692383,4201.025879,4204.615234,4165.128418,4151.794922,4205.128418,4201.538574,4205.128418,4190.769043,4214.871582,4180.512695
22,4146.666504,4191.794922,4200.0,4192.820313,4202.05127,4204.102539,4165.128418,4155.897461,4203.589844,4202.563965,4212.820313,4199.487305,4220.0,4185.641113
23,4177.94873,4201.538574,4198.461426,4199.487305,4204.102539,4203.077148,4171.282227,4160.0,4200.512695,4201.025879,4217.436035,4201.025879,4229.230957,4196.922852
24,4190.769043,4204.102539,4197.436035,4198.974121,4204.615234,4200.512695,4166.153809,4158.461426,4200.512695,4201.538574,4217.436035,4202.05127,4232.307617,4202.05127
25,4180.0,4209.230957,4197.94873,4200.0,4209.230957,4199.487305,4159.487305,4157.94873,4197.94873,4202.05127,4218.461426,4208.205078,4231.794922,4201.538574
26,4189.743652,4216.922852,4201.538574,4208.717773,4213.846191,4202.563965,4167.179688,4163.589844,4195.897461,4201.538574,4221.025879,4215.384766,4232.307617,4209.230957
27,4201.538574,4215.897461,4201.025879,4212.307617,4208.717773,4203.077148,4173.333496,4162.05127,4194.871582,4200.512695,4220.0,4218.461426,4230.769043,4217.94873
28,4197.94873,4211.794922,4197.94873,4205.128418,4201.538574,4201.025879,4168.717773,4156.410156,4195.384766,4200.0,4216.922852,4214.871582,4232.307617,4213.846191
29,4195.384766,4214.358887,4197.436035,4197.94873,4202.05127,4206.153809,4168.205078,4154.358887,4198.974121,4200.512695,4216.410156,4205.128418,4233.333496,4205.641113
30,4182.563965,4208.205078,4197.94873,4191.794922,4202.563965,4214.871582,4169.743652,4153.846191,4198.974121,4201.025879,4213.846191,4198.974121,4222.563965,4201.538574
31,4169.230957,4196.410156,4195.384766,4185.128418,4199.487305,4216.410156,4168.717773,4158.461426,4201.025879,4202.05127,4208.205078,4197.94873,4211.794922,4198.461426
32,4188.205078,4203.077148,4194.871582,4187.179688,4201.025879,4216.410156,4175.897461,4168.717773,4210.769043,4204.615234,4211.794922,4202.05127,4214.358887,4199.487305
33,4188.717773,4202.05127,4198.461426,4189.230957,4208.717773,4217.436035,4183.589844,4170.256348,4217.436035,4205.128418,4213.846191,4198.974121,4213.333496,4196.922852
34,4151.282227,4182.563965,4201.025879,4180.512695,4210.769043,4217.436035,4183.077148,4165.641113,4211.794922,4201.538574,4203.077148,4188.205078,4200.0,4184.102539
35,4156.922852,4188.717773,4200.0,4180.512695,4205.641113,4213.846191,4178.974121,4165.641113,4206.153809,4200.512695,4201.538574,4191.794922,4196.922852,4188.205078
36,4200.0,4216.410156,4197.94873,4195.384766,4208.205078,4207.179688,4177.94873,4163.077148,4203.589844,4201.025879,4214.871582,4207.179688,4205.128418,4210.769043
37,4197.436035,4223.077148,4200.512695,4203.589844,4215.897461,4201.025879,4176.922852,4156.410156,4195.897461,4197.94873,4214.871582,4212.307617,4203.589844,4214.358887
38,4178.461426,4216.922852,4200.512695,4202.05127,4213.846191,4203.077148,4177.436035,4156.922852,4190.769043,4196.410156,4208.717773,4211.794922,4196.922852,4205.641113
39,4194.871582,4217.94873,4199.487305,4203.077148,4210.769043,4210.256348,4184.615234,4163.077148,4195.384766,4198.461426,4213.333496,4216.410156,4203.589844,4211.282227
40,4204.615234,4218.974121,4200.0,4203.077148,4214.358887,4211.282227,4187.692383,4167.692383,4200.0,4200.512695,4218.974121,4220.0,4213.846191,4219.487305
41,4195.384766,4220.512695,4201.025879,4202.05127,4217.94873,4212.820313,4186.153809,4167.692383,4201.025879,4202.05127,4220.0,4221.025879,4215.897461,4220.512695
42,4196.410156,4222.05127,4199.487305,4198.461426,4216.922852,4217.436035,4186.666504,4161.025879,4203.077148,4203.589844,4215.897461,4212.820313,4209.230957,4213.846191
43,4185.641113,4211.282227,4201.025879,4189.230957,4210.769043,4216.922852,4187.692383,4157.94873,4203.077148,4197.94873,4203.077148,4196.410156,4193.846191,4194.871582
44,4168.205078,4200.0,4200.512695,4181.538574,4203.589844,4214.358887,4186.153809,4164.615234,4202.05127,4192.307617,4195.897461,4189.743652,4184.615234,4183.589844
45,4172.307617,4202.05127,4198.974121,4179.487305,4204.102539,4215.897461,4186.666504,4169.743652,4203.077148,4191.282227,4198.974121,4188.717773,4185.128418,4189.230957
46,4169.230957,4201.538574,4198.461426,4175.384766,4205.128418,4216.410156,4187.692383,4164.102539,4201.538574,4186.666504,4193.846191,4184.615234,4181.538574,4186.153809
47,4156.410156,4200.0,4200.0,4177.436035,4204.102539,4213.846191,4187.179688,4162.05127,4200.0,4187.179688,4193.333496,4187.692383,4184.102539,4180.0
48,4173.846191,4215.897461,4200.0,4192.820313,4209.743652,4215.897461,4187.179688,4170.256348,4203.077148,4201.025879,4208.205078,4204.102539,4203.589844,4193.846191
49,4197.94873,4235.897461,4200.512695,4204.615234,4217.94873,4220.0,4187.179688,4171.282227,4203.589844,4209.743652,4217.94873,4217.436035,4215.384766,4211.794922
50,4204.102539,4235.897461,4201.025879,4205.128418,4217.94873,4213.333496,4181.025879,4164.615234,4201.538574,4209.743652,4221.025879,4219.487305,4214.871582,4218.461426
51,4209.230957,4232.820313,4200.0,4204.102539,4215.384766,4204.102539,4173.333496,4165.641113,4201.538574,4214.871582,4231.282227,4223.589844,4218.974121,4225.128418
52,4215.384766,4239.487305,4201.025879,4206.153809,4216.410156,4205.641113,4172.307617,4168.205078,4201.538574,4215.384766,4236.922852,4225.641113,4224.615234,4231.282227
53,4202.05127,4233.333496,4201.538574,4204.615234,4215.384766,4212.307617,4169.743652,4158.461426,4198.974121,4204.615234,4223.077148,4214.871582,4218.461426,4219.487305
54,4178.461426,4214.871582,4202.05127,4198.461426,4212.820313,4213.333496,4166.666504,4150.769043,4197.94873,4196.410156,4204.615234,4200.512695,4201.538574,4200.0
55,4170.769043,4209.743652,4202.563965,4194.871582,4216.922852,4216.922852,4172.820313,4156.922852,4199.487305,4196.922852,4201.538574,4198.461426,4186.153809,4190.769043
56,4171.794922,4212.307617,4200.512695,4188.205078,4214.871582,4220.512695,4181.538574,4165.128418,4201.025879,4195.897461,4197.436035,4195.897461,4181.025879,4186.666504
57,4170.256348,4205.128418,4196.922852,4181.025879,4205.128418,4220.512695,4182.563965,4167.179688,4201.025879,4192.820313,4188.205078,4190.256348,4184.615234,4182.563965
58,4169.743652,4194.871582,4197.94873,4181.538574,4207.692383,4223.589844,4183.589844,4169.230957,4203.589844,4193.846191,4189.230957,4193.846191,4182.05127,4185.641113
59,4170.256348,4197.94873,4199.487305,4185.641113,4212.307617,4224.102539,4187.179688,4174.358887,4209.230957,4197.94873,4198.461426,4203.589844,4182.05127,4191.794922
60,4174.358887,4209.743652,4199.487305,4191.282227,4208.717773,4218.974121,4187.692383,4178.461426,4213.333496,4200.0,4205.128418,4211.794922,4192.307617,4198.461426
61,4194.871582,4218.461426,4198.461426,4197.94873,4209.743652,4218.461426,4186.153809,4181.025879,4213.333496,4202.05127,4212.820313,4221.538574,4203.589844,4209.743652
62,4215.384766,4220.512695,4197.94873,4202.05127,4213.333496,4219.487305,4186.153809,4183.077148,4213.333496,4206.666504,4222.05127,4231.282227,4211.282227,4221.025879
63,4207.179688,4219.487305,4198.974121,4202.563965,4210.256348,4214.871582,4185.641113,4185.641113,4214.871582,4208.205078,4224.102539,4233.333496,4212.307617,4220.0
64,4200.0,4216.922852,4201.538574,4201.025879,4209.230957,4212.820313,4184.102539,4185.128418,4209.743652,4203.077148,4221.025879,4232.820313,4206.666504,4217.436035
65,4204.102539,4214.871582,4198.461426,4203.077148,4212.307617,4216.922852,4185.128418,4182.563965,4202.05127,4199.487305,4217.436035,4230.256348,4196.410156,4216.922852
66,4192.307617,4216.922852,4197.94873,4209.230957,4214.358887,4217.94873,4189.743652,4182.05127,4201.025879,4198.461426,4211.794922,4223.589844,4188.205078,4208.717773
67,4180.0,4209.743652,4201.538574,4201.025879,4210.769043,4217.436035,4193.846191,4181.538574,4203.077148,4193.333496,4205.641113,4216.922852,4185.641113,4198.974121
68,4182.05127,4201.025879,4200.512695,4187.692383,4205.128418,4217.94873,4197.436035,4180.0,4200.512695,4185.641113,4196.410156,4211.794922,4179.487305,4195.897461
69,4183.077148,4203.589844,4198.974121,4192.820313,4207.692383,4217.436035,4200.0,4178.461426,4199.487305,4185.128418,4193.846191,4209.230957,4169.743652,4190.769043
70,4182.05127,4209.230957,4201.025879,4202.05127,4212.820313,4217.436035,4201.538574,4176.922852,4203.077148,4192.307617,4197.436035,4207.179688,4169.743652,4187.179688
71,4174.871582,4207.692383,4202.05127,4199.487305,4206.153809,4217.436035,4199.487305,4173.846191,4204.615234,4198.461426,4200.512695,4208.717773,4183.589844,4192.307617
72,4165.128418,4204.615234,4202.05127,4196.410156,4198.974121,4210.769043,4190.769043,4171.282227,4204.615234,4200.0,4202.563965,4214.358887,4188.717773,4200.0
73,4178.461426,4209.230957,4204.102539,4198.461426,4201.025879,4202.563965,4183.077148,4168.205078,4203.077148,4200.0,4202.563965,4215.384766,4184.102539,4203.589844
74,4204.102539,4217.436035,4202.05127,4199.487305,4203.589844,4201.538574,4183.077148,4165.641113,4197.94873,4199.487305,4208.717773,4215.384766,4187.692383,4209.230957
75,4211.282227,4220.512695,4198.461426,4201.538574,4201.025879,4206.666504,4185.641113,4168.205078,4201.538574,4202.05127,4216.922852,4223.077148,4198.974121,4217.436035
76,4208.205078,4222.05127,4199.487305,4208.717773,4204.615234,4210.769043,4185.128418,4173.846191,4213.846191,4208.717773,4218.974121,4232.820313,4201.538574,4224.615234
77,4214.358887,4230.769043,4204.102539,4216.410156,4210.769043,4211.794922,4186.153809,4178.974121,4211.794922,4212.820313,4224.615234,4233.846191,4202.05127,4235.897461
78,4226.153809,4230.256348,4203.077148,4218.461426,4206.666504,4210.256348,4192.820313,4183.077148,4203.589844,4210.256348,4231.794922,4233.846191,4209.230957,4246.666504
79,4230.256348,4217.436035,4200.0,4213.846191,4201.025879,4207.179688,4198.974121,4186.666504,4212.307617,4205.641113,4231.794922,4236.922852,4214.871582,4250.256348
80,4222.05127,4213.333496,4199.487305,4207.179688,4197.94873,4204.102539,4198.974121,4186.666504,4215.384766,4204.102539,4229.230957,4236.410156,4210.769043,4245.128418
81,4216.410156,4210.769043,4199.487305,4198.461426,4192.307617,4201.538574,4194.358887,4184.102539,4204.102539,4202.05127,4224.102539,4233.846191,4204.615234,4240.0
82,4217.94873,4211.794922,4198.461426,4198.461426,4192.307617,4204.615234,4190.256348,4182.05127,4207.179688,4201.025879,4217.436035,4231.282227,4205.641113,4241.538574
83,4217.436035,4216.922852,4202.05127,4205.641113,4194.358887,4205.128418,4193.333496,4180.0,4218.461426,4206.153809,4221.025879,4232.307617,4210.769043,4244.615234
84,4220.512695,4210.256348,4203.589844,4203.589844,4191.794922,4203.589844,4195.897461,4182.05127,4218.974121,4215.384766,4230.769043,4233.333496,4215.384766,4247.692383
85,4222.563965,4200.512695,4200.512695,4197.94873,4194.358887,4208.717773,4190.769043,4184.615234,4217.436035,4217.436035,4231.794922,4231.794922,4215.897461,4247.179688
86,4220.0,4207.179688,4197.94873,4201.025879,4200.0,4212.820313,4186.153809,4178.974121,4220.0,4214.358887,4230.256348,4232.307617,4215.897461,4241.025879
87,4213.333496,4214.358887,4198.461426,4205.641113,4198.974121,4205.641113,4186.666504,4171.282227,4214.871582,4213.846191,4230.256348,4228.205078,4217.94873,4235.384766
88,4202.563965,4206.153809,4198.461426,4203.077148,4198.974121,4199.487305,4185.641113,4168.717773,4206.153809,4206.153809,4224.102539,4220.512695,4211.282227,4231.282227
89,4197.94873,4200.0,4199.487305,4197.94873,4200.0,4202.563965,4182.563965,4167.179688,4197.94873,4191.282227,4212.820313,4213.333496,4194.358887,4221.025879
90,4196.410156,4195.897461,4198.974121,4195.384766,4196.922852,4203.077148,4186.153809,4165.128418,4187.179688,4183.077148,4201.025879,4205.128418,4180.512695,4207.179688
91,4185.128418,4188.717773,4198.461426,4195.897461,4195.897461,4201.538574,4192.820313,4164.615234,4182.05127,4179.487305,4197.94873,4202.563965,4178.974121,4205.641113
92,4176.922852,4190.769043,4200.0,4199.487305,4198.974121,4206.153809,4200.0,4172.820313,4190.769043,4183.077148,4206.666504,4211.282227,4181.538574,4211.794922
93,4191.282227,4201.025879,4200.512695,4202.563965,4196.410156,4206.153809,4198.461426,4183.077148,4202.05127,4195.384766,4217.436035,4219.487305,4186.153809,4217.436035
94,4205.641113,4198.461426,4200.512695,4201.025879,4190.256348,4201.538574,4189.743652,4180.0,4202.563965,4201.538574,4219.487305,4218.974121,4193.846191,4220.512695
95,4198.974121,4191.282227,4200.512695,4197.94873,4192.820313,4202.05127,4186.666504,4173.846191,4200.512695,4200.512695,4217.436035,4216.410156,4192.307617,4217.436035
96,4188.717773,4198.974121,4202.05127,4197.94873,4194.871582,4203.077148,4186.153809,4173.333496,4201.538574,4197.436035,4214.871582,4214.358887,4188.717773,4214.358887
97,4196.410156,4207.179688,4201.538574,4202.563965,4188.205078,4200.0,4182.05127,4172.307617,4200.0,4193.333496,4214.871582,4215.897461,4191.794922,4216.410156
98,4207.692383,4204.102539,4199.487305,4207.179688,4189.743652,4198.974121,4181.538574,4170.256348,4197.94873,4192.820313,4214.871582,4217.94873,4191.282227,4220.0
99,4193.333496,4200.0,4200.512695,4206.153809,4201.025879,4201.538574,4186.153809,4169.743652,4200.512695,4194.358887,4207.692383,4217.436035,4184.615234,4216.922852
100,4178.461426,4200.512695,4204.615234,4202.563965,4197.94873,4200.0,4178.974121,4168.205078,4198.974121,4190.256348,4202.563965,4212.307617,4184.615234,4211.794922
101,4187.179688,4197.94873,4201.538574,4200.0,4190.769043,4196.410156,4166.666504,4164.102539,4187.179688,4183.589844,4202.563965,4203.077148,4187.179688,4210.256348
102,4199.487305,4194.871582,4199.487305,4200.0,4197.436035,4199.487305,4172.820313,4166.666504,4186.666504,4184.615234,4201.025879,4204.102539,4183.589844,4211.282227
103,4200.512695,4197.436035,4203.589844,4205.641113,4205.128418,4208.205078,4187.692383,4176.922852,4199.487305,4192.307617,4204.615234,4213.846191,4180.512695,4212.307617
104,4196.410156,4200.512695,4204.102539,4213.333496,4202.563965,4210.769043,4189.230957,4184.615234,4203.077148,4198.974121,4213.846191,4218.461426,4181.538574,4217.94873
105,4198.461426,4203.589844,4198.461426,4216.922852,4198.974121,4210.256348,4185.641113,4185.128418,4198.461426,4200.512695,4218.974121,4219.487305,4186.666504,4227.179688
106,4208.717773,4207.179688,4199.487305,4216.410156,4200.512695,4210.769043,4188.205078,4182.05127,4201.538574,4200.512695,4218.461426,4222.563965,4189.230957,4228.205078
107,4218.461426,4207.692383,4202.05127,4212.307617,4196.410156,4205.641113,4184.615234,4179.487305,4203.077148,4201.025879,4216.922852,4221.538574,4186.666504,4224.102539
108,4216.410156,4205.128418,4198.974121,4205.641113,4189.230957,4198.461426,4174.871582,4180.512695,4201.025879,4200.0,4216.410156,4217.436035,4189.230957,4227.692383
109,4213.846191,4211.282227,4197.94873,4208.205078,4191.794922,4199.487305,4172.820313,4183.077148,4204.615234,4202.05127,4218.461426,4218.461426,4200.0,4234.358887
110,4222.05127,4216.410156,4200.512695,4214.871582,4195.897461,4202.05127,4172.820313,4176.410156,4206.153809,4203.077148,4220.0,4219.487305,4208.205078,4234.871582
111,4218.461426,4209.230957,4203.589844,4210.256348,4191.794922,4194.871582,4167.179688,4165.641113,4197.436035,4197.436035,4213.846191,4217.436035,4210.769043,4230.256348
112,4202.563965,4205.128418,4203.589844,4204.102539,4187.179688,4192.307617,4164.615234,4165.128418,4187.692383,4190.256348,4204.615234,4211.282227,4214.358887,4224.102539
113,4196.922852,4206.666504,4203.589844,4200.0,4187.179688,4200.0,4170.256348,4167.179688,4185.641113,4184.615234,4200.0,4203.589844,4213.846191,4214.871582
114,4202.563965,4200.512695,4203.589844,4195.897461,4185.641113,4204.615234,4178.461426,4167.179688,4191.794922,4183.589844,4197.436035,4198.974121,4213.846191,4212.307617
115,4202.563965,4199.487305,4201.538574,4196.922852,4184.102539,4202.05127,4187.179688,4172.307617,4198.974121,4189.230957,4198.461426,4201.538574,4227.692383,4214.871582
116,4195.384766,4210.769043,4199.487305,4201.025879,4186.666504,4201.538574,4190.256348,4181.025879,4202.05127,4196.922852,4207.692383,4207.692383,4244.102539,4215.897461
117,4201.025879,4219.487305,4203.077148,4202.563965,4188.205078,4202.563965,4186.666504,4186.666504,4201.538574,4198.974121,4216.410156,4215.897461,4250.256348,4220.512695
118,4213.846191,4219.487305,4203.589844,4202.05127,4187.692383,4199.487305,4185.641113,4184.615234,4202.563965,4200.0,4215.897461,4219.487305,4253.333496,4228.717773
119,4207.692383,4217.436035,4200.512695,4202.563965,4183.589844,4197.94873,4182.05127,4183.589844,4207.692383,4204.102539,4217.436035,4220.0,4261.538574,4231.794922
120,4195.897461,4222.05127,4201.025879,4201.025879,4184.615234,4196.410156,4178.974121,4187.692383,4209.230957,4207.692383,4224.102539,4220.0,4266.153809,4232.307617
121,4205.641113,4231.282227,4203.077148,4198.974121,4186.666504,4195.897461,4182.563965,4186.666504,4205.641113,4202.563965,4219.487305,4217.94873,4262.05127,4231.794922
122,4220.512695,4233.333496,4201.025879,4206.153809,4185.128418,4197.94873,4185.128418,4183.589844,4208.205078,4202.05127,4216.410156,4218.461426,4260.0,4231.282227
123,4218.974121,4230.256348,4202.05127,4211.794922,4192.820313,4201.538574,4184.102539,4184.615234,4216.410156,4211.794922,4226.153809,4221.538574,4265.641113,4234.871582
124,4206.666504,4226.153809,4202.563965,4203.589844,4198.974121,4205.128418,4185.641113,4186.153809,4216.410156,4213.846191,4226.153809,4217.94873,4263.589844,4231.282227
125,4187.692383,4221.538574,4198.974121,4193.846191,4191.282227,4205.128418,4187.179688,4183.589844,4204.615234,4202.05127,4213.333496,4211.794922,4249.230957,4215.384766
126,4178.974121,4217.94873,4198.461426,4199.487305,4186.153809,4200.512695,4186.666504,4181.025879,4198.461426,4197.94873,4210.256348,4213.333496,4242.05127,4212.307617
127,4201.025879,4216.410156,4201.538574,4203.077148,4190.256348,4198.974121,4187.692383,4183.589844,4200.0,4201.538574,4215.897461,4216.410156,4246.666504,4224.102539
