,AF3,F7,F3,FC5,T7,P7,O1,O2,P8,T8,FC6,F4,F8,AF4
0,4187.179688,4148.205078,4225.128418,4185.641113,4208.205078,4169.230957,4175.384766,4183.589844,4150.769043,4165.641113,4135.897461,4241.538574,4181.025879,4170.769043
1,4195.384766,4154.871582,4236.410156,4187.179688,4215.384766,4173.333496,4181.025879,4188.205078,4149.743652,4174.358887,4140.512695,4251.282227,4188.717773,4186.153809
2,4198.974121,4152.820313,4234.871582,4191.282227,4216.922852,4183.077148,4184.615234,4194.871582,4159.487305,4173.846191,4142.563965,4247.692383,4187.179688,4191.282227
3,4197.94873,4147.692383,4230.769043,4190.769043,4215.384766,4185.641113,4185.641113,4195.897461,4163.589844,4171.282227,4140.0,4244.615234,4185.128418,4182.05127
4,4198.461426,4147.692383,4229.743652,4190.256348,4215.384766,4183.077148,4183.589844,4191.282227,4158.461426,4174.358887,4144.615234,4247.692383,4186.666504,4179.487305
5,4199.487305,4148.205078,4230.769043,4194.871582,4214.871582,4185.641113,4184.102539,4191.282227,4160.512695,4181.538574,4151.282227,4246.666504,4189.743652,4185.128418
6,4198.461426,4148.717773,4231.794922,4200.0,4215.897461,4193.333496,4184.102539,4190.769043,4164.102539,4184.102539,4146.153809,4241.538574,4185.641113,4179.487305
7,4198.974121,4149.230957,4233.333496,4201.025879,4217.436035,4200.0,4185.641113,4190.256348,4166.666504,4181.538574,4142.05127,4237.94873,4181.538574,4165.641113
8,4199.487305,4150.769043,4231.282227,4199.487305,4216.410156,4203.589844,4194.871582,4200.0,4179.487305,4189.230957,4151.282227,4239.487305,4190.256348,4168.205078
9,4205.128418,4151.282227,4231.794922,4198.974121,4216.410156,4200.0,4201.538574,4207.692383,4187.179688,4200.512695,4162.05127,4248.205078,4202.563965,4187.692383
10,4217.436035,4155.384766,4242.05127,4201.025879,4218.974121,4197.94873,4197.94873,4201.538574,4181.025879,4202.563965,4169.743652,4261.538574,4211.282227,4203.077148
11,4222.05127,4160.512695,4249.743652,4204.102539,4220.0,4199.487305,4194.871582,4196.922852,4177.94873,4203.077148,4174.871582,4267.692383,4213.846191,4205.128418
12,4217.94873,4157.94873,4249.230957,4201.025879,4217.436035,4197.436035,4193.846191,4200.0,4174.358887,4201.538574,4167.179688,4264.615234,4208.717773,4200.0
13,4218.974121,4155.384766,4247.179688,4200.512695,4215.897461,4198.461426,4196.922852,4206.153809,4169.230957,4192.307617,4157.94873,4259.487305,4204.102539,4192.820313
14,4216.922852,4151.282227,4241.025879,4202.05127,4215.897461,4202.563965,4201.025879,4209.230957,4171.282227,4184.615234,4156.410156,4254.871582,4200.0,4182.563965
15,4205.128418,4141.538574,4229.230957,4197.436035,4213.333496,4201.538574,4196.922852,4206.666504,4169.743652,4184.615234,4153.333496,4247.692383,4193.846191,4171.794922
16,4200.512695,4137.436035,4225.641113,4195.384766,4213.333496,4207.692383,4193.846191,4204.102539,4172.820313,4185.641113,4152.820313,4247.692383,4190.769043,4173.333496
17,4205.641113,4139.487305,4227.692383,4199.487305,4216.410156,4214.358887,4198.974121,4206.666504,4180.512695,4184.102539,4152.820313,4250.769043,4192.820313,4185.128418
18,4209.230957,4138.974121,4226.153809,4201.025879,4215.897461,4207.692383,4201.538574,4210.256348,4184.102539,4188.717773,4153.333496,4249.743652,4195.897461,4186.666504
19,4208.717773,4137.94873,4225.641113,4196.410156,4212.307617,4206.153809,4204.102539,4212.820313,4193.333496,4200.512695,4162.563965,4247.692383,4200.0,4183.077148
20,4203.077148,4140.512695,4221.025879,4194.871582,4206.666504,4208.717773,4204.102539,4214.358887,4200.0,4202.563965,4168.717773,4241.538574,4198.461426,4188.717773
21,4196.922852,4136.410156,4213.333496,4195.384766,4202.563965,4200.512695,4197.94873,4210.256348,4188.205078,4186.666504,4157.94873,4231.794922,4192.307617,4186.666504
22,4205.641113,4136.922852,4217.94873,4198.974121,4208.205078,4204.615234,4195.897461,4208.205078,4177.94873,4182.05127,4150.256348,4234.871582,4196.410156,4182.05127
23,4221.538574,4154.358887,4232.307617,4206.153809,4217.436035,4218.974121,4204.102539,4211.794922,4179.487305,4200.512695,4160.512695,4250.256348,4206.153809,4196.922852
24,4222.05127,4155.897461,4236.922852,4204.102539,4214.871582,4208.717773,4204.102539,4210.769043,4171.794922,4200.0,4160.512695,4249.743652,4203.589844,4201.538574
25,4214.871582,4143.077148,4226.666504,4197.94873,4209.230957,4198.974121,4195.384766,4211.282227,4168.205078,4184.615234,4151.282227,4234.871582,4195.897461,4181.025879
26,4215.384766,4148.205078,4221.025879,4200.512695,4213.846191,4212.820313,4200.0,4218.974121,4188.205078,4191.794922,4156.410156,4230.769043,4197.436035,4175.384766
27,4217.436035,4152.307617,4223.589844,4203.077148,4214.871582,4222.05127,4209.230957,4222.05127,4204.102539,4206.153809,4166.666504,4235.384766,4202.05127,4190.769043
28,4220.0,4144.615234,4223.589844,4203.589844,4208.717773,4218.461426,4208.717773,4220.512695,4200.0,4203.077148,4168.717773,4239.487305,4208.205078,4196.922852
29,4228.205078,4151.794922,4224.615234,4206.666504,4207.692383,4216.922852,4206.153809,4221.538574,4196.410156,4200.0,4166.666504,4243.589844,4215.384766,4192.307617
30,4231.794922,4161.538574,4228.205078,4205.641113,4207.179688,4215.897461,4209.743652,4223.589844,4202.563965,4208.205078,4168.717773,4240.0,4215.384766,4193.846191
31,4228.205078,4155.384766,4229.743652,4206.153809,4204.102539,4214.871582,4209.743652,4221.538574,4205.128418,4215.384766,4172.820313,4234.358887,4213.333496,4196.410156
32,4229.743652,4151.794922,4229.743652,4211.282227,4206.153809,4215.897461,4207.692383,4216.922852,4201.025879,4216.410156,4176.922852,4239.487305,4217.436035,4200.512695
33,4231.794922,4154.871582,4223.077148,4208.205078,4207.692383,4214.358887,4205.641113,4211.794922,4194.358887,4209.743652,4175.897461,4242.563965,4219.487305,4201.538574
34,4231.794922,4152.820313,4216.922852,4201.538574,4201.538574,4214.358887,4201.025879,4211.794922,4187.179688,4200.0,4165.641113,4231.794922,4214.358887,4194.358887
35,4234.358887,4153.333496,4223.077148,4204.615234,4200.512695,4216.922852,4203.589844,4213.333496,4178.974121,4197.94873,4158.461426,4228.717773,4205.128418,4194.871582
36,4235.384766,4153.333496,4229.743652,4204.615234,4204.615234,4216.410156,4212.307617,4212.307617,4173.846191,4197.436035,4160.0,4240.0,4201.538574,4197.436035
37,4237.436035,4151.794922,4226.666504,4200.512695,4204.102539,4218.461426,4216.410156,4216.410156,4178.461426,4197.94873,4164.615234,4247.692383,4211.282227,4191.282227
38,4244.615234,4154.358887,4230.256348,4208.205078,4203.077148,4223.589844,4215.897461,4225.641113,4189.743652,4203.589844,4173.846191,4251.282227,4220.512695,4197.436035
39,4249.230957,4156.410156,4236.922852,4214.358887,4204.615234,4224.615234,4216.410156,4230.256348,4199.487305,4215.384766,4184.102539,4257.94873,4218.461426,4217.436035
40,4246.153809,4153.333496,4232.820313,4205.641113,4202.563965,4217.94873,4215.384766,4224.615234,4203.589844,4217.94873,4180.0,4254.871582,4217.436035,4216.922852
41,4245.641113,4151.282227,4230.256348,4201.025879,4200.0,4215.384766,4211.282227,4220.512695,4202.563965,4209.743652,4169.743652,4247.692383,4217.436035,4204.615234
42,4249.230957,4155.897461,4239.487305,4210.256348,4200.0,4216.922852,4213.846191,4222.05127,4195.384766,4203.077148,4169.743652,4248.717773,4215.384766,4209.230957
43,4251.282227,4163.589844,4248.205078,4214.358887,4201.025879,4218.461426,4221.538574,4218.974121,4190.256348,4204.615234,4174.871582,4249.743652,4214.871582,4215.897461
44,4250.256348,4163.589844,4243.077148,4211.282227,4202.563965,4216.410156,4216.410156,4209.230957,4179.487305,4203.077148,4170.256348,4245.128418,4214.358887,4210.769043
45,4248.717773,4157.436035,4233.846191,4211.794922,4203.077148,4214.871582,4206.153809,4205.128418,4171.282227,4199.487305,4166.666504,4244.615234,4216.410156,4204.615234
46,4248.205078,4157.436035,4234.358887,4213.846191,4201.025879,4221.538574,4211.282227,4210.769043,4184.102539,4205.641113,4174.871582,4247.179688,4221.025879,4203.077148
47,4248.205078,4166.153809,4236.410156,4213.846191,4200.512695,4231.794922,4222.05127,4220.0,4201.538574,4212.820313,4181.538574,4246.153809,4218.461426,4205.641113
48,4249.743652,4167.692383,4233.846191,4214.358887,4202.563965,4233.333496,4225.641113,4222.05127,4205.128418,4213.846191,4180.0,4246.153809,4216.922852,4215.384766
49,4249.743652,4160.512695,4233.333496,4214.871582,4201.025879,4225.128418,4227.179688,4220.512695,4202.563965,4212.820313,4177.94873,4245.128418,4218.974121,4219.487305
50,4250.256348,4159.487305,4239.487305,4211.794922,4195.897461,4215.897461,4223.077148,4218.461426,4198.974121,4211.794922,4179.487305,4245.641113,4215.897461,4215.897461
51,4262.563965,4166.666504,4252.307617,4214.871582,4197.436035,4213.333496,4217.94873,4219.487305,4194.358887,4218.461426,4188.205078,4257.436035,4222.563965,4224.102539
52,4276.922852,4174.358887,4265.641113,4223.589844,4208.205078,4220.512695,4224.615234,4222.05127,4197.436035,4233.333496,4204.615234,4273.846191,4243.589844,4240.0
53,4269.743652,4170.256348,4264.102539,4223.589844,4211.282227,4230.256348,4230.769043,4220.0,4202.563965,4233.846191,4205.641113,4269.743652,4247.179688,4233.846191
54,4250.769043,4156.410156,4247.179688,4215.384766,4203.589844,4234.358887,4227.692383,4216.410156,4200.512695,4219.487305,4188.717773,4249.230957,4227.692383,4213.846191
55,4244.615234,4153.333496,4234.871582,4214.871582,4201.025879,4236.922852,4227.692383,4218.461426,4204.615234,4214.358887,4183.589844,4242.563965,4221.025879,4210.769043
56,4248.205078,4164.615234,4233.333496,4218.461426,4204.102539,4234.358887,4227.692383,4221.025879,4212.820313,4218.974121,4186.666504,4249.230957,4228.717773,4213.846191
57,4253.846191,4170.256348,4237.94873,4216.410156,4201.538574,4232.820313,4224.615234,4220.0,4212.820313,4225.128418,4189.230957,4247.692383,4233.333496,4213.333496
58,4260.0,4166.666504,4244.102539,4214.871582,4198.461426,4231.794922,4222.563965,4222.05127,4204.102539,4225.641113,4193.846191,4244.615234,4231.282227,4218.461426
59,4263.077148,4167.692383,4249.230957,4215.384766,4201.025879,4222.563965,4220.512695,4221.538574,4192.307617,4220.0,4192.820313,4250.769043,4230.769043,4218.974121
60,4265.128418,4166.666504,4250.256348,4214.871582,4199.487305,4211.282227,4214.358887,4212.820313,4181.025879,4214.358887,4185.128418,4260.0,4230.769043,4213.846191
61,4266.153809,4164.615234,4250.256348,4213.846191,4196.922852,4208.717773,4211.794922,4211.794922,4178.974121,4215.897461,4186.666504,4266.153809,4232.307617,4221.538574
62,4265.128418,4171.282227,4250.769043,4215.897461,4201.025879,4215.384766,4220.512695,4222.05127,4190.256348,4223.077148,4198.461426,4269.230957,4236.922852,4235.384766
63,4266.666504,4170.769043,4246.153809,4217.94873,4202.563965,4227.692383,4228.205078,4226.666504,4203.077148,4228.717773,4199.487305,4267.179688,4238.461426,4234.358887
64,4261.538574,4156.410156,4234.871582,4213.846191,4199.487305,4233.333496,4226.666504,4223.589844,4208.717773,4224.102539,4188.717773,4259.487305,4232.820313,4221.538574
65,4246.153809,4151.282227,4227.179688,4206.666504,4196.922852,4231.282227,4218.974121,4219.487305,4212.307617,4215.384766,4183.589844,4248.205078,4228.205078,4212.820313
66,4247.692383,4159.487305,4229.743652,4205.128418,4195.384766,4230.769043,4218.461426,4218.461426,4215.897461,4222.05127,4187.179688,4243.077148,4228.717773,4213.333496
67,4258.461426,4158.974121,4233.333496,4207.692383,4194.358887,4227.692383,4222.05127,4222.05127,4219.487305,4232.820313,4188.717773,4244.615234,4229.230957,4216.410156
68,4255.384766,4158.974121,4232.307617,4209.230957,4194.871582,4220.0,4223.589844,4225.641113,4214.871582,4231.282227,4188.717773,4247.179688,4229.230957,4217.94873
69,4252.307617,4165.641113,4234.358887,4211.282227,4198.974121,4217.436035,4225.128418,4223.077148,4197.94873,4221.025879,4189.230957,4249.230957,4227.692383,4221.538574
70,4252.307617,4162.05127,4231.794922,4210.256348,4197.436035,4218.974121,4224.102539,4219.487305,4184.102539,4216.410156,4186.666504,4245.641113,4220.512695,4219.487305
71,4242.05127,4150.769043,4222.563965,4201.538574,4189.743652,4214.871582,4214.871582,4214.871582,4180.512695,4215.897461,4183.077148,4233.846191,4213.846191,4207.692383
72,4235.897461,4150.769043,4220.512695,4197.94873,4189.743652,4211.794922,4209.230957,4215.897461,4180.512695,4216.410156,4183.077148,4233.846191,4215.897461,4210.256348
73,4247.692383,4162.05127,4231.794922,4208.205078,4198.974121,4218.974121,4218.974121,4224.615234,4188.717773,4222.05127,4191.282227,4246.666504,4227.179688,4225.128418
74,4259.487305,4170.256348,4240.512695,4217.94873,4203.589844,4232.307617,4231.794922,4230.256348,4203.077148,4228.205078,4200.512695,4250.769043,4232.307617,4228.205078
75,4262.563965,4171.282227,4239.487305,4216.410156,4205.128418,4237.436035,4232.820313,4228.205078,4212.307617,4229.743652,4197.436035,4247.692383,4228.717773,4224.102539
76,4256.922852,4168.717773,4233.333496,4212.307617,4204.615234,4234.358887,4230.769043,4223.589844,4214.871582,4225.128418,4191.794922,4245.641113,4226.666504,4228.717773
77,4249.230957,4168.205078,4232.307617,4213.846191,4201.025879,4239.487305,4232.820313,4224.615234,4218.974121,4223.589844,4196.410156,4247.179688,4230.769043,4234.871582
78,4254.871582,4172.307617,4239.487305,4217.436035,4205.128418,4246.153809,4237.436035,4229.743652,4218.974121,4231.794922,4200.512695,4252.307617,4233.846191,4237.436035
79,4261.025879,4170.769043,4239.487305,4214.871582,4207.179688,4237.94873,4235.384766,4228.717773,4209.230957,4230.769043,4196.410156,4248.205078,4230.256348,4235.897461
80,4259.487305,4168.717773,4237.94873,4212.307617,4204.615234,4229.230957,4230.256348,4223.077148,4197.94873,4221.538574,4198.461426,4246.153809,4228.205078,4231.794922
81,4263.589844,4172.820313,4247.179688,4216.922852,4209.743652,4232.820313,4234.358887,4225.641113,4197.436035,4225.128418,4208.717773,4258.461426,4231.794922,4232.307617
82,4264.615234,4174.871582,4250.769043,4218.974121,4215.897461,4232.820313,4230.769043,4230.256348,4208.717773,4233.846191,4209.230957,4261.538574,4233.846191,4234.358887
83,4254.358887,4170.769043,4239.487305,4214.358887,4213.846191,4227.179688,4218.974121,4228.717773,4217.94873,4235.384766,4203.589844,4249.230957,4230.769043,4233.846191
84,4247.179688,4170.256348,4231.282227,4215.384766,4213.333496,4230.769043,4219.487305,4225.641113,4218.461426,4233.846191,4206.153809,4246.153809,4232.307617,4228.205078
85,4247.179688,4173.333496,4233.846191,4218.974121,4216.410156,4235.384766,4226.666504,4224.102539,4211.282227,4225.128418,4206.153809,4246.666504,4232.820313,4217.94873
86,4244.615234,4171.282227,4231.794922,4215.384766,4215.897461,4232.307617,4228.205078,4220.512695,4203.589844,4213.846191,4191.282227,4239.487305,4222.563965,4213.333496
87,4245.128418,4167.692383,4229.743652,4212.820313,4215.384766,4229.743652,4230.256348,4218.461426,4198.461426,4211.794922,4181.025879,4237.94873,4213.846191,4217.436035
88,4248.205078,4169.743652,4236.922852,4214.358887,4212.307617,4231.282227,4233.333496,4220.512695,4196.410156,4212.307617,4189.230957,4247.179688,4216.410156,4224.102539
89,4248.717773,4169.743652,4243.077148,4213.333496,4206.153809,4230.769043,4232.820313,4222.05127,4197.436035,4212.820313,4197.94873,4258.461426,4225.128418,4229.743652
90,4246.666504,4162.563965,4238.461426,4206.666504,4203.589844,4227.179688,4232.820313,4220.0,4199.487305,4215.384766,4198.461426,4261.025879,4230.769043,4235.897461
91,4247.179688,4154.358887,4235.384766,4202.563965,4203.589844,4228.205078,4234.871582,4225.641113,4211.794922,4221.025879,4200.0,4256.922852,4231.282227,4239.487305
92,4249.230957,4155.897461,4240.512695,4206.153809,4204.615234,4234.871582,4238.461426,4236.410156,4230.256348,4230.256348,4205.641113,4258.461426,4233.333496,4237.94873
93,4247.692383,4159.487305,4239.487305,4205.641113,4209.230957,4236.410156,4233.333496,4234.871582,4237.436035,4240.0,4212.307617,4255.897461,4235.384766,4235.897461
94,4244.615234,4155.897461,4232.307617,4201.025879,4210.769043,4232.820313,4220.512695,4224.615234,4229.743652,4243.589844,4214.358887,4247.692383,4230.769043,4234.358887
95,4243.077148,4153.333496,4231.282227,4202.563965,4208.717773,4232.307617,4220.512695,4225.128418,4222.05127,4240.512695,4209.743652,4246.153809,4230.769043,4227.179688
96,4238.974121,4152.307617,4232.820313,4204.615234,4208.205078,4234.871582,4223.077148,4226.153809,4213.846191,4231.282227,4203.077148,4243.077148,4232.307617,4215.897461
97,4230.256348,4149.743652,4227.692383,4199.487305,4205.128418,4231.282227,4214.358887,4212.820313,4199.487305,4220.512695,4195.384766,4228.717773,4221.538574,4210.769043
98,4231.794922,4150.769043,4226.153809,4201.025879,4205.128418,4226.666504,4211.794922,4206.666504,4193.333496,4216.410156,4192.307617,4222.563965,4219.487305,4212.307617
99,4246.153809,4156.410156,4241.025879,4206.666504,4209.743652,4230.769043,4222.563965,4217.436035,4201.025879,4217.94873,4193.846191,4232.820313,4230.256348,4215.897461
100,4252.307617,4156.922852,4249.743652,4206.666504,4208.205078,4236.922852,4229.230957,4222.563965,4203.589844,4218.974121,4191.282227,4240.512695,4227.179688,4213.846191
101,4250.769043,4153.333496,4245.128418,4209.743652,4202.563965,4234.358887,4227.179688,4217.436035,4199.487305,4212.820313,4189.743652,4244.102539,4218.974121,4215.897461
102,4260.0,4154.871582,4256.410156,4214.358887,4204.102539,4232.307617,4231.794922,4221.025879,4206.666504,4214.358887,4196.922852,4253.333496,4226.153809,4231.282227
103,4268.205078,4155.897461,4268.717773,4207.179688,4203.077148,4234.871582,4240.0,4226.153809,4218.461426,4226.153809,4205.128418,4265.128418,4235.384766,4242.563965
104,4255.897461,4153.333496,4255.384766,4197.94873,4196.410156,4233.333496,4238.461426,4225.128418,4219.487305,4226.666504,4201.538574,4264.615234,4229.230957,4232.820313
105,4242.563965,4149.743652,4243.077148,4197.436035,4195.897461,4229.230957,4229.230957,4224.102539,4211.794922,4212.820313,4189.230957,4252.307617,4214.871582,4218.974121
106,4245.128418,4150.256348,4246.666504,4200.512695,4200.512695,4232.820313,4230.256348,4226.666504,4209.230957,4210.256348,4183.077148,4247.179688,4212.307617,4218.461426
107,4242.05127,4152.820313,4239.487305,4202.05127,4204.615234,4238.974121,4238.461426,4227.179688,4214.358887,4219.487305,4189.743652,4244.615234,4215.897461,4217.94873
108,4228.717773,4150.256348,4226.666504,4202.05127,4202.563965,4236.922852,4235.384766,4224.102539,4211.794922,4215.897461,4189.230957,4236.922852,4208.717773,4206.666504
109,4224.615234,4147.692383,4226.666504,4201.025879,4201.538574,4232.307617,4223.077148,4216.922852,4200.0,4208.205078,4182.563965,4236.922852,4204.615234,4202.05127
110,4229.743652,4156.410156,4231.282227,4204.102539,4205.641113,4226.153809,4215.384766,4204.102539,4193.846191,4210.256348,4189.743652,4244.102539,4215.897461,4215.897461
111,4237.436035,4169.230957,4236.922852,4211.282227,4212.307617,4220.0,4214.871582,4200.0,4197.436035,4212.307617,4201.025879,4244.102539,4228.205078,4224.615234
112,4246.666504,4172.307617,4245.641113,4215.897461,4214.358887,4219.487305,4217.436035,4208.205078,4201.538574,4217.436035,4202.563965,4243.077148,4235.384766,4221.538574
113,4247.179688,4168.717773,4244.102539,4211.282227,4207.692383,4218.461426,4214.871582,4210.769043,4202.563965,4216.410156,4200.0,4244.102539,4232.307617,4219.487305
114,4243.077148,4168.717773,4240.512695,4202.563965,4202.563965,4216.922852,4212.307617,4206.153809,4199.487305,4205.641113,4196.922852,4243.077148,4220.512695,4218.974121
115,4247.179688,4169.230957,4250.769043,4203.077148,4202.563965,4221.538574,4217.94873,4209.230957,4200.0,4205.641113,4196.922852,4251.794922,4220.512695,4223.077148
116,4251.282227,4162.05127,4260.0,4204.615234,4201.538574,4224.102539,4222.05127,4214.871582,4201.538574,4216.410156,4199.487305,4265.641113,4225.641113,4227.692383
117,4247.179688,4152.820313,4254.358887,4202.05127,4199.487305,4226.666504,4224.615234,4215.384766,4202.05127,4214.871582,4198.461426,4265.128418,4220.512695,4229.230957
118,4246.666504,4150.769043,4248.205078,4203.077148,4202.05127,4233.846191,4230.769043,4214.358887,4211.282227,4211.282227,4197.436035,4255.897461,4214.871582,4233.333496
119,4246.153809,4153.846191,4248.205078,4204.102539,4203.589844,4229.230957,4228.205078,4213.846191,4213.846191,4213.333496,4197.94873,4248.205078,4213.333496,4229.230957
120,4240.512695,4154.871582,4248.205078,4202.563965,4202.05127,4222.05127,4221.538574,4215.384766,4206.153809,4212.307617,4195.897461,4251.794922,4212.307617,4222.563965
121,4243.589844,4156.410156,4249.743652,4205.641113,4204.102539,4226.666504,4227.179688,4222.563965,4213.333496,4215.384766,4197.94873,4263.589844,4216.922852,4229.230957
122,4244.615234,4153.846191,4248.717773,4204.615234,4203.077148,4225.641113,4228.205078,4222.05127,4221.025879,4217.436035,4201.538574,4261.025879,4219.487305,4230.256348
123,4234.871582,4149.743652,4246.666504,4201.025879,4200.0,4214.358887,4216.922852,4214.358887,4206.153809,4213.333496,4198.461426,4248.717773,4214.871582,4221.025879
124,4237.436035,4158.461426,4253.846191,4207.692383,4207.179688,4218.461426,4214.871582,4212.307617,4196.922852,4214.358887,4197.94873,4253.846191,4220.0,4224.102539
125,4251.282227,4170.769043,4264.102539,4216.922852,4218.974121,4227.179688,4220.0,4215.897461,4206.153809,4219.487305,4203.589844,4265.641113,4230.769043,4230.256348
126,4251.794922,4173.333496,4267.179688,4217.436035,4218.974121,4220.512695,4218.461426,4215.897461,4208.205078,4218.461426,4206.666504,4272.820313,4234.358887,4231.794922
127,4245.641113,4169.230957,4263.589844,4214.871582,4213.333496,4214.871582,4214.358887,4211.794922,4198.461426,4213.846191,4202.05127,4275.897461,4230.769043,4241.025879
